# E (eV)   ldos(E)   pdos(E)   
 -27.116 -0.547E-05 -0.547E-05
 -27.106 -0.591E-05 -0.591E-05
 -27.096 -0.637E-05 -0.637E-05
 -27.086 -0.687E-05 -0.687E-05
 -27.076 -0.740E-05 -0.740E-05
 -27.066 -0.797E-05 -0.797E-05
 -27.056 -0.858E-05 -0.858E-05
 -27.046 -0.923E-05 -0.923E-05
 -27.036 -0.993E-05 -0.993E-05
 -27.026 -0.107E-04 -0.107E-04
 -27.016 -0.115E-04 -0.115E-04
 -27.006 -0.123E-04 -0.123E-04
 -26.996 -0.132E-04 -0.132E-04
 -26.986 -0.142E-04 -0.142E-04
 -26.976 -0.152E-04 -0.152E-04
 -26.966 -0.163E-04 -0.163E-04
 -26.956 -0.174E-04 -0.174E-04
 -26.946 -0.186E-04 -0.186E-04
 -26.936 -0.199E-04 -0.199E-04
 -26.926 -0.213E-04 -0.213E-04
 -26.916 -0.227E-04 -0.227E-04
 -26.906 -0.243E-04 -0.243E-04
 -26.896 -0.259E-04 -0.259E-04
 -26.886 -0.277E-04 -0.277E-04
 -26.876 -0.295E-04 -0.295E-04
 -26.866 -0.314E-04 -0.314E-04
 -26.856 -0.334E-04 -0.334E-04
 -26.846 -0.356E-04 -0.356E-04
 -26.836 -0.379E-04 -0.379E-04
 -26.826 -0.403E-04 -0.403E-04
 -26.816 -0.428E-04 -0.428E-04
 -26.806 -0.454E-04 -0.454E-04
 -26.796 -0.482E-04 -0.482E-04
 -26.786 -0.511E-04 -0.511E-04
 -26.776 -0.542E-04 -0.542E-04
 -26.766 -0.574E-04 -0.574E-04
 -26.756 -0.608E-04 -0.608E-04
 -26.746 -0.643E-04 -0.643E-04
 -26.736 -0.680E-04 -0.680E-04
 -26.726 -0.719E-04 -0.719E-04
 -26.716 -0.760E-04 -0.760E-04
 -26.706 -0.802E-04 -0.802E-04
 -26.696 -0.846E-04 -0.846E-04
 -26.686 -0.892E-04 -0.892E-04
 -26.676 -0.940E-04 -0.940E-04
 -26.666 -0.990E-04 -0.990E-04
 -26.656 -0.104E-03 -0.104E-03
 -26.646 -0.110E-03 -0.110E-03
 -26.636 -0.115E-03 -0.115E-03
 -26.626 -0.121E-03 -0.121E-03
 -26.616 -0.127E-03 -0.127E-03
 -26.606 -0.133E-03 -0.133E-03
 -26.596 -0.140E-03 -0.140E-03
 -26.586 -0.146E-03 -0.146E-03
 -26.576 -0.153E-03 -0.153E-03
 -26.566 -0.160E-03 -0.160E-03
 -26.556 -0.168E-03 -0.168E-03
 -26.546 -0.175E-03 -0.175E-03
 -26.536 -0.183E-03 -0.183E-03
 -26.526 -0.191E-03 -0.191E-03
 -26.516 -0.199E-03 -0.199E-03
 -26.506 -0.207E-03 -0.207E-03
 -26.496 -0.216E-03 -0.216E-03
 -26.486 -0.225E-03 -0.225E-03
 -26.476 -0.233E-03 -0.233E-03
 -26.466 -0.242E-03 -0.242E-03
 -26.456 -0.252E-03 -0.252E-03
 -26.446 -0.261E-03 -0.261E-03
 -26.436 -0.271E-03 -0.271E-03
 -26.426 -0.280E-03 -0.280E-03
 -26.416 -0.290E-03 -0.290E-03
 -26.406 -0.300E-03 -0.300E-03
 -26.396 -0.310E-03 -0.310E-03
 -26.386 -0.319E-03 -0.319E-03
 -26.376 -0.329E-03 -0.329E-03
 -26.366 -0.339E-03 -0.339E-03
 -26.356 -0.349E-03 -0.349E-03
 -26.346 -0.359E-03 -0.359E-03
 -26.336 -0.369E-03 -0.369E-03
 -26.326 -0.378E-03 -0.378E-03
 -26.316 -0.388E-03 -0.388E-03
 -26.306 -0.397E-03 -0.397E-03
 -26.296 -0.406E-03 -0.406E-03
 -26.286 -0.415E-03 -0.415E-03
 -26.276 -0.424E-03 -0.424E-03
 -26.266 -0.432E-03 -0.432E-03
 -26.256 -0.440E-03 -0.440E-03
 -26.246 -0.447E-03 -0.447E-03
 -26.236 -0.454E-03 -0.454E-03
 -26.226 -0.460E-03 -0.460E-03
 -26.216 -0.466E-03 -0.466E-03
 -26.206 -0.471E-03 -0.471E-03
 -26.196 -0.476E-03 -0.476E-03
 -26.186 -0.479E-03 -0.479E-03
 -26.176 -0.482E-03 -0.482E-03
 -26.166 -0.484E-03 -0.484E-03
 -26.156 -0.485E-03 -0.485E-03
 -26.146 -0.485E-03 -0.485E-03
 -26.136 -0.484E-03 -0.484E-03
 -26.126 -0.482E-03 -0.482E-03
 -26.116 -0.479E-03 -0.479E-03
 -26.106 -0.474E-03 -0.474E-03
 -26.096 -0.468E-03 -0.468E-03
 -26.086 -0.460E-03 -0.460E-03
 -26.076 -0.451E-03 -0.451E-03
 -26.066 -0.441E-03 -0.441E-03
 -26.056 -0.428E-03 -0.428E-03
 -26.046 -0.414E-03 -0.414E-03
 -26.036 -0.398E-03 -0.398E-03
 -26.026 -0.380E-03 -0.380E-03
 -26.016 -0.361E-03 -0.361E-03
 -26.006 -0.339E-03 -0.339E-03
 -25.996 -0.315E-03 -0.315E-03
 -25.986 -0.288E-03 -0.288E-03
 -25.976 -0.260E-03 -0.260E-03
 -25.966 -0.229E-03 -0.229E-03
 -25.956 -0.195E-03 -0.195E-03
 -25.946 -0.159E-03 -0.159E-03
 -25.936 -0.121E-03 -0.121E-03
 -25.926 -0.796E-04 -0.796E-04
 -25.916 -0.357E-04 -0.357E-04
 -25.906  0.111E-04  0.111E-04
 -25.896  0.607E-04  0.607E-04
 -25.886  0.113E-03  0.113E-03
 -25.876  0.169E-03  0.169E-03
 -25.866  0.227E-03  0.227E-03
 -25.856  0.289E-03  0.289E-03
 -25.846  0.354E-03  0.354E-03
 -25.836  0.422E-03  0.422E-03
 -25.826  0.493E-03  0.493E-03
 -25.816  0.567E-03  0.567E-03
 -25.806  0.645E-03  0.645E-03
 -25.796  0.726E-03  0.726E-03
 -25.786  0.810E-03  0.810E-03
 -25.776  0.898E-03  0.898E-03
 -25.766  0.988E-03  0.988E-03
 -25.756  0.108E-02  0.108E-02
 -25.746  0.118E-02  0.118E-02
 -25.736  0.128E-02  0.128E-02
 -25.726  0.138E-02  0.138E-02
 -25.716  0.149E-02  0.149E-02
 -25.706  0.160E-02  0.160E-02
 -25.696  0.172E-02  0.172E-02
 -25.686  0.183E-02  0.183E-02
 -25.676  0.195E-02  0.195E-02
 -25.666  0.207E-02  0.207E-02
 -25.656  0.220E-02  0.220E-02
 -25.646  0.233E-02  0.233E-02
 -25.636  0.246E-02  0.246E-02
 -25.626  0.259E-02  0.259E-02
 -25.616  0.273E-02  0.273E-02
 -25.606  0.287E-02  0.287E-02
 -25.596  0.301E-02  0.301E-02
 -25.586  0.315E-02  0.315E-02
 -25.576  0.330E-02  0.330E-02
 -25.566  0.344E-02  0.344E-02
 -25.556  0.359E-02  0.359E-02
 -25.546  0.374E-02  0.374E-02
 -25.536  0.389E-02  0.389E-02
 -25.526  0.404E-02  0.404E-02
 -25.516  0.420E-02  0.420E-02
 -25.506  0.435E-02  0.435E-02
 -25.496  0.451E-02  0.451E-02
 -25.486  0.466E-02  0.466E-02
 -25.476  0.482E-02  0.482E-02
 -25.466  0.497E-02  0.497E-02
 -25.456  0.513E-02  0.513E-02
 -25.446  0.529E-02  0.529E-02
 -25.436  0.544E-02  0.544E-02
 -25.426  0.559E-02  0.559E-02
 -25.416  0.575E-02  0.575E-02
 -25.406  0.590E-02  0.590E-02
 -25.396  0.605E-02  0.605E-02
 -25.386  0.620E-02  0.620E-02
 -25.376  0.634E-02  0.634E-02
 -25.366  0.649E-02  0.649E-02
 -25.356  0.663E-02  0.663E-02
 -25.346  0.677E-02  0.677E-02
 -25.336  0.691E-02  0.691E-02
 -25.326  0.704E-02  0.704E-02
 -25.316  0.717E-02  0.717E-02
 -25.306  0.730E-02  0.730E-02
 -25.296  0.742E-02  0.742E-02
 -25.286  0.754E-02  0.754E-02
 -25.276  0.766E-02  0.766E-02
 -25.266  0.777E-02  0.777E-02
 -25.256  0.788E-02  0.788E-02
 -25.246  0.798E-02  0.798E-02
 -25.236  0.808E-02  0.808E-02
 -25.226  0.817E-02  0.817E-02
 -25.216  0.826E-02  0.826E-02
 -25.206  0.834E-02  0.834E-02
 -25.196  0.842E-02  0.842E-02
 -25.186  0.849E-02  0.849E-02
 -25.176  0.855E-02  0.855E-02
 -25.166  0.861E-02  0.861E-02
 -25.156  0.867E-02  0.867E-02
 -25.146  0.871E-02  0.871E-02
 -25.136  0.875E-02  0.875E-02
 -25.126  0.879E-02  0.879E-02
 -25.116  0.882E-02  0.882E-02
 -25.106  0.884E-02  0.884E-02
 -25.096  0.886E-02  0.886E-02
 -25.086  0.887E-02  0.887E-02
 -25.076  0.887E-02  0.887E-02
 -25.066  0.887E-02  0.887E-02
 -25.056  0.886E-02  0.886E-02
 -25.046  0.885E-02  0.885E-02
 -25.036  0.882E-02  0.882E-02
 -25.026  0.880E-02  0.880E-02
 -25.016  0.876E-02  0.876E-02
 -25.006  0.872E-02  0.872E-02
 -24.996  0.867E-02  0.867E-02
 -24.986  0.862E-02  0.862E-02
 -24.976  0.856E-02  0.856E-02
 -24.966  0.850E-02  0.850E-02
 -24.956  0.843E-02  0.843E-02
 -24.946  0.835E-02  0.835E-02
 -24.936  0.827E-02  0.827E-02
 -24.926  0.818E-02  0.818E-02
 -24.916  0.809E-02  0.809E-02
 -24.906  0.800E-02  0.800E-02
 -24.896  0.790E-02  0.790E-02
 -24.886  0.779E-02  0.779E-02
 -24.876  0.768E-02  0.768E-02
 -24.866  0.756E-02  0.756E-02
 -24.856  0.744E-02  0.744E-02
 -24.846  0.732E-02  0.732E-02
 -24.836  0.719E-02  0.719E-02
 -24.826  0.706E-02  0.706E-02
 -24.816  0.693E-02  0.693E-02
 -24.806  0.679E-02  0.679E-02
 -24.796  0.666E-02  0.666E-02
 -24.786  0.651E-02  0.651E-02
 -24.776  0.637E-02  0.637E-02
 -24.766  0.622E-02  0.622E-02
 -24.756  0.607E-02  0.607E-02
 -24.746  0.592E-02  0.592E-02
 -24.736  0.577E-02  0.577E-02
 -24.726  0.562E-02  0.562E-02
 -24.716  0.547E-02  0.547E-02
 -24.706  0.531E-02  0.531E-02
 -24.696  0.516E-02  0.516E-02
 -24.686  0.500E-02  0.500E-02
 -24.676  0.484E-02  0.484E-02
 -24.666  0.469E-02  0.469E-02
 -24.656  0.453E-02  0.453E-02
 -24.646  0.438E-02  0.438E-02
 -24.636  0.422E-02  0.422E-02
 -24.626  0.407E-02  0.407E-02
 -24.616  0.392E-02  0.392E-02
 -24.606  0.377E-02  0.377E-02
 -24.596  0.362E-02  0.362E-02
 -24.586  0.347E-02  0.347E-02
 -24.576  0.332E-02  0.332E-02
 -24.566  0.317E-02  0.317E-02
 -24.556  0.303E-02  0.303E-02
 -24.546  0.289E-02  0.289E-02
 -24.536  0.275E-02  0.275E-02
 -24.526  0.262E-02  0.262E-02
 -24.516  0.248E-02  0.248E-02
 -24.506  0.235E-02  0.235E-02
 -24.496  0.222E-02  0.222E-02
 -24.486  0.210E-02  0.210E-02
 -24.476  0.197E-02  0.197E-02
 -24.466  0.185E-02  0.185E-02
 -24.456  0.174E-02  0.174E-02
 -24.446  0.162E-02  0.162E-02
 -24.436  0.151E-02  0.151E-02
 -24.426  0.140E-02  0.140E-02
 -24.416  0.130E-02  0.130E-02
 -24.406  0.120E-02  0.120E-02
 -24.396  0.110E-02  0.110E-02
 -24.386  0.100E-02  0.100E-02
 -24.376  0.913E-03  0.913E-03
 -24.366  0.825E-03  0.825E-03
 -24.356  0.740E-03  0.740E-03
 -24.346  0.659E-03  0.659E-03
 -24.336  0.580E-03  0.580E-03
 -24.326  0.505E-03  0.505E-03
 -24.316  0.434E-03  0.434E-03
 -24.306  0.365E-03  0.365E-03
 -24.296  0.300E-03  0.300E-03
 -24.286  0.238E-03  0.238E-03
 -24.276  0.179E-03  0.179E-03
 -24.266  0.123E-03  0.123E-03
 -24.256  0.695E-04  0.695E-04
 -24.246  0.194E-04  0.194E-04
 -24.236 -0.279E-04 -0.279E-04
 -24.226 -0.723E-04 -0.723E-04
 -24.216 -0.114E-03 -0.114E-03
 -24.206 -0.153E-03 -0.153E-03
 -24.196 -0.189E-03 -0.189E-03
 -24.186 -0.223E-03 -0.223E-03
 -24.176 -0.255E-03 -0.255E-03
 -24.166 -0.284E-03 -0.284E-03
 -24.156 -0.310E-03 -0.310E-03
 -24.146 -0.335E-03 -0.335E-03
 -24.136 -0.357E-03 -0.357E-03
 -24.126 -0.377E-03 -0.377E-03
 -24.116 -0.395E-03 -0.395E-03
 -24.106 -0.412E-03 -0.412E-03
 -24.096 -0.426E-03 -0.426E-03
 -24.086 -0.439E-03 -0.439E-03
 -24.076 -0.450E-03 -0.450E-03
 -24.066 -0.459E-03 -0.459E-03
 -24.056 -0.467E-03 -0.467E-03
 -24.046 -0.473E-03 -0.473E-03
 -24.036 -0.478E-03 -0.478E-03
 -24.026 -0.482E-03 -0.482E-03
 -24.016 -0.484E-03 -0.484E-03
 -24.006 -0.485E-03 -0.485E-03
 -23.996 -0.485E-03 -0.485E-03
 -23.986 -0.485E-03 -0.485E-03
 -23.976 -0.483E-03 -0.483E-03
 -23.966 -0.480E-03 -0.480E-03
 -23.956 -0.476E-03 -0.476E-03
 -23.946 -0.472E-03 -0.472E-03
 -23.936 -0.467E-03 -0.467E-03
 -23.926 -0.461E-03 -0.461E-03
 -23.916 -0.455E-03 -0.455E-03
 -23.906 -0.448E-03 -0.448E-03
 -23.896 -0.441E-03 -0.441E-03
 -23.886 -0.433E-03 -0.433E-03
 -23.876 -0.425E-03 -0.425E-03
 -23.866 -0.417E-03 -0.417E-03
 -23.856 -0.408E-03 -0.408E-03
 -23.846 -0.399E-03 -0.399E-03
 -23.836 -0.390E-03 -0.390E-03
 -23.826 -0.380E-03 -0.380E-03
 -23.816 -0.370E-03 -0.370E-03
 -23.806 -0.361E-03 -0.361E-03
 -23.796 -0.351E-03 -0.351E-03
 -23.786 -0.341E-03 -0.341E-03
 -23.776 -0.331E-03 -0.331E-03
 -23.766 -0.321E-03 -0.321E-03
 -23.756 -0.311E-03 -0.311E-03
 -23.746 -0.301E-03 -0.301E-03
 -23.736 -0.292E-03 -0.292E-03
 -23.726 -0.282E-03 -0.282E-03
 -23.716 -0.272E-03 -0.272E-03
 -23.706 -0.263E-03 -0.263E-03
 -23.696 -0.253E-03 -0.253E-03
 -23.686 -0.244E-03 -0.244E-03
 -23.676 -0.235E-03 -0.235E-03
 -23.666 -0.226E-03 -0.226E-03
 -23.656 -0.217E-03 -0.217E-03
 -23.646 -0.209E-03 -0.209E-03
 -23.636 -0.200E-03 -0.200E-03
 -23.626 -0.192E-03 -0.192E-03
 -23.616 -0.184E-03 -0.184E-03
 -23.606 -0.176E-03 -0.176E-03
 -23.596 -0.169E-03 -0.169E-03
 -23.586 -0.162E-03 -0.162E-03
 -23.576 -0.154E-03 -0.154E-03
 -23.566 -0.148E-03 -0.148E-03
 -23.556 -0.141E-03 -0.141E-03
 -23.546 -0.134E-03 -0.134E-03
 -23.536 -0.128E-03 -0.128E-03
 -23.526 -0.122E-03 -0.122E-03
 -23.516 -0.116E-03 -0.116E-03
 -23.506 -0.111E-03 -0.111E-03
 -23.496 -0.105E-03 -0.105E-03
 -23.486 -0.999E-04 -0.999E-04
 -23.476 -0.948E-04 -0.948E-04
 -23.466 -0.900E-04 -0.900E-04
 -23.456 -0.854E-04 -0.854E-04
 -23.446 -0.809E-04 -0.809E-04
 -23.436 -0.767E-04 -0.767E-04
 -23.426 -0.726E-04 -0.726E-04
 -23.416 -0.687E-04 -0.687E-04
 -23.406 -0.649E-04 -0.649E-04
 -23.396 -0.614E-04 -0.614E-04
 -23.386 -0.580E-04 -0.580E-04
 -23.376 -0.547E-04 -0.547E-04
 -23.366 -0.516E-04 -0.516E-04
 -23.356 -0.487E-04 -0.487E-04
 -23.346 -0.459E-04 -0.459E-04
 -23.336 -0.432E-04 -0.432E-04
 -23.326 -0.407E-04 -0.407E-04
 -23.316 -0.383E-04 -0.383E-04
 -23.306 -0.360E-04 -0.360E-04
 -23.296 -0.338E-04 -0.338E-04
 -23.286 -0.317E-04 -0.317E-04
 -23.276 -0.298E-04 -0.298E-04
 -23.266 -0.280E-04 -0.280E-04
 -23.256 -0.262E-04 -0.262E-04
 -23.246 -0.246E-04 -0.246E-04
 -23.236 -0.230E-04 -0.230E-04
 -23.226 -0.215E-04 -0.215E-04
 -23.216 -0.201E-04 -0.201E-04
 -23.206 -0.188E-04 -0.188E-04
 -23.196 -0.176E-04 -0.176E-04
 -23.186 -0.164E-04 -0.164E-04
 -23.176 -0.154E-04 -0.154E-04
 -23.166 -0.143E-04 -0.143E-04
 -23.156 -0.134E-04 -0.134E-04
 -23.146 -0.124E-04 -0.124E-04
 -23.136 -0.116E-04 -0.116E-04
 -23.126 -0.108E-04 -0.108E-04
 -23.116 -0.100E-04 -0.100E-04
 -23.106 -0.935E-05 -0.935E-05
 -23.096 -0.869E-05 -0.869E-05
 -23.086 -0.807E-05 -0.807E-05
 -23.076 -0.750E-05 -0.750E-05
 -23.066 -0.696E-05 -0.696E-05
 -23.056 -0.646E-05 -0.646E-05
 -23.046 -0.599E-05 -0.599E-05
 -23.036 -0.555E-05 -0.555E-05
 -23.026 -0.514E-05 -0.514E-05
 -23.016 -0.476E-05 -0.476E-05
 -23.006 -0.440E-05 -0.440E-05
 -22.996 -0.407E-05 -0.407E-05
 -22.986 -0.376E-05 -0.376E-05
 -22.976 -0.348E-05 -0.348E-05
 -22.966 -0.321E-05 -0.321E-05
 -22.956 -0.296E-05 -0.296E-05
 -22.946 -0.273E-05 -0.273E-05
 -22.936 -0.252E-05 -0.252E-05
 -22.926 -0.232E-05 -0.232E-05
 -22.916 -0.214E-05 -0.214E-05
 -22.906 -0.197E-05 -0.197E-05
 -22.896 -0.181E-05 -0.181E-05
 -22.886 -0.167E-05 -0.167E-05
 -22.876 -0.154E-05 -0.154E-05
 -22.866 -0.141E-05 -0.141E-05
 -22.856 -0.130E-05 -0.130E-05
 -22.846 -0.119E-05 -0.119E-05
 -22.836 -0.109E-05 -0.109E-05
 -22.826 -0.100E-05 -0.100E-05
 -22.816 -0.920E-06 -0.920E-06
 -22.806 -0.844E-06 -0.844E-06
 -22.796 -0.774E-06 -0.774E-06
 -22.786 -0.710E-06 -0.710E-06
 -22.776 -0.651E-06 -0.651E-06
 -22.766 -0.596E-06 -0.596E-06
 -22.756 -0.547E-06 -0.547E-06
 -22.746 -0.501E-06 -0.501E-06
 -22.736 -0.460E-06 -0.460E-06
 -22.726 -0.422E-06 -0.422E-06
 -22.716 -0.387E-06 -0.387E-06
 -22.706 -0.356E-06 -0.356E-06
 -22.696 -0.327E-06 -0.327E-06
 -22.686 -0.301E-06 -0.301E-06
 -22.676 -0.278E-06 -0.278E-06
 -22.666 -0.257E-06 -0.257E-06
 -22.656 -0.238E-06 -0.238E-06
 -22.646 -0.221E-06 -0.221E-06
 -22.636 -0.206E-06 -0.206E-06
 -22.626 -0.193E-06 -0.193E-06
 -22.616 -0.181E-06 -0.181E-06
 -22.606 -0.171E-06 -0.171E-06
 -22.596 -0.163E-06 -0.163E-06
 -22.586 -0.156E-06 -0.156E-06
 -22.576 -0.150E-06 -0.150E-06
 -22.566 -0.146E-06 -0.146E-06
 -22.556 -0.143E-06 -0.143E-06
 -22.546 -0.141E-06 -0.141E-06
 -22.536 -0.140E-06 -0.140E-06
 -22.526 -0.141E-06 -0.141E-06
 -22.516 -0.142E-06 -0.142E-06
 -22.506 -0.145E-06 -0.145E-06
 -22.496 -0.149E-06 -0.149E-06
 -22.486 -0.154E-06 -0.154E-06
 -22.476 -0.160E-06 -0.160E-06
 -22.466 -0.167E-06 -0.167E-06
 -22.456 -0.176E-06 -0.176E-06
 -22.446 -0.186E-06 -0.186E-06
 -22.436 -0.197E-06 -0.197E-06
 -22.426 -0.209E-06 -0.209E-06
 -22.416 -0.223E-06 -0.223E-06
 -22.406 -0.238E-06 -0.238E-06
 -22.396 -0.255E-06 -0.255E-06
 -22.386 -0.273E-06 -0.273E-06
 -22.376 -0.293E-06 -0.293E-06
 -22.366 -0.315E-06 -0.315E-06
 -22.356 -0.338E-06 -0.338E-06
 -22.346 -0.364E-06 -0.364E-06
 -22.336 -0.391E-06 -0.391E-06
 -22.326 -0.421E-06 -0.421E-06
 -22.316 -0.453E-06 -0.453E-06
 -22.306 -0.487E-06 -0.487E-06
 -22.296 -0.524E-06 -0.524E-06
 -22.286 -0.564E-06 -0.564E-06
 -22.276 -0.606E-06 -0.606E-06
 -22.266 -0.652E-06 -0.652E-06
 -22.256 -0.700E-06 -0.700E-06
 -22.246 -0.752E-06 -0.752E-06
 -22.236 -0.808E-06 -0.808E-06
 -22.226 -0.867E-06 -0.867E-06
 -22.216 -0.930E-06 -0.930E-06
 -22.206 -0.998E-06 -0.998E-06
 -22.196 -0.107E-05 -0.107E-05
 -22.186 -0.115E-05 -0.115E-05
 -22.176 -0.123E-05 -0.123E-05
 -22.166 -0.131E-05 -0.131E-05
 -22.156 -0.140E-05 -0.140E-05
 -22.146 -0.150E-05 -0.150E-05
 -22.136 -0.161E-05 -0.161E-05
 -22.126 -0.171E-05 -0.171E-05
 -22.116 -0.183E-05 -0.183E-05
 -22.106 -0.195E-05 -0.195E-05
 -22.096 -0.208E-05 -0.208E-05
 -22.086 -0.222E-05 -0.222E-05
 -22.076 -0.237E-05 -0.237E-05
 -22.066 -0.252E-05 -0.252E-05
 -22.056 -0.268E-05 -0.268E-05
 -22.046 -0.285E-05 -0.285E-05
 -22.036 -0.303E-05 -0.303E-05
 -22.026 -0.322E-05 -0.322E-05
 -22.016 -0.342E-05 -0.342E-05
 -22.006 -0.362E-05 -0.362E-05
 -21.996 -0.384E-05 -0.384E-05
 -21.986 -0.407E-05 -0.407E-05
 -21.976 -0.432E-05 -0.432E-05
 -21.966 -0.457E-05 -0.457E-05
 -21.956 -0.483E-05 -0.483E-05
 -21.946 -0.511E-05 -0.511E-05
 -21.936 -0.540E-05 -0.540E-05
 -21.926 -0.570E-05 -0.570E-05
 -21.916 -0.602E-05 -0.602E-05
 -21.906 -0.635E-05 -0.635E-05
 -21.896 -0.670E-05 -0.670E-05
 -21.886 -0.705E-05 -0.705E-05
 -21.876 -0.743E-05 -0.743E-05
 -21.866 -0.782E-05 -0.782E-05
 -21.856 -0.822E-05 -0.822E-05
 -21.846 -0.864E-05 -0.864E-05
 -21.836 -0.907E-05 -0.907E-05
 -21.826 -0.952E-05 -0.952E-05
 -21.816 -0.999E-05 -0.999E-05
 -21.806 -0.105E-04 -0.105E-04
 -21.796 -0.110E-04 -0.110E-04
 -21.786 -0.115E-04 -0.115E-04
 -21.776 -0.120E-04 -0.120E-04
 -21.766 -0.126E-04 -0.126E-04
 -21.756 -0.131E-04 -0.131E-04
 -21.746 -0.137E-04 -0.137E-04
 -21.736 -0.143E-04 -0.143E-04
 -21.726 -0.149E-04 -0.149E-04
 -21.716 -0.155E-04 -0.155E-04
 -21.706 -0.161E-04 -0.161E-04
 -21.696 -0.168E-04 -0.168E-04
 -21.686 -0.175E-04 -0.175E-04
 -21.676 -0.181E-04 -0.181E-04
 -21.666 -0.188E-04 -0.188E-04
 -21.656 -0.195E-04 -0.195E-04
 -21.646 -0.202E-04 -0.202E-04
 -21.636 -0.209E-04 -0.209E-04
 -21.626 -0.216E-04 -0.216E-04
 -21.616 -0.224E-04 -0.224E-04
 -21.606 -0.231E-04 -0.231E-04
 -21.596 -0.238E-04 -0.238E-04
 -21.586 -0.246E-04 -0.246E-04
 -21.576 -0.253E-04 -0.253E-04
 -21.566 -0.260E-04 -0.260E-04
 -21.556 -0.268E-04 -0.268E-04
 -21.546 -0.275E-04 -0.275E-04
 -21.536 -0.282E-04 -0.282E-04
 -21.526 -0.289E-04 -0.289E-04
 -21.516 -0.296E-04 -0.296E-04
 -21.506 -0.303E-04 -0.303E-04
 -21.496 -0.309E-04 -0.309E-04
 -21.486 -0.315E-04 -0.315E-04
 -21.476 -0.321E-04 -0.321E-04
 -21.466 -0.327E-04 -0.327E-04
 -21.456 -0.333E-04 -0.333E-04
 -21.446 -0.338E-04 -0.338E-04
 -21.436 -0.342E-04 -0.342E-04
 -21.426 -0.346E-04 -0.346E-04
 -21.416 -0.350E-04 -0.350E-04
 -21.406 -0.353E-04 -0.353E-04
 -21.396 -0.356E-04 -0.356E-04
 -21.386 -0.358E-04 -0.358E-04
 -21.376 -0.359E-04 -0.359E-04
 -21.366 -0.360E-04 -0.360E-04
 -21.356 -0.360E-04 -0.360E-04
 -21.346 -0.359E-04 -0.359E-04
 -21.336 -0.357E-04 -0.357E-04
 -21.326 -0.354E-04 -0.354E-04
 -21.316 -0.351E-04 -0.351E-04
 -21.306 -0.346E-04 -0.346E-04
 -21.296 -0.340E-04 -0.340E-04
 -21.286 -0.333E-04 -0.333E-04
 -21.276 -0.325E-04 -0.325E-04
 -21.266 -0.316E-04 -0.316E-04
 -21.256 -0.306E-04 -0.306E-04
 -21.246 -0.294E-04 -0.294E-04
 -21.236 -0.280E-04 -0.280E-04
 -21.226 -0.265E-04 -0.265E-04
 -21.216 -0.249E-04 -0.249E-04
 -21.206 -0.231E-04 -0.231E-04
 -21.196 -0.212E-04 -0.212E-04
 -21.186 -0.190E-04 -0.190E-04
 -21.176 -0.167E-04 -0.167E-04
 -21.166 -0.143E-04 -0.143E-04
 -21.156 -0.116E-04 -0.116E-04
 -21.146 -0.875E-05 -0.875E-05
 -21.136 -0.571E-05 -0.571E-05
 -21.126 -0.246E-05 -0.246E-05
 -21.116  0.989E-06  0.989E-06
 -21.106  0.465E-05  0.465E-05
 -21.096  0.852E-05  0.852E-05
 -21.086  0.126E-04  0.126E-04
 -21.076  0.169E-04  0.169E-04
 -21.066  0.214E-04  0.214E-04
 -21.056  0.262E-04  0.262E-04
 -21.046  0.312E-04  0.312E-04
 -21.036  0.364E-04  0.364E-04
 -21.026  0.418E-04  0.418E-04
 -21.016  0.475E-04  0.475E-04
 -21.006  0.534E-04  0.534E-04
 -20.996  0.595E-04  0.595E-04
 -20.986  0.659E-04  0.659E-04
 -20.976  0.725E-04  0.725E-04
 -20.966  0.793E-04  0.793E-04
 -20.956  0.864E-04  0.864E-04
 -20.946  0.937E-04  0.937E-04
 -20.936  0.101E-03  0.101E-03
 -20.926  0.109E-03  0.109E-03
 -20.916  0.117E-03  0.117E-03
 -20.906  0.125E-03  0.125E-03
 -20.896  0.133E-03  0.133E-03
 -20.886  0.142E-03  0.142E-03
 -20.876  0.151E-03  0.151E-03
 -20.866  0.160E-03  0.160E-03
 -20.856  0.169E-03  0.169E-03
 -20.846  0.178E-03  0.178E-03
 -20.836  0.188E-03  0.188E-03
 -20.826  0.197E-03  0.197E-03
 -20.816  0.207E-03  0.207E-03
 -20.806  0.217E-03  0.217E-03
 -20.796  0.227E-03  0.227E-03
 -20.786  0.237E-03  0.237E-03
 -20.776  0.248E-03  0.248E-03
 -20.766  0.258E-03  0.258E-03
 -20.756  0.269E-03  0.269E-03
 -20.746  0.279E-03  0.279E-03
 -20.736  0.290E-03  0.290E-03
 -20.726  0.300E-03  0.300E-03
 -20.716  0.311E-03  0.311E-03
 -20.706  0.321E-03  0.321E-03
 -20.696  0.332E-03  0.332E-03
 -20.686  0.343E-03  0.343E-03
 -20.676  0.353E-03  0.353E-03
 -20.666  0.364E-03  0.364E-03
 -20.656  0.374E-03  0.374E-03
 -20.646  0.384E-03  0.384E-03
 -20.636  0.395E-03  0.395E-03
 -20.626  0.405E-03  0.405E-03
 -20.616  0.415E-03  0.415E-03
 -20.606  0.424E-03  0.424E-03
 -20.596  0.434E-03  0.434E-03
 -20.586  0.443E-03  0.443E-03
 -20.576  0.452E-03  0.452E-03
 -20.566  0.461E-03  0.461E-03
 -20.556  0.470E-03  0.470E-03
 -20.546  0.478E-03  0.478E-03
 -20.536  0.486E-03  0.486E-03
 -20.526  0.494E-03  0.494E-03
 -20.516  0.502E-03  0.502E-03
 -20.506  0.509E-03  0.509E-03
 -20.496  0.516E-03  0.516E-03
 -20.486  0.522E-03  0.522E-03
 -20.476  0.528E-03  0.528E-03
 -20.466  0.534E-03  0.534E-03
 -20.456  0.539E-03  0.539E-03
 -20.446  0.544E-03  0.544E-03
 -20.436  0.548E-03  0.548E-03
 -20.426  0.552E-03  0.552E-03
 -20.416  0.556E-03  0.556E-03
 -20.406  0.559E-03  0.559E-03
 -20.396  0.561E-03  0.561E-03
 -20.386  0.563E-03  0.563E-03
 -20.376  0.565E-03  0.565E-03
 -20.366  0.566E-03  0.566E-03
 -20.356  0.567E-03  0.567E-03
 -20.346  0.567E-03  0.567E-03
 -20.336  0.567E-03  0.567E-03
 -20.326  0.566E-03  0.566E-03
 -20.316  0.565E-03  0.565E-03
 -20.306  0.563E-03  0.563E-03
 -20.296  0.561E-03  0.561E-03
 -20.286  0.559E-03  0.559E-03
 -20.276  0.556E-03  0.556E-03
 -20.266  0.552E-03  0.552E-03
 -20.256  0.548E-03  0.548E-03
 -20.246  0.544E-03  0.544E-03
 -20.236  0.539E-03  0.539E-03
 -20.226  0.534E-03  0.534E-03
 -20.216  0.528E-03  0.528E-03
 -20.206  0.522E-03  0.522E-03
 -20.196  0.516E-03  0.516E-03
 -20.186  0.509E-03  0.509E-03
 -20.176  0.502E-03  0.502E-03
 -20.166  0.495E-03  0.495E-03
 -20.156  0.487E-03  0.487E-03
 -20.146  0.480E-03  0.480E-03
 -20.136  0.472E-03  0.472E-03
 -20.126  0.464E-03  0.464E-03
 -20.116  0.455E-03  0.455E-03
 -20.106  0.447E-03  0.447E-03
 -20.096  0.438E-03  0.438E-03
 -20.086  0.430E-03  0.430E-03
 -20.076  0.421E-03  0.421E-03
 -20.066  0.413E-03  0.413E-03
 -20.056  0.404E-03  0.404E-03
 -20.046  0.396E-03  0.396E-03
 -20.036  0.387E-03  0.387E-03
 -20.026  0.379E-03  0.379E-03
 -20.016  0.371E-03  0.371E-03
 -20.006  0.363E-03  0.363E-03
 -19.996  0.355E-03  0.355E-03
 -19.986  0.348E-03  0.348E-03
 -19.976  0.341E-03  0.341E-03
 -19.966  0.335E-03  0.335E-03
 -19.956  0.328E-03  0.328E-03
 -19.946  0.323E-03  0.323E-03
 -19.936  0.317E-03  0.317E-03
 -19.926  0.313E-03  0.313E-03
 -19.916  0.309E-03  0.309E-03
 -19.906  0.305E-03  0.305E-03
 -19.896  0.302E-03  0.302E-03
 -19.886  0.300E-03  0.300E-03
 -19.876  0.298E-03  0.298E-03
 -19.866  0.298E-03  0.298E-03
 -19.856  0.298E-03  0.298E-03
 -19.846  0.298E-03  0.298E-03
 -19.836  0.300E-03  0.300E-03
 -19.826  0.303E-03  0.303E-03
 -19.816  0.306E-03  0.306E-03
 -19.806  0.310E-03  0.310E-03
 -19.796  0.316E-03  0.316E-03
 -19.786  0.322E-03  0.322E-03
 -19.776  0.329E-03  0.329E-03
 -19.766  0.338E-03  0.338E-03
 -19.756  0.347E-03  0.347E-03
 -19.746  0.358E-03  0.358E-03
 -19.736  0.369E-03  0.369E-03
 -19.726  0.382E-03  0.382E-03
 -19.716  0.396E-03  0.396E-03
 -19.706  0.411E-03  0.411E-03
 -19.696  0.427E-03  0.427E-03
 -19.686  0.444E-03  0.444E-03
 -19.676  0.462E-03  0.462E-03
 -19.666  0.482E-03  0.482E-03
 -19.656  0.502E-03  0.502E-03
 -19.646  0.524E-03  0.524E-03
 -19.636  0.547E-03  0.547E-03
 -19.626  0.571E-03  0.571E-03
 -19.616  0.596E-03  0.596E-03
 -19.606  0.622E-03  0.622E-03
 -19.596  0.649E-03  0.649E-03
 -19.586  0.677E-03  0.677E-03
 -19.576  0.706E-03  0.706E-03
 -19.566  0.737E-03  0.737E-03
 -19.556  0.768E-03  0.768E-03
 -19.546  0.800E-03  0.800E-03
 -19.536  0.833E-03  0.833E-03
 -19.526  0.867E-03  0.867E-03
 -19.516  0.902E-03  0.902E-03
 -19.506  0.938E-03  0.938E-03
 -19.496  0.974E-03  0.974E-03
 -19.486  0.101E-02  0.101E-02
 -19.476  0.105E-02  0.105E-02
 -19.466  0.109E-02  0.109E-02
 -19.456  0.113E-02  0.113E-02
 -19.446  0.117E-02  0.117E-02
 -19.436  0.120E-02  0.120E-02
 -19.426  0.125E-02  0.125E-02
 -19.416  0.129E-02  0.129E-02
 -19.406  0.133E-02  0.133E-02
 -19.396  0.137E-02  0.137E-02
 -19.386  0.141E-02  0.141E-02
 -19.376  0.145E-02  0.145E-02
 -19.366  0.149E-02  0.149E-02
 -19.356  0.153E-02  0.153E-02
 -19.346  0.157E-02  0.157E-02
 -19.336  0.161E-02  0.161E-02
 -19.326  0.165E-02  0.165E-02
 -19.316  0.169E-02  0.169E-02
 -19.306  0.173E-02  0.173E-02
 -19.296  0.177E-02  0.177E-02
 -19.286  0.181E-02  0.181E-02
 -19.276  0.185E-02  0.185E-02
 -19.266  0.189E-02  0.189E-02
 -19.256  0.193E-02  0.193E-02
 -19.246  0.196E-02  0.196E-02
 -19.236  0.200E-02  0.200E-02
 -19.226  0.203E-02  0.203E-02
 -19.216  0.206E-02  0.206E-02
 -19.206  0.210E-02  0.210E-02
 -19.196  0.213E-02  0.213E-02
 -19.186  0.216E-02  0.216E-02
 -19.176  0.219E-02  0.219E-02
 -19.166  0.221E-02  0.221E-02
 -19.156  0.224E-02  0.224E-02
 -19.146  0.227E-02  0.227E-02
 -19.136  0.229E-02  0.229E-02
 -19.126  0.231E-02  0.231E-02
 -19.116  0.233E-02  0.233E-02
 -19.106  0.235E-02  0.235E-02
 -19.096  0.237E-02  0.237E-02
 -19.086  0.238E-02  0.238E-02
 -19.076  0.240E-02  0.240E-02
 -19.066  0.241E-02  0.241E-02
 -19.056  0.242E-02  0.242E-02
 -19.046  0.243E-02  0.243E-02
 -19.036  0.243E-02  0.243E-02
 -19.026  0.244E-02  0.244E-02
 -19.016  0.244E-02  0.244E-02
 -19.006  0.244E-02  0.244E-02
 -18.996  0.244E-02  0.244E-02
 -18.986  0.244E-02  0.244E-02
 -18.976  0.244E-02  0.244E-02
 -18.966  0.243E-02  0.243E-02
 -18.956  0.243E-02  0.243E-02
 -18.946  0.242E-02  0.242E-02
 -18.936  0.241E-02  0.241E-02
 -18.926  0.239E-02  0.239E-02
 -18.916  0.238E-02  0.238E-02
 -18.906  0.236E-02  0.236E-02
 -18.896  0.235E-02  0.235E-02
 -18.886  0.233E-02  0.233E-02
 -18.876  0.231E-02  0.231E-02
 -18.866  0.228E-02  0.228E-02
 -18.856  0.226E-02  0.226E-02
 -18.846  0.223E-02  0.223E-02
 -18.836  0.221E-02  0.221E-02
 -18.826  0.218E-02  0.218E-02
 -18.816  0.215E-02  0.215E-02
 -18.806  0.212E-02  0.212E-02
 -18.796  0.209E-02  0.209E-02
 -18.786  0.205E-02  0.205E-02
 -18.776  0.202E-02  0.202E-02
 -18.766  0.198E-02  0.198E-02
 -18.756  0.194E-02  0.194E-02
 -18.746  0.191E-02  0.191E-02
 -18.736  0.187E-02  0.187E-02
 -18.726  0.183E-02  0.183E-02
 -18.716  0.179E-02  0.179E-02
 -18.706  0.175E-02  0.175E-02
 -18.696  0.171E-02  0.171E-02
 -18.686  0.166E-02  0.166E-02
 -18.676  0.162E-02  0.162E-02
 -18.666  0.158E-02  0.158E-02
 -18.656  0.153E-02  0.153E-02
 -18.646  0.149E-02  0.149E-02
 -18.636  0.144E-02  0.144E-02
 -18.626  0.140E-02  0.140E-02
 -18.616  0.135E-02  0.135E-02
 -18.606  0.131E-02  0.131E-02
 -18.596  0.126E-02  0.126E-02
 -18.586  0.121E-02  0.121E-02
 -18.576  0.117E-02  0.117E-02
 -18.566  0.112E-02  0.112E-02
 -18.556  0.108E-02  0.108E-02
 -18.546  0.103E-02  0.103E-02
 -18.536  0.986E-03  0.986E-03
 -18.526  0.940E-03  0.940E-03
 -18.516  0.895E-03  0.895E-03
 -18.506  0.851E-03  0.851E-03
 -18.496  0.806E-03  0.806E-03
 -18.486  0.762E-03  0.762E-03
 -18.476  0.719E-03  0.719E-03
 -18.466  0.675E-03  0.675E-03
 -18.456  0.633E-03  0.633E-03
 -18.446  0.590E-03  0.590E-03
 -18.436  0.549E-03  0.549E-03
 -18.426  0.507E-03  0.507E-03
 -18.416  0.467E-03  0.467E-03
 -18.406  0.427E-03  0.427E-03
 -18.396  0.388E-03  0.388E-03
 -18.386  0.349E-03  0.349E-03
 -18.376  0.311E-03  0.311E-03
 -18.366  0.273E-03  0.273E-03
 -18.356  0.236E-03  0.236E-03
 -18.346  0.200E-03  0.200E-03
 -18.336  0.165E-03  0.165E-03
 -18.326  0.130E-03  0.130E-03
 -18.316  0.965E-04  0.965E-04
 -18.306  0.634E-04  0.634E-04
 -18.296  0.309E-04  0.309E-04
 -18.286 -0.751E-06 -0.751E-06
 -18.276 -0.317E-04 -0.317E-04
 -18.266 -0.619E-04 -0.619E-04
 -18.256 -0.913E-04 -0.913E-04
 -18.246 -0.120E-03 -0.120E-03
 -18.236 -0.148E-03 -0.148E-03
 -18.226 -0.175E-03 -0.175E-03
 -18.216 -0.201E-03 -0.201E-03
 -18.206 -0.227E-03 -0.227E-03
 -18.196 -0.252E-03 -0.252E-03
 -18.186 -0.275E-03 -0.275E-03
 -18.176 -0.299E-03 -0.299E-03
 -18.166 -0.321E-03 -0.321E-03
 -18.156 -0.343E-03 -0.343E-03
 -18.146 -0.363E-03 -0.363E-03
 -18.136 -0.383E-03 -0.383E-03
 -18.126 -0.402E-03 -0.402E-03
 -18.116 -0.421E-03 -0.421E-03
 -18.106 -0.438E-03 -0.438E-03
 -18.096 -0.455E-03 -0.455E-03
 -18.086 -0.470E-03 -0.470E-03
 -18.076 -0.485E-03 -0.485E-03
 -18.066 -0.499E-03 -0.499E-03
 -18.056 -0.512E-03 -0.512E-03
 -18.046 -0.524E-03 -0.524E-03
 -18.036 -0.535E-03 -0.535E-03
 -18.026 -0.545E-03 -0.545E-03
 -18.016 -0.553E-03 -0.553E-03
 -18.006 -0.561E-03 -0.561E-03
 -17.996 -0.568E-03 -0.568E-03
 -17.986 -0.574E-03 -0.574E-03
 -17.976 -0.578E-03 -0.578E-03
 -17.966 -0.581E-03 -0.581E-03
 -17.956 -0.583E-03 -0.583E-03
 -17.946 -0.584E-03 -0.584E-03
 -17.936 -0.584E-03 -0.584E-03
 -17.926 -0.582E-03 -0.582E-03
 -17.916 -0.578E-03 -0.578E-03
 -17.906 -0.573E-03 -0.573E-03
 -17.896 -0.567E-03 -0.567E-03
 -17.886 -0.559E-03 -0.559E-03
 -17.876 -0.550E-03 -0.550E-03
 -17.866 -0.539E-03 -0.539E-03
 -17.856 -0.526E-03 -0.526E-03
 -17.846 -0.511E-03 -0.511E-03
 -17.836 -0.494E-03 -0.494E-03
 -17.826 -0.476E-03 -0.476E-03
 -17.816 -0.455E-03 -0.455E-03
 -17.806 -0.433E-03 -0.433E-03
 -17.796 -0.409E-03 -0.409E-03
 -17.786 -0.382E-03 -0.382E-03
 -17.776 -0.353E-03 -0.353E-03
 -17.766 -0.322E-03 -0.322E-03
 -17.756 -0.288E-03 -0.288E-03
 -17.746 -0.253E-03 -0.253E-03
 -17.736 -0.214E-03 -0.214E-03
 -17.726 -0.174E-03 -0.174E-03
 -17.716 -0.130E-03 -0.130E-03
 -17.706 -0.843E-04 -0.843E-04
 -17.696 -0.358E-04 -0.358E-04
 -17.686  0.155E-04  0.155E-04
 -17.676  0.695E-04  0.695E-04
 -17.666  0.126E-03  0.126E-03
 -17.656  0.186E-03  0.186E-03
 -17.646  0.248E-03  0.248E-03
 -17.636  0.314E-03  0.314E-03
 -17.626  0.382E-03  0.382E-03
 -17.616  0.453E-03  0.453E-03
 -17.606  0.527E-03  0.527E-03
 -17.596  0.605E-03  0.605E-03
 -17.586  0.685E-03  0.685E-03
 -17.576  0.768E-03  0.768E-03
 -17.566  0.854E-03  0.854E-03
 -17.556  0.943E-03  0.943E-03
 -17.546  0.104E-02  0.104E-02
 -17.536  0.113E-02  0.113E-02
 -17.526  0.123E-02  0.123E-02
 -17.516  0.133E-02  0.133E-02
 -17.506  0.143E-02  0.143E-02
 -17.496  0.154E-02  0.154E-02
 -17.486  0.165E-02  0.165E-02
 -17.476  0.176E-02  0.176E-02
 -17.466  0.188E-02  0.188E-02
 -17.456  0.200E-02  0.200E-02
 -17.446  0.212E-02  0.212E-02
 -17.436  0.224E-02  0.224E-02
 -17.426  0.236E-02  0.236E-02
 -17.416  0.249E-02  0.249E-02
 -17.406  0.262E-02  0.262E-02
 -17.396  0.275E-02  0.275E-02
 -17.386  0.288E-02  0.288E-02
 -17.376  0.302E-02  0.302E-02
 -17.366  0.316E-02  0.316E-02
 -17.356  0.329E-02  0.329E-02
 -17.346  0.343E-02  0.343E-02
 -17.336  0.357E-02  0.357E-02
 -17.326  0.372E-02  0.372E-02
 -17.316  0.386E-02  0.386E-02
 -17.306  0.400E-02  0.400E-02
 -17.296  0.415E-02  0.415E-02
 -17.286  0.429E-02  0.429E-02
 -17.276  0.444E-02  0.444E-02
 -17.266  0.458E-02  0.458E-02
 -17.256  0.473E-02  0.473E-02
 -17.246  0.487E-02  0.487E-02
 -17.236  0.502E-02  0.502E-02
 -17.226  0.516E-02  0.516E-02
 -17.216  0.530E-02  0.530E-02
 -17.206  0.544E-02  0.544E-02
 -17.196  0.558E-02  0.558E-02
 -17.186  0.572E-02  0.572E-02
 -17.176  0.586E-02  0.586E-02
 -17.166  0.599E-02  0.599E-02
 -17.156  0.612E-02  0.612E-02
 -17.146  0.625E-02  0.625E-02
 -17.136  0.638E-02  0.638E-02
 -17.126  0.650E-02  0.650E-02
 -17.116  0.662E-02  0.662E-02
 -17.106  0.674E-02  0.674E-02
 -17.096  0.686E-02  0.686E-02
 -17.086  0.697E-02  0.697E-02
 -17.076  0.708E-02  0.708E-02
 -17.066  0.718E-02  0.718E-02
 -17.056  0.728E-02  0.728E-02
 -17.046  0.737E-02  0.737E-02
 -17.036  0.747E-02  0.747E-02
 -17.026  0.755E-02  0.755E-02
 -17.016  0.763E-02  0.763E-02
 -17.006  0.771E-02  0.771E-02
 -16.996  0.778E-02  0.778E-02
 -16.986  0.785E-02  0.785E-02
 -16.976  0.791E-02  0.791E-02
 -16.966  0.796E-02  0.796E-02
 -16.956  0.801E-02  0.801E-02
 -16.946  0.806E-02  0.806E-02
 -16.936  0.810E-02  0.810E-02
 -16.926  0.813E-02  0.813E-02
 -16.916  0.816E-02  0.816E-02
 -16.906  0.818E-02  0.818E-02
 -16.896  0.820E-02  0.820E-02
 -16.886  0.821E-02  0.821E-02
 -16.876  0.821E-02  0.821E-02
 -16.866  0.821E-02  0.821E-02
 -16.856  0.820E-02  0.820E-02
 -16.846  0.819E-02  0.819E-02
 -16.836  0.817E-02  0.817E-02
 -16.826  0.814E-02  0.814E-02
 -16.816  0.811E-02  0.811E-02
 -16.806  0.807E-02  0.807E-02
 -16.796  0.803E-02  0.803E-02
 -16.786  0.798E-02  0.798E-02
 -16.776  0.793E-02  0.793E-02
 -16.766  0.787E-02  0.787E-02
 -16.756  0.781E-02  0.781E-02
 -16.746  0.774E-02  0.774E-02
 -16.736  0.766E-02  0.766E-02
 -16.726  0.759E-02  0.759E-02
 -16.716  0.750E-02  0.750E-02
 -16.706  0.741E-02  0.741E-02
 -16.696  0.732E-02  0.732E-02
 -16.686  0.722E-02  0.722E-02
 -16.676  0.712E-02  0.712E-02
 -16.666  0.702E-02  0.702E-02
 -16.656  0.691E-02  0.691E-02
 -16.646  0.679E-02  0.679E-02
 -16.636  0.668E-02  0.668E-02
 -16.626  0.656E-02  0.656E-02
 -16.616  0.644E-02  0.644E-02
 -16.606  0.631E-02  0.631E-02
 -16.596  0.618E-02  0.618E-02
 -16.586  0.605E-02  0.605E-02
 -16.576  0.592E-02  0.592E-02
 -16.566  0.578E-02  0.578E-02
 -16.556  0.565E-02  0.565E-02
 -16.546  0.551E-02  0.551E-02
 -16.536  0.537E-02  0.537E-02
 -16.526  0.523E-02  0.523E-02
 -16.516  0.509E-02  0.509E-02
 -16.506  0.495E-02  0.495E-02
 -16.496  0.480E-02  0.480E-02
 -16.486  0.466E-02  0.466E-02
 -16.476  0.452E-02  0.452E-02
 -16.466  0.437E-02  0.437E-02
 -16.456  0.423E-02  0.423E-02
 -16.446  0.409E-02  0.409E-02
 -16.436  0.395E-02  0.395E-02
 -16.426  0.381E-02  0.381E-02
 -16.416  0.366E-02  0.366E-02
 -16.406  0.353E-02  0.353E-02
 -16.396  0.339E-02  0.339E-02
 -16.386  0.325E-02  0.325E-02
 -16.376  0.311E-02  0.311E-02
 -16.366  0.298E-02  0.298E-02
 -16.356  0.285E-02  0.285E-02
 -16.346  0.272E-02  0.272E-02
 -16.336  0.259E-02  0.259E-02
 -16.326  0.247E-02  0.247E-02
 -16.316  0.234E-02  0.234E-02
 -16.306  0.222E-02  0.222E-02
 -16.296  0.210E-02  0.210E-02
 -16.286  0.199E-02  0.199E-02
 -16.276  0.187E-02  0.187E-02
 -16.266  0.176E-02  0.176E-02
 -16.256  0.166E-02  0.166E-02
 -16.246  0.155E-02  0.155E-02
 -16.236  0.145E-02  0.145E-02
 -16.226  0.135E-02  0.135E-02
 -16.216  0.125E-02  0.125E-02
 -16.206  0.116E-02  0.116E-02
 -16.196  0.107E-02  0.107E-02
 -16.186  0.981E-03  0.981E-03
 -16.176  0.896E-03  0.896E-03
 -16.166  0.815E-03  0.815E-03
 -16.156  0.736E-03  0.736E-03
 -16.146  0.661E-03  0.661E-03
 -16.136  0.589E-03  0.589E-03
 -16.126  0.519E-03  0.519E-03
 -16.116  0.453E-03  0.453E-03
 -16.106  0.389E-03  0.389E-03
 -16.096  0.329E-03  0.329E-03
 -16.086  0.271E-03  0.271E-03
 -16.076  0.216E-03  0.216E-03
 -16.066  0.164E-03  0.164E-03
 -16.056  0.114E-03  0.114E-03
 -16.046  0.677E-04  0.677E-04
 -16.036  0.236E-04  0.236E-04
 -16.026 -0.180E-04 -0.180E-04
 -16.016 -0.571E-04 -0.571E-04
 -16.006 -0.937E-04 -0.937E-04
 -15.996 -0.128E-03 -0.128E-03
 -15.986 -0.160E-03 -0.160E-03
 -15.976 -0.190E-03 -0.190E-03
 -15.966 -0.217E-03 -0.217E-03
 -15.956 -0.243E-03 -0.243E-03
 -15.946 -0.266E-03 -0.266E-03
 -15.936 -0.287E-03 -0.287E-03
 -15.926 -0.307E-03 -0.307E-03
 -15.916 -0.325E-03 -0.325E-03
 -15.906 -0.341E-03 -0.341E-03
 -15.896 -0.355E-03 -0.355E-03
 -15.886 -0.368E-03 -0.368E-03
 -15.876 -0.379E-03 -0.379E-03
 -15.866 -0.389E-03 -0.389E-03
 -15.856 -0.397E-03 -0.397E-03
 -15.846 -0.404E-03 -0.404E-03
 -15.836 -0.410E-03 -0.410E-03
 -15.826 -0.415E-03 -0.415E-03
 -15.816 -0.418E-03 -0.418E-03
 -15.806 -0.421E-03 -0.421E-03
 -15.796 -0.422E-03 -0.422E-03
 -15.786 -0.423E-03 -0.423E-03
 -15.776 -0.423E-03 -0.423E-03
 -15.766 -0.422E-03 -0.422E-03
 -15.756 -0.420E-03 -0.420E-03
 -15.746 -0.418E-03 -0.418E-03
 -15.736 -0.415E-03 -0.415E-03
 -15.726 -0.412E-03 -0.412E-03
 -15.716 -0.408E-03 -0.408E-03
 -15.706 -0.403E-03 -0.403E-03
 -15.696 -0.399E-03 -0.399E-03
 -15.686 -0.394E-03 -0.394E-03
 -15.676 -0.388E-03 -0.388E-03
 -15.666 -0.383E-03 -0.383E-03
 -15.656 -0.377E-03 -0.377E-03
 -15.646 -0.371E-03 -0.371E-03
 -15.636 -0.365E-03 -0.365E-03
 -15.626 -0.358E-03 -0.358E-03
 -15.616 -0.352E-03 -0.352E-03
 -15.606 -0.346E-03 -0.346E-03
 -15.596 -0.340E-03 -0.340E-03
 -15.586 -0.334E-03 -0.334E-03
 -15.576 -0.327E-03 -0.327E-03
 -15.566 -0.321E-03 -0.321E-03
 -15.556 -0.316E-03 -0.316E-03
 -15.546 -0.310E-03 -0.310E-03
 -15.536 -0.304E-03 -0.304E-03
 -15.526 -0.299E-03 -0.299E-03
 -15.516 -0.294E-03 -0.294E-03
 -15.506 -0.289E-03 -0.289E-03
 -15.496 -0.284E-03 -0.284E-03
 -15.486 -0.280E-03 -0.280E-03
 -15.476 -0.276E-03 -0.276E-03
 -15.466 -0.273E-03 -0.273E-03
 -15.456 -0.269E-03 -0.269E-03
 -15.446 -0.266E-03 -0.266E-03
 -15.436 -0.264E-03 -0.264E-03
 -15.426 -0.261E-03 -0.261E-03
 -15.416 -0.259E-03 -0.259E-03
 -15.406 -0.258E-03 -0.258E-03
 -15.396 -0.257E-03 -0.257E-03
 -15.386 -0.256E-03 -0.256E-03
 -15.376 -0.256E-03 -0.256E-03
 -15.366 -0.256E-03 -0.256E-03
 -15.356 -0.257E-03 -0.257E-03
 -15.346 -0.258E-03 -0.258E-03
 -15.336 -0.259E-03 -0.259E-03
 -15.326 -0.261E-03 -0.261E-03
 -15.316 -0.263E-03 -0.263E-03
 -15.306 -0.266E-03 -0.266E-03
 -15.296 -0.269E-03 -0.269E-03
 -15.286 -0.273E-03 -0.273E-03
 -15.276 -0.277E-03 -0.277E-03
 -15.266 -0.281E-03 -0.281E-03
 -15.256 -0.286E-03 -0.286E-03
 -15.246 -0.291E-03 -0.291E-03
 -15.236 -0.297E-03 -0.297E-03
 -15.226 -0.303E-03 -0.303E-03
 -15.216 -0.309E-03 -0.309E-03
 -15.206 -0.316E-03 -0.316E-03
 -15.196 -0.323E-03 -0.323E-03
 -15.186 -0.331E-03 -0.331E-03
 -15.176 -0.338E-03 -0.338E-03
 -15.166 -0.347E-03 -0.347E-03
 -15.156 -0.355E-03 -0.355E-03
 -15.146 -0.364E-03 -0.364E-03
 -15.136 -0.373E-03 -0.373E-03
 -15.126 -0.382E-03 -0.382E-03
 -15.116 -0.392E-03 -0.392E-03
 -15.106 -0.401E-03 -0.401E-03
 -15.096 -0.411E-03 -0.411E-03
 -15.086 -0.421E-03 -0.421E-03
 -15.076 -0.431E-03 -0.431E-03
 -15.066 -0.441E-03 -0.441E-03
 -15.056 -0.451E-03 -0.451E-03
 -15.046 -0.462E-03 -0.462E-03
 -15.036 -0.472E-03 -0.472E-03
 -15.026 -0.482E-03 -0.482E-03
 -15.016 -0.492E-03 -0.492E-03
 -15.006 -0.502E-03 -0.502E-03
 -14.996 -0.511E-03 -0.511E-03
 -14.986 -0.521E-03 -0.521E-03
 -14.976 -0.530E-03 -0.530E-03
 -14.966 -0.538E-03 -0.538E-03
 -14.956 -0.546E-03 -0.546E-03
 -14.946 -0.554E-03 -0.554E-03
 -14.936 -0.561E-03 -0.561E-03
 -14.926 -0.568E-03 -0.568E-03
 -14.916 -0.574E-03 -0.574E-03
 -14.906 -0.579E-03 -0.579E-03
 -14.896 -0.583E-03 -0.583E-03
 -14.886 -0.587E-03 -0.587E-03
 -14.876 -0.589E-03 -0.589E-03
 -14.866 -0.591E-03 -0.591E-03
 -14.856 -0.591E-03 -0.591E-03
 -14.846 -0.591E-03 -0.591E-03
 -14.836 -0.589E-03 -0.589E-03
 -14.826 -0.585E-03 -0.585E-03
 -14.816 -0.580E-03 -0.580E-03
 -14.806 -0.574E-03 -0.574E-03
 -14.796 -0.566E-03 -0.566E-03
 -14.786 -0.556E-03 -0.556E-03
 -14.776 -0.545E-03 -0.545E-03
 -14.766 -0.532E-03 -0.532E-03
 -14.756 -0.516E-03 -0.516E-03
 -14.746 -0.499E-03 -0.499E-03
 -14.736 -0.479E-03 -0.479E-03
 -14.726 -0.458E-03 -0.458E-03
 -14.716 -0.433E-03 -0.433E-03
 -14.706 -0.407E-03 -0.407E-03
 -14.696 -0.378E-03 -0.378E-03
 -14.686 -0.346E-03 -0.346E-03
 -14.676 -0.312E-03 -0.312E-03
 -14.666 -0.274E-03 -0.274E-03
 -14.656 -0.234E-03 -0.234E-03
 -14.646 -0.191E-03 -0.191E-03
 -14.636 -0.145E-03 -0.145E-03
 -14.626 -0.960E-04 -0.960E-04
 -14.616 -0.435E-04 -0.435E-04
 -14.606  0.122E-04  0.122E-04
 -14.596  0.712E-04  0.712E-04
 -14.586  0.134E-03  0.134E-03
 -14.576  0.200E-03  0.200E-03
 -14.566  0.269E-03  0.269E-03
 -14.556  0.342E-03  0.342E-03
 -14.546  0.419E-03  0.419E-03
 -14.536  0.500E-03  0.500E-03
 -14.526  0.584E-03  0.584E-03
 -14.516  0.672E-03  0.672E-03
 -14.506  0.764E-03  0.764E-03
 -14.496  0.859E-03  0.859E-03
 -14.486  0.959E-03  0.959E-03
 -14.476  0.106E-02  0.106E-02
 -14.466  0.117E-02  0.117E-02
 -14.456  0.128E-02  0.128E-02
 -14.446  0.140E-02  0.140E-02
 -14.436  0.151E-02  0.151E-02
 -14.426  0.164E-02  0.164E-02
 -14.416  0.176E-02  0.176E-02
 -14.406  0.189E-02  0.189E-02
 -14.396  0.203E-02  0.203E-02
 -14.386  0.216E-02  0.216E-02
 -14.376  0.230E-02  0.230E-02
 -14.366  0.245E-02  0.245E-02
 -14.356  0.260E-02  0.260E-02
 -14.346  0.275E-02  0.275E-02
 -14.336  0.290E-02  0.290E-02
 -14.326  0.306E-02  0.306E-02
 -14.316  0.322E-02  0.322E-02
 -14.306  0.338E-02  0.338E-02
 -14.296  0.355E-02  0.355E-02
 -14.286  0.372E-02  0.372E-02
 -14.276  0.389E-02  0.389E-02
 -14.266  0.406E-02  0.406E-02
 -14.256  0.424E-02  0.424E-02
 -14.246  0.441E-02  0.441E-02
 -14.236  0.459E-02  0.459E-02
 -14.226  0.477E-02  0.477E-02
 -14.216  0.495E-02  0.495E-02
 -14.206  0.514E-02  0.514E-02
 -14.196  0.532E-02  0.532E-02
 -14.186  0.551E-02  0.551E-02
 -14.176  0.569E-02  0.569E-02
 -14.166  0.588E-02  0.588E-02
 -14.156  0.606E-02  0.606E-02
 -14.146  0.625E-02  0.625E-02
 -14.136  0.643E-02  0.643E-02
 -14.126  0.662E-02  0.662E-02
 -14.116  0.680E-02  0.680E-02
 -14.106  0.698E-02  0.698E-02
 -14.096  0.716E-02  0.716E-02
 -14.086  0.734E-02  0.734E-02
 -14.076  0.752E-02  0.752E-02
 -14.066  0.770E-02  0.770E-02
 -14.056  0.787E-02  0.787E-02
 -14.046  0.804E-02  0.804E-02
 -14.036  0.821E-02  0.821E-02
 -14.026  0.837E-02  0.837E-02
 -14.016  0.853E-02  0.853E-02
 -14.006  0.869E-02  0.869E-02
 -13.996  0.885E-02  0.885E-02
 -13.986  0.900E-02  0.900E-02
 -13.976  0.914E-02  0.914E-02
 -13.966  0.928E-02  0.928E-02
 -13.956  0.942E-02  0.942E-02
 -13.946  0.955E-02  0.955E-02
 -13.936  0.968E-02  0.968E-02
 -13.926  0.980E-02  0.980E-02
 -13.916  0.992E-02  0.992E-02
 -13.906  0.100E-01  0.100E-01
 -13.896  0.101E-01  0.101E-01
 -13.886  0.102E-01  0.102E-01
 -13.876  0.103E-01  0.103E-01
 -13.866  0.104E-01  0.104E-01
 -13.856  0.105E-01  0.105E-01
 -13.846  0.106E-01  0.106E-01
 -13.836  0.106E-01  0.106E-01
 -13.826  0.107E-01  0.107E-01
 -13.816  0.108E-01  0.108E-01
 -13.806  0.108E-01  0.108E-01
 -13.796  0.109E-01  0.109E-01
 -13.786  0.109E-01  0.109E-01
 -13.776  0.109E-01  0.109E-01
 -13.766  0.109E-01  0.109E-01
 -13.756  0.110E-01  0.110E-01
 -13.746  0.110E-01  0.110E-01
 -13.736  0.110E-01  0.110E-01
 -13.726  0.110E-01  0.110E-01
 -13.716  0.110E-01  0.110E-01
 -13.706  0.109E-01  0.109E-01
 -13.696  0.109E-01  0.109E-01
 -13.686  0.109E-01  0.109E-01
 -13.676  0.109E-01  0.109E-01
 -13.666  0.108E-01  0.108E-01
 -13.656  0.108E-01  0.108E-01
 -13.646  0.107E-01  0.107E-01
 -13.636  0.106E-01  0.106E-01
 -13.626  0.106E-01  0.106E-01
 -13.616  0.105E-01  0.105E-01
 -13.606  0.104E-01  0.104E-01
 -13.596  0.103E-01  0.103E-01
 -13.586  0.103E-01  0.103E-01
 -13.576  0.102E-01  0.102E-01
 -13.566  0.101E-01  0.101E-01
 -13.556  0.997E-02  0.997E-02
 -13.546  0.986E-02  0.986E-02
 -13.536  0.975E-02  0.975E-02
 -13.526  0.964E-02  0.964E-02
 -13.516  0.952E-02  0.952E-02
 -13.506  0.940E-02  0.940E-02
 -13.496  0.928E-02  0.928E-02
 -13.486  0.915E-02  0.915E-02
 -13.476  0.902E-02  0.902E-02
 -13.466  0.889E-02  0.889E-02
 -13.456  0.875E-02  0.875E-02
 -13.446  0.861E-02  0.861E-02
 -13.436  0.848E-02  0.848E-02
 -13.426  0.833E-02  0.833E-02
 -13.416  0.819E-02  0.819E-02
 -13.406  0.805E-02  0.805E-02
 -13.396  0.790E-02  0.790E-02
 -13.386  0.775E-02  0.775E-02
 -13.376  0.761E-02  0.761E-02
 -13.366  0.746E-02  0.746E-02
 -13.356  0.731E-02  0.731E-02
 -13.346  0.716E-02  0.716E-02
 -13.336  0.701E-02  0.701E-02
 -13.326  0.687E-02  0.687E-02
 -13.316  0.672E-02  0.672E-02
 -13.306  0.657E-02  0.657E-02
 -13.296  0.642E-02  0.642E-02
 -13.286  0.628E-02  0.628E-02
 -13.276  0.613E-02  0.613E-02
 -13.266  0.599E-02  0.599E-02
 -13.256  0.584E-02  0.584E-02
 -13.246  0.570E-02  0.570E-02
 -13.236  0.556E-02  0.556E-02
 -13.226  0.542E-02  0.542E-02
 -13.216  0.529E-02  0.529E-02
 -13.206  0.515E-02  0.515E-02
 -13.196  0.502E-02  0.502E-02
 -13.186  0.489E-02  0.489E-02
 -13.176  0.476E-02  0.476E-02
 -13.166  0.463E-02  0.463E-02
 -13.156  0.450E-02  0.450E-02
 -13.146  0.438E-02  0.438E-02
 -13.136  0.426E-02  0.426E-02
 -13.126  0.414E-02  0.414E-02
 -13.116  0.402E-02  0.402E-02
 -13.106  0.391E-02  0.391E-02
 -13.096  0.379E-02  0.379E-02
 -13.086  0.368E-02  0.368E-02
 -13.076  0.358E-02  0.358E-02
 -13.066  0.347E-02  0.347E-02
 -13.056  0.337E-02  0.337E-02
 -13.046  0.327E-02  0.327E-02
 -13.036  0.317E-02  0.317E-02
 -13.026  0.307E-02  0.307E-02
 -13.016  0.298E-02  0.298E-02
 -13.006  0.288E-02  0.288E-02
 -12.996  0.279E-02  0.279E-02
 -12.986  0.271E-02  0.271E-02
 -12.976  0.262E-02  0.262E-02
 -12.966  0.254E-02  0.254E-02
 -12.956  0.246E-02  0.246E-02
 -12.946  0.238E-02  0.238E-02
 -12.936  0.230E-02  0.230E-02
 -12.926  0.222E-02  0.222E-02
 -12.916  0.215E-02  0.215E-02
 -12.906  0.208E-02  0.208E-02
 -12.896  0.201E-02  0.201E-02
 -12.886  0.194E-02  0.194E-02
 -12.876  0.187E-02  0.187E-02
 -12.866  0.181E-02  0.181E-02
 -12.856  0.174E-02  0.174E-02
 -12.846  0.168E-02  0.168E-02
 -12.836  0.162E-02  0.162E-02
 -12.826  0.156E-02  0.156E-02
 -12.816  0.150E-02  0.150E-02
 -12.806  0.144E-02  0.144E-02
 -12.796  0.139E-02  0.139E-02
 -12.786  0.133E-02  0.133E-02
 -12.776  0.128E-02  0.128E-02
 -12.766  0.122E-02  0.122E-02
 -12.756  0.117E-02  0.117E-02
 -12.746  0.112E-02  0.112E-02
 -12.736  0.107E-02  0.107E-02
 -12.726  0.102E-02  0.102E-02
 -12.716  0.972E-03  0.972E-03
 -12.706  0.924E-03  0.924E-03
 -12.696  0.877E-03  0.877E-03
 -12.686  0.831E-03  0.831E-03
 -12.676  0.785E-03  0.785E-03
 -12.666  0.740E-03  0.740E-03
 -12.656  0.695E-03  0.695E-03
 -12.646  0.652E-03  0.652E-03
 -12.636  0.608E-03  0.608E-03
 -12.626  0.565E-03  0.565E-03
 -12.616  0.523E-03  0.523E-03
 -12.606  0.482E-03  0.482E-03
 -12.596  0.440E-03  0.440E-03
 -12.586  0.399E-03  0.399E-03
 -12.576  0.359E-03  0.359E-03
 -12.566  0.319E-03  0.319E-03
 -12.556  0.280E-03  0.280E-03
 -12.546  0.241E-03  0.241E-03
 -12.536  0.203E-03  0.203E-03
 -12.526  0.165E-03  0.165E-03
 -12.516  0.127E-03  0.127E-03
 -12.506  0.904E-04  0.904E-04
 -12.496  0.540E-04  0.540E-04
 -12.486  0.180E-04  0.180E-04
 -12.476 -0.174E-04 -0.174E-04
 -12.466 -0.522E-04 -0.522E-04
 -12.456 -0.865E-04 -0.865E-04
 -12.446 -0.120E-03 -0.120E-03
 -12.436 -0.153E-03 -0.153E-03
 -12.426 -0.186E-03 -0.186E-03
 -12.416 -0.217E-03 -0.217E-03
 -12.406 -0.248E-03 -0.248E-03
 -12.396 -0.278E-03 -0.278E-03
 -12.386 -0.308E-03 -0.308E-03
 -12.376 -0.336E-03 -0.336E-03
 -12.366 -0.364E-03 -0.364E-03
 -12.356 -0.391E-03 -0.391E-03
 -12.346 -0.417E-03 -0.417E-03
 -12.336 -0.441E-03 -0.441E-03
 -12.326 -0.465E-03 -0.465E-03
 -12.316 -0.488E-03 -0.488E-03
 -12.306 -0.509E-03 -0.509E-03
 -12.296 -0.529E-03 -0.529E-03
 -12.286 -0.548E-03 -0.548E-03
 -12.276 -0.565E-03 -0.565E-03
 -12.266 -0.581E-03 -0.581E-03
 -12.256 -0.596E-03 -0.596E-03
 -12.246 -0.609E-03 -0.609E-03
 -12.236 -0.620E-03 -0.620E-03
 -12.226 -0.630E-03 -0.630E-03
 -12.216 -0.638E-03 -0.638E-03
 -12.206 -0.644E-03 -0.644E-03
 -12.196 -0.648E-03 -0.648E-03
 -12.186 -0.650E-03 -0.650E-03
 -12.176 -0.650E-03 -0.650E-03
 -12.166 -0.647E-03 -0.647E-03
 -12.156 -0.643E-03 -0.643E-03
 -12.146 -0.636E-03 -0.636E-03
 -12.136 -0.627E-03 -0.627E-03
 -12.126 -0.615E-03 -0.615E-03
 -12.116 -0.601E-03 -0.601E-03
 -12.106 -0.584E-03 -0.584E-03
 -12.096 -0.565E-03 -0.565E-03
 -12.086 -0.542E-03 -0.542E-03
 -12.076 -0.517E-03 -0.517E-03
 -12.066 -0.489E-03 -0.489E-03
 -12.056 -0.458E-03 -0.458E-03
 -12.046 -0.423E-03 -0.423E-03
 -12.036 -0.386E-03 -0.386E-03
 -12.026 -0.345E-03 -0.345E-03
 -12.016 -0.301E-03 -0.301E-03
 -12.006 -0.254E-03 -0.254E-03
 -11.996 -0.203E-03 -0.203E-03
 -11.986 -0.148E-03 -0.148E-03
 -11.976 -0.903E-04 -0.903E-04
 -11.966 -0.287E-04 -0.287E-04
 -11.956  0.365E-04  0.365E-04
 -11.946  0.106E-03  0.106E-03
 -11.936  0.178E-03  0.178E-03
 -11.926  0.255E-03  0.255E-03
 -11.916  0.335E-03  0.335E-03
 -11.906  0.419E-03  0.419E-03
 -11.896  0.508E-03  0.508E-03
 -11.886  0.600E-03  0.600E-03
 -11.876  0.696E-03  0.696E-03
 -11.866  0.795E-03  0.795E-03
 -11.856  0.899E-03  0.899E-03
 -11.846  0.101E-02  0.101E-02
 -11.836  0.112E-02  0.112E-02
 -11.826  0.123E-02  0.123E-02
 -11.816  0.135E-02  0.135E-02
 -11.806  0.148E-02  0.148E-02
 -11.796  0.160E-02  0.160E-02
 -11.786  0.173E-02  0.173E-02
 -11.776  0.187E-02  0.187E-02
 -11.766  0.200E-02  0.200E-02
 -11.756  0.215E-02  0.215E-02
 -11.746  0.229E-02  0.229E-02
 -11.736  0.244E-02  0.244E-02
 -11.726  0.259E-02  0.259E-02
 -11.716  0.274E-02  0.274E-02
 -11.706  0.290E-02  0.290E-02
 -11.696  0.306E-02  0.306E-02
 -11.686  0.322E-02  0.322E-02
 -11.676  0.339E-02  0.339E-02
 -11.666  0.356E-02  0.356E-02
 -11.656  0.373E-02  0.373E-02
 -11.646  0.390E-02  0.390E-02
 -11.636  0.407E-02  0.407E-02
 -11.626  0.425E-02  0.425E-02
 -11.616  0.443E-02  0.443E-02
 -11.606  0.460E-02  0.460E-02
 -11.596  0.478E-02  0.478E-02
 -11.586  0.496E-02  0.496E-02
 -11.576  0.515E-02  0.515E-02
 -11.566  0.533E-02  0.533E-02
 -11.556  0.551E-02  0.551E-02
 -11.546  0.569E-02  0.569E-02
 -11.536  0.588E-02  0.588E-02
 -11.526  0.606E-02  0.606E-02
 -11.516  0.624E-02  0.624E-02
 -11.506  0.642E-02  0.642E-02
 -11.496  0.660E-02  0.660E-02
 -11.486  0.678E-02  0.678E-02
 -11.476  0.696E-02  0.696E-02
 -11.466  0.713E-02  0.713E-02
 -11.456  0.730E-02  0.730E-02
 -11.446  0.747E-02  0.747E-02
 -11.436  0.764E-02  0.764E-02
 -11.426  0.781E-02  0.781E-02
 -11.416  0.797E-02  0.797E-02
 -11.406  0.813E-02  0.813E-02
 -11.396  0.828E-02  0.828E-02
 -11.386  0.844E-02  0.844E-02
 -11.376  0.858E-02  0.858E-02
 -11.366  0.873E-02  0.873E-02
 -11.356  0.887E-02  0.887E-02
 -11.346  0.900E-02  0.900E-02
 -11.336  0.913E-02  0.913E-02
 -11.326  0.926E-02  0.926E-02
 -11.316  0.938E-02  0.938E-02
 -11.306  0.949E-02  0.949E-02
 -11.296  0.960E-02  0.960E-02
 -11.286  0.971E-02  0.971E-02
 -11.276  0.980E-02  0.980E-02
 -11.266  0.990E-02  0.990E-02
 -11.256  0.998E-02  0.998E-02
 -11.246  0.101E-01  0.101E-01
 -11.236  0.101E-01  0.101E-01
 -11.226  0.102E-01  0.102E-01
 -11.216  0.103E-01  0.103E-01
 -11.206  0.103E-01  0.103E-01
 -11.196  0.104E-01  0.104E-01
 -11.186  0.104E-01  0.104E-01
 -11.176  0.104E-01  0.104E-01
 -11.166  0.105E-01  0.105E-01
 -11.156  0.105E-01  0.105E-01
 -11.146  0.105E-01  0.105E-01
 -11.136  0.105E-01  0.105E-01
 -11.126  0.105E-01  0.105E-01
 -11.116  0.105E-01  0.105E-01
 -11.106  0.105E-01  0.105E-01
 -11.096  0.104E-01  0.104E-01
 -11.086  0.104E-01  0.104E-01
 -11.076  0.104E-01  0.104E-01
 -11.066  0.103E-01  0.103E-01
 -11.056  0.103E-01  0.103E-01
 -11.046  0.102E-01  0.102E-01
 -11.036  0.101E-01  0.101E-01
 -11.026  0.101E-01  0.101E-01
 -11.016  0.999E-02  0.999E-02
 -11.006  0.991E-02  0.991E-02
 -10.996  0.982E-02  0.982E-02
 -10.986  0.972E-02  0.972E-02
 -10.976  0.961E-02  0.961E-02
 -10.966  0.950E-02  0.950E-02
 -10.956  0.939E-02  0.939E-02
 -10.946  0.926E-02  0.926E-02
 -10.936  0.913E-02  0.913E-02
 -10.926  0.900E-02  0.900E-02
 -10.916  0.886E-02  0.886E-02
 -10.906  0.871E-02  0.871E-02
 -10.896  0.856E-02  0.856E-02
 -10.886  0.840E-02  0.840E-02
 -10.876  0.824E-02  0.824E-02
 -10.866  0.808E-02  0.808E-02
 -10.856  0.790E-02  0.790E-02
 -10.846  0.773E-02  0.773E-02
 -10.836  0.755E-02  0.755E-02
 -10.826  0.736E-02  0.736E-02
 -10.816  0.717E-02  0.717E-02
 -10.806  0.698E-02  0.698E-02
 -10.796  0.678E-02  0.678E-02
 -10.786  0.658E-02  0.658E-02
 -10.776  0.637E-02  0.637E-02
 -10.766  0.616E-02  0.616E-02
 -10.756  0.595E-02  0.595E-02
 -10.746  0.574E-02  0.574E-02
 -10.736  0.552E-02  0.552E-02
 -10.726  0.530E-02  0.530E-02
 -10.716  0.507E-02  0.507E-02
 -10.706  0.485E-02  0.485E-02
 -10.696  0.462E-02  0.462E-02
 -10.686  0.439E-02  0.439E-02
 -10.676  0.415E-02  0.415E-02
 -10.666  0.392E-02  0.392E-02
 -10.656  0.368E-02  0.368E-02
 -10.646  0.344E-02  0.344E-02
 -10.636  0.320E-02  0.320E-02
 -10.626  0.296E-02  0.296E-02
 -10.616  0.272E-02  0.272E-02
 -10.606  0.248E-02  0.248E-02
 -10.596  0.224E-02  0.224E-02
 -10.586  0.199E-02  0.199E-02
 -10.576  0.175E-02  0.175E-02
 -10.566  0.151E-02  0.151E-02
 -10.556  0.127E-02  0.127E-02
 -10.546  0.103E-02  0.103E-02
 -10.536  0.797E-03  0.797E-03
 -10.526  0.563E-03  0.563E-03
 -10.516  0.330E-03  0.330E-03
 -10.506  0.101E-03  0.101E-03
 -10.496 -0.126E-03 -0.126E-03
 -10.486 -0.348E-03 -0.348E-03
 -10.476 -0.567E-03 -0.567E-03
 -10.466 -0.781E-03 -0.781E-03
 -10.456 -0.990E-03 -0.990E-03
 -10.446 -0.119E-02 -0.119E-02
 -10.436 -0.139E-02 -0.139E-02
 -10.426 -0.158E-02 -0.158E-02
 -10.416 -0.176E-02 -0.176E-02
 -10.406 -0.194E-02 -0.194E-02
 -10.396 -0.210E-02 -0.210E-02
 -10.386 -0.226E-02 -0.226E-02
 -10.376 -0.240E-02 -0.240E-02
 -10.366 -0.254E-02 -0.254E-02
 -10.356 -0.266E-02 -0.266E-02
 -10.346 -0.277E-02 -0.277E-02
 -10.336 -0.287E-02 -0.287E-02
 -10.326 -0.296E-02 -0.296E-02
 -10.316 -0.303E-02 -0.303E-02
 -10.306 -0.308E-02 -0.308E-02
 -10.296 -0.312E-02 -0.312E-02
 -10.286 -0.314E-02 -0.314E-02
 -10.276 -0.314E-02 -0.314E-02
 -10.266 -0.312E-02 -0.312E-02
 -10.256 -0.308E-02 -0.308E-02
 -10.246 -0.302E-02 -0.302E-02
 -10.236 -0.294E-02 -0.294E-02
 -10.226 -0.283E-02 -0.283E-02
 -10.216 -0.270E-02 -0.270E-02
 -10.206 -0.255E-02 -0.255E-02
 -10.196 -0.237E-02 -0.237E-02
 -10.186 -0.216E-02 -0.216E-02
 -10.176 -0.192E-02 -0.192E-02
 -10.166 -0.166E-02 -0.166E-02
 -10.156 -0.136E-02 -0.136E-02
 -10.146 -0.104E-02 -0.104E-02
 -10.136 -0.681E-03 -0.681E-03
 -10.126 -0.289E-03 -0.289E-03
 -10.116  0.136E-03  0.136E-03
 -10.106  0.595E-03  0.595E-03
 -10.096  0.109E-02  0.109E-02
 -10.086  0.162E-02  0.162E-02
 -10.076  0.219E-02  0.219E-02
 -10.066  0.280E-02  0.280E-02
 -10.056  0.344E-02  0.344E-02
 -10.046  0.413E-02  0.413E-02
 -10.036  0.485E-02  0.485E-02
 -10.026  0.562E-02  0.562E-02
 -10.016  0.643E-02  0.643E-02
 -10.006  0.728E-02  0.728E-02
  -9.996  0.817E-02  0.817E-02
  -9.986  0.910E-02  0.910E-02
  -9.976  0.101E-01  0.101E-01
  -9.966  0.111E-01  0.111E-01
  -9.956  0.122E-01  0.122E-01
  -9.946  0.133E-01  0.133E-01
  -9.936  0.144E-01  0.144E-01
  -9.926  0.156E-01  0.156E-01
  -9.916  0.168E-01  0.168E-01
  -9.906  0.181E-01  0.181E-01
  -9.896  0.194E-01  0.194E-01
  -9.886  0.208E-01  0.208E-01
  -9.876  0.222E-01  0.222E-01
  -9.866  0.236E-01  0.236E-01
  -9.856  0.251E-01  0.251E-01
  -9.846  0.266E-01  0.266E-01
  -9.836  0.282E-01  0.282E-01
  -9.826  0.298E-01  0.298E-01
  -9.816  0.314E-01  0.314E-01
  -9.806  0.331E-01  0.331E-01
  -9.796  0.348E-01  0.348E-01
  -9.786  0.365E-01  0.365E-01
  -9.776  0.383E-01  0.383E-01
  -9.766  0.401E-01  0.401E-01
  -9.756  0.419E-01  0.419E-01
  -9.746  0.438E-01  0.438E-01
  -9.736  0.456E-01  0.456E-01
  -9.726  0.475E-01  0.475E-01
  -9.716  0.494E-01  0.494E-01
  -9.706  0.514E-01  0.514E-01
  -9.696  0.533E-01  0.533E-01
  -9.686  0.553E-01  0.553E-01
  -9.676  0.572E-01  0.572E-01
  -9.666  0.592E-01  0.592E-01
  -9.656  0.612E-01  0.612E-01
  -9.646  0.632E-01  0.632E-01
  -9.636  0.652E-01  0.652E-01
  -9.626  0.672E-01  0.672E-01
  -9.616  0.692E-01  0.692E-01
  -9.606  0.711E-01  0.711E-01
  -9.596  0.731E-01  0.731E-01
  -9.586  0.751E-01  0.751E-01
  -9.576  0.770E-01  0.770E-01
  -9.566  0.789E-01  0.789E-01
  -9.556  0.808E-01  0.808E-01
  -9.546  0.827E-01  0.827E-01
  -9.536  0.845E-01  0.845E-01
  -9.526  0.864E-01  0.864E-01
  -9.516  0.881E-01  0.881E-01
  -9.506  0.899E-01  0.899E-01
  -9.496  0.916E-01  0.916E-01
  -9.486  0.933E-01  0.933E-01
  -9.476  0.949E-01  0.949E-01
  -9.466  0.965E-01  0.965E-01
  -9.456  0.980E-01  0.980E-01
  -9.446  0.995E-01  0.995E-01
  -9.436  0.101E+00  0.101E+00
  -9.426  0.102E+00  0.102E+00
  -9.416  0.104E+00  0.104E+00
  -9.406  0.105E+00  0.105E+00
  -9.396  0.106E+00  0.106E+00
  -9.386  0.107E+00  0.107E+00
  -9.376  0.108E+00  0.108E+00
  -9.366  0.109E+00  0.109E+00
  -9.356  0.110E+00  0.110E+00
  -9.346  0.111E+00  0.111E+00
  -9.336  0.112E+00  0.112E+00
  -9.326  0.113E+00  0.113E+00
  -9.316  0.113E+00  0.113E+00
  -9.306  0.114E+00  0.114E+00
  -9.296  0.114E+00  0.114E+00
  -9.286  0.115E+00  0.115E+00
  -9.276  0.115E+00  0.115E+00
  -9.266  0.116E+00  0.116E+00
  -9.256  0.116E+00  0.116E+00
  -9.246  0.116E+00  0.116E+00
  -9.236  0.116E+00  0.116E+00
  -9.226  0.116E+00  0.116E+00
  -9.216  0.116E+00  0.116E+00
  -9.206  0.116E+00  0.116E+00
  -9.196  0.115E+00  0.115E+00
  -9.186  0.115E+00  0.115E+00
  -9.176  0.115E+00  0.115E+00
  -9.166  0.114E+00  0.114E+00
  -9.156  0.114E+00  0.114E+00
  -9.146  0.113E+00  0.113E+00
  -9.136  0.113E+00  0.113E+00
  -9.126  0.112E+00  0.112E+00
  -9.116  0.111E+00  0.111E+00
  -9.106  0.110E+00  0.110E+00
  -9.096  0.109E+00  0.109E+00
  -9.086  0.108E+00  0.108E+00
  -9.076  0.107E+00  0.107E+00
  -9.066  0.106E+00  0.106E+00
  -9.056  0.105E+00  0.105E+00
  -9.046  0.104E+00  0.104E+00
  -9.036  0.103E+00  0.103E+00
  -9.026  0.102E+00  0.102E+00
  -9.016  0.101E+00  0.101E+00
  -9.006  0.993E-01  0.993E-01
  -8.996  0.979E-01  0.979E-01
  -8.986  0.966E-01  0.966E-01
  -8.976  0.953E-01  0.953E-01
  -8.966  0.939E-01  0.939E-01
  -8.956  0.925E-01  0.925E-01
  -8.946  0.911E-01  0.911E-01
  -8.936  0.897E-01  0.897E-01
  -8.926  0.884E-01  0.884E-01
  -8.916  0.870E-01  0.870E-01
  -8.906  0.856E-01  0.856E-01
  -8.896  0.842E-01  0.842E-01
  -8.886  0.828E-01  0.828E-01
  -8.876  0.814E-01  0.814E-01
  -8.866  0.801E-01  0.801E-01
  -8.856  0.788E-01  0.788E-01
  -8.846  0.775E-01  0.775E-01
  -8.836  0.762E-01  0.762E-01
  -8.826  0.750E-01  0.750E-01
  -8.816  0.738E-01  0.738E-01
  -8.806  0.727E-01  0.727E-01
  -8.796  0.716E-01  0.716E-01
  -8.786  0.705E-01  0.705E-01
  -8.776  0.695E-01  0.695E-01
  -8.766  0.685E-01  0.685E-01
  -8.756  0.677E-01  0.677E-01
  -8.746  0.668E-01  0.668E-01
  -8.736  0.660E-01  0.660E-01
  -8.726  0.653E-01  0.653E-01
  -8.716  0.647E-01  0.647E-01
  -8.706  0.641E-01  0.641E-01
  -8.696  0.636E-01  0.636E-01
  -8.686  0.632E-01  0.632E-01
  -8.676  0.628E-01  0.628E-01
  -8.666  0.625E-01  0.625E-01
  -8.656  0.623E-01  0.623E-01
  -8.646  0.622E-01  0.622E-01
  -8.636  0.622E-01  0.622E-01
  -8.626  0.623E-01  0.623E-01
  -8.616  0.624E-01  0.624E-01
  -8.606  0.627E-01  0.627E-01
  -8.596  0.630E-01  0.630E-01
  -8.586  0.634E-01  0.634E-01
  -8.576  0.639E-01  0.639E-01
  -8.566  0.645E-01  0.645E-01
  -8.556  0.652E-01  0.652E-01
  -8.546  0.660E-01  0.660E-01
  -8.536  0.669E-01  0.669E-01
  -8.526  0.679E-01  0.679E-01
  -8.516  0.689E-01  0.689E-01
  -8.506  0.701E-01  0.701E-01
  -8.496  0.714E-01  0.714E-01
  -8.486  0.727E-01  0.727E-01
  -8.476  0.741E-01  0.741E-01
  -8.466  0.757E-01  0.757E-01
  -8.456  0.773E-01  0.773E-01
  -8.446  0.790E-01  0.790E-01
  -8.436  0.808E-01  0.808E-01
  -8.426  0.826E-01  0.826E-01
  -8.416  0.846E-01  0.846E-01
  -8.406  0.866E-01  0.866E-01
  -8.396  0.887E-01  0.887E-01
  -8.386  0.909E-01  0.909E-01
  -8.376  0.932E-01  0.932E-01
  -8.366  0.955E-01  0.955E-01
  -8.356  0.979E-01  0.979E-01
  -8.346  0.100E+00  0.100E+00
  -8.336  0.103E+00  0.103E+00
  -8.326  0.106E+00  0.106E+00
  -8.316  0.108E+00  0.108E+00
  -8.306  0.111E+00  0.111E+00
  -8.296  0.114E+00  0.114E+00
  -8.286  0.116E+00  0.116E+00
  -8.276  0.119E+00  0.119E+00
  -8.266  0.122E+00  0.122E+00
  -8.256  0.125E+00  0.125E+00
  -8.246  0.128E+00  0.128E+00
  -8.236  0.131E+00  0.131E+00
  -8.226  0.134E+00  0.134E+00
  -8.216  0.137E+00  0.137E+00
  -8.206  0.140E+00  0.140E+00
  -8.196  0.143E+00  0.143E+00
  -8.186  0.146E+00  0.146E+00
  -8.176  0.149E+00  0.149E+00
  -8.166  0.152E+00  0.152E+00
  -8.156  0.155E+00  0.155E+00
  -8.146  0.158E+00  0.158E+00
  -8.136  0.161E+00  0.161E+00
  -8.126  0.164E+00  0.164E+00
  -8.116  0.167E+00  0.167E+00
  -8.106  0.170E+00  0.170E+00
  -8.096  0.173E+00  0.173E+00
  -8.086  0.176E+00  0.176E+00
  -8.076  0.178E+00  0.178E+00
  -8.066  0.181E+00  0.181E+00
  -8.056  0.184E+00  0.184E+00
  -8.046  0.186E+00  0.186E+00
  -8.036  0.189E+00  0.189E+00
  -8.026  0.191E+00  0.191E+00
  -8.016  0.194E+00  0.194E+00
  -8.006  0.196E+00  0.196E+00
  -7.996  0.198E+00  0.198E+00
  -7.986  0.200E+00  0.200E+00
  -7.976  0.202E+00  0.202E+00
  -7.966  0.204E+00  0.204E+00
  -7.956  0.206E+00  0.206E+00
  -7.946  0.208E+00  0.208E+00
  -7.936  0.209E+00  0.209E+00
  -7.926  0.211E+00  0.211E+00
  -7.916  0.212E+00  0.212E+00
  -7.906  0.214E+00  0.214E+00
  -7.896  0.215E+00  0.215E+00
  -7.886  0.216E+00  0.216E+00
  -7.876  0.217E+00  0.217E+00
  -7.866  0.218E+00  0.218E+00
  -7.856  0.218E+00  0.218E+00
  -7.846  0.219E+00  0.219E+00
  -7.836  0.219E+00  0.219E+00
  -7.826  0.220E+00  0.220E+00
  -7.816  0.220E+00  0.220E+00
  -7.806  0.220E+00  0.220E+00
  -7.796  0.220E+00  0.220E+00
  -7.786  0.220E+00  0.220E+00
  -7.776  0.219E+00  0.219E+00
  -7.766  0.219E+00  0.219E+00
  -7.756  0.218E+00  0.218E+00
  -7.746  0.217E+00  0.217E+00
  -7.736  0.217E+00  0.217E+00
  -7.726  0.216E+00  0.216E+00
  -7.716  0.214E+00  0.214E+00
  -7.706  0.213E+00  0.213E+00
  -7.696  0.212E+00  0.212E+00
  -7.686  0.210E+00  0.210E+00
  -7.676  0.209E+00  0.209E+00
  -7.666  0.207E+00  0.207E+00
  -7.656  0.205E+00  0.205E+00
  -7.646  0.203E+00  0.203E+00
  -7.636  0.201E+00  0.201E+00
  -7.626  0.199E+00  0.199E+00
  -7.616  0.197E+00  0.197E+00
  -7.606  0.194E+00  0.194E+00
  -7.596  0.192E+00  0.192E+00
  -7.586  0.189E+00  0.189E+00
  -7.576  0.187E+00  0.187E+00
  -7.566  0.184E+00  0.184E+00
  -7.556  0.181E+00  0.181E+00
  -7.546  0.178E+00  0.178E+00
  -7.536  0.175E+00  0.175E+00
  -7.526  0.173E+00  0.173E+00
  -7.516  0.169E+00  0.169E+00
  -7.506  0.166E+00  0.166E+00
  -7.496  0.163E+00  0.163E+00
  -7.486  0.160E+00  0.160E+00
  -7.476  0.157E+00  0.157E+00
  -7.466  0.153E+00  0.153E+00
  -7.456  0.150E+00  0.150E+00
  -7.446  0.147E+00  0.147E+00
  -7.436  0.143E+00  0.143E+00
  -7.426  0.140E+00  0.140E+00
  -7.416  0.137E+00  0.137E+00
  -7.406  0.133E+00  0.133E+00
  -7.396  0.130E+00  0.130E+00
  -7.386  0.127E+00  0.127E+00
  -7.376  0.123E+00  0.123E+00
  -7.366  0.120E+00  0.120E+00
  -7.356  0.116E+00  0.116E+00
  -7.346  0.113E+00  0.113E+00
  -7.336  0.110E+00  0.110E+00
  -7.326  0.106E+00  0.106E+00
  -7.316  0.103E+00  0.103E+00
  -7.306  0.998E-01  0.998E-01
  -7.296  0.965E-01  0.965E-01
  -7.286  0.933E-01  0.933E-01
  -7.276  0.902E-01  0.902E-01
  -7.266  0.871E-01  0.871E-01
  -7.256  0.840E-01  0.840E-01
  -7.246  0.810E-01  0.810E-01
  -7.236  0.781E-01  0.781E-01
  -7.226  0.752E-01  0.752E-01
  -7.216  0.723E-01  0.723E-01
  -7.206  0.695E-01  0.695E-01
  -7.196  0.668E-01  0.668E-01
  -7.186  0.641E-01  0.641E-01
  -7.176  0.615E-01  0.615E-01
  -7.166  0.590E-01  0.590E-01
  -7.156  0.565E-01  0.565E-01
  -7.146  0.541E-01  0.541E-01
  -7.136  0.518E-01  0.518E-01
  -7.126  0.495E-01  0.495E-01
  -7.116  0.473E-01  0.473E-01
  -7.106  0.452E-01  0.452E-01
  -7.096  0.431E-01  0.431E-01
  -7.086  0.411E-01  0.411E-01
  -7.076  0.392E-01  0.392E-01
  -7.066  0.373E-01  0.373E-01
  -7.056  0.355E-01  0.355E-01
  -7.046  0.338E-01  0.338E-01
  -7.036  0.321E-01  0.321E-01
  -7.026  0.305E-01  0.305E-01
  -7.016  0.290E-01  0.290E-01
  -7.006  0.276E-01  0.276E-01
  -6.996  0.262E-01  0.262E-01
  -6.986  0.248E-01  0.248E-01
  -6.976  0.236E-01  0.236E-01
  -6.966  0.223E-01  0.223E-01
  -6.956  0.212E-01  0.212E-01
  -6.946  0.201E-01  0.201E-01
  -6.936  0.190E-01  0.190E-01
  -6.926  0.181E-01  0.181E-01
  -6.916  0.171E-01  0.171E-01
  -6.906  0.162E-01  0.162E-01
  -6.896  0.154E-01  0.154E-01
  -6.886  0.146E-01  0.146E-01
  -6.876  0.139E-01  0.139E-01
  -6.866  0.132E-01  0.132E-01
  -6.856  0.125E-01  0.125E-01
  -6.846  0.119E-01  0.119E-01
  -6.836  0.114E-01  0.114E-01
  -6.826  0.108E-01  0.108E-01
  -6.816  0.103E-01  0.103E-01
  -6.806  0.986E-02  0.986E-02
  -6.796  0.943E-02  0.943E-02
  -6.786  0.903E-02  0.903E-02
  -6.776  0.865E-02  0.865E-02
  -6.766  0.831E-02  0.831E-02
  -6.756  0.798E-02  0.798E-02
  -6.746  0.769E-02  0.769E-02
  -6.736  0.741E-02  0.741E-02
  -6.726  0.716E-02  0.716E-02
  -6.716  0.693E-02  0.693E-02
  -6.706  0.671E-02  0.671E-02
  -6.696  0.651E-02  0.651E-02
  -6.686  0.633E-02  0.633E-02
  -6.676  0.616E-02  0.616E-02
  -6.666  0.600E-02  0.600E-02
  -6.656  0.586E-02  0.586E-02
  -6.646  0.572E-02  0.572E-02
  -6.636  0.560E-02  0.560E-02
  -6.626  0.548E-02  0.548E-02
  -6.616  0.538E-02  0.538E-02
  -6.606  0.528E-02  0.528E-02
  -6.596  0.518E-02  0.518E-02
  -6.586  0.509E-02  0.509E-02
  -6.576  0.501E-02  0.501E-02
  -6.566  0.493E-02  0.493E-02
  -6.556  0.486E-02  0.486E-02
  -6.546  0.479E-02  0.479E-02
  -6.536  0.473E-02  0.473E-02
  -6.526  0.466E-02  0.466E-02
  -6.516  0.460E-02  0.460E-02
  -6.506  0.454E-02  0.454E-02
  -6.496  0.449E-02  0.449E-02
  -6.486  0.444E-02  0.444E-02
  -6.476  0.439E-02  0.439E-02
  -6.466  0.434E-02  0.434E-02
  -6.456  0.430E-02  0.430E-02
  -6.446  0.426E-02  0.426E-02
  -6.436  0.423E-02  0.423E-02
  -6.426  0.419E-02  0.419E-02
  -6.416  0.417E-02  0.417E-02
  -6.406  0.415E-02  0.415E-02
  -6.396  0.413E-02  0.413E-02
  -6.386  0.412E-02  0.412E-02
  -6.376  0.412E-02  0.412E-02
  -6.366  0.412E-02  0.412E-02
  -6.356  0.413E-02  0.413E-02
  -6.346  0.416E-02  0.416E-02
  -6.336  0.419E-02  0.419E-02
  -6.326  0.423E-02  0.423E-02
  -6.316  0.429E-02  0.429E-02
  -6.306  0.435E-02  0.435E-02
  -6.296  0.444E-02  0.444E-02
  -6.286  0.453E-02  0.453E-02
  -6.276  0.465E-02  0.465E-02
  -6.266  0.478E-02  0.478E-02
  -6.256  0.493E-02  0.493E-02
  -6.246  0.509E-02  0.509E-02
  -6.236  0.528E-02  0.528E-02
  -6.226  0.550E-02  0.550E-02
  -6.216  0.573E-02  0.573E-02
  -6.206  0.599E-02  0.599E-02
  -6.196  0.628E-02  0.628E-02
  -6.186  0.659E-02  0.659E-02
  -6.176  0.693E-02  0.693E-02
  -6.166  0.730E-02  0.730E-02
  -6.156  0.770E-02  0.770E-02
  -6.146  0.814E-02  0.814E-02
  -6.136  0.861E-02  0.861E-02
  -6.126  0.911E-02  0.911E-02
  -6.116  0.965E-02  0.965E-02
  -6.106  0.102E-01  0.102E-01
  -6.096  0.108E-01  0.108E-01
  -6.086  0.115E-01  0.115E-01
  -6.076  0.122E-01  0.122E-01
  -6.066  0.129E-01  0.129E-01
  -6.056  0.137E-01  0.137E-01
  -6.046  0.145E-01  0.145E-01
  -6.036  0.154E-01  0.154E-01
  -6.026  0.163E-01  0.163E-01
  -6.016  0.173E-01  0.173E-01
  -6.006  0.183E-01  0.183E-01
  -5.996  0.194E-01  0.194E-01
  -5.986  0.205E-01  0.205E-01
  -5.976  0.216E-01  0.216E-01
  -5.966  0.228E-01  0.228E-01
  -5.956  0.241E-01  0.241E-01
  -5.946  0.254E-01  0.254E-01
  -5.936  0.268E-01  0.268E-01
  -5.926  0.282E-01  0.282E-01
  -5.916  0.296E-01  0.296E-01
  -5.906  0.311E-01  0.311E-01
  -5.896  0.327E-01  0.327E-01
  -5.886  0.343E-01  0.343E-01
  -5.876  0.360E-01  0.360E-01
  -5.866  0.377E-01  0.377E-01
  -5.856  0.394E-01  0.394E-01
  -5.846  0.413E-01  0.413E-01
  -5.836  0.431E-01  0.431E-01
  -5.826  0.450E-01  0.450E-01
  -5.816  0.470E-01  0.470E-01
  -5.806  0.490E-01  0.490E-01
  -5.796  0.510E-01  0.510E-01
  -5.786  0.531E-01  0.531E-01
  -5.776  0.552E-01  0.552E-01
  -5.766  0.573E-01  0.573E-01
  -5.756  0.595E-01  0.595E-01
  -5.746  0.618E-01  0.618E-01
  -5.736  0.640E-01  0.640E-01
  -5.726  0.663E-01  0.663E-01
  -5.716  0.686E-01  0.686E-01
  -5.706  0.710E-01  0.710E-01
  -5.696  0.733E-01  0.733E-01
  -5.686  0.757E-01  0.757E-01
  -5.676  0.781E-01  0.781E-01
  -5.666  0.805E-01  0.805E-01
  -5.656  0.830E-01  0.830E-01
  -5.646  0.854E-01  0.854E-01
  -5.636  0.878E-01  0.878E-01
  -5.626  0.903E-01  0.903E-01
  -5.616  0.927E-01  0.927E-01
  -5.606  0.952E-01  0.952E-01
  -5.596  0.976E-01  0.976E-01
  -5.586  0.100E+00  0.100E+00
  -5.576  0.102E+00  0.102E+00
  -5.566  0.105E+00  0.105E+00
  -5.556  0.107E+00  0.107E+00
  -5.546  0.110E+00  0.110E+00
  -5.536  0.112E+00  0.112E+00
  -5.526  0.114E+00  0.114E+00
  -5.516  0.117E+00  0.117E+00
  -5.506  0.119E+00  0.119E+00
  -5.496  0.121E+00  0.121E+00
  -5.486  0.123E+00  0.123E+00
  -5.476  0.125E+00  0.125E+00
  -5.466  0.127E+00  0.127E+00
  -5.456  0.129E+00  0.129E+00
  -5.446  0.131E+00  0.131E+00
  -5.436  0.133E+00  0.133E+00
  -5.426  0.135E+00  0.135E+00
  -5.416  0.137E+00  0.137E+00
  -5.406  0.138E+00  0.138E+00
  -5.396  0.140E+00  0.140E+00
  -5.386  0.142E+00  0.142E+00
  -5.376  0.143E+00  0.143E+00
  -5.366  0.145E+00  0.145E+00
  -5.356  0.146E+00  0.146E+00
  -5.346  0.147E+00  0.147E+00
  -5.336  0.148E+00  0.148E+00
  -5.326  0.149E+00  0.149E+00
  -5.316  0.150E+00  0.150E+00
  -5.306  0.151E+00  0.151E+00
  -5.296  0.152E+00  0.152E+00
  -5.286  0.153E+00  0.153E+00
  -5.276  0.153E+00  0.153E+00
  -5.266  0.154E+00  0.154E+00
  -5.256  0.154E+00  0.154E+00
  -5.246  0.155E+00  0.155E+00
  -5.236  0.155E+00  0.155E+00
  -5.226  0.155E+00  0.155E+00
  -5.216  0.155E+00  0.155E+00
  -5.206  0.155E+00  0.155E+00
  -5.196  0.155E+00  0.155E+00
  -5.186  0.155E+00  0.155E+00
  -5.176  0.155E+00  0.155E+00
  -5.166  0.154E+00  0.154E+00
  -5.156  0.154E+00  0.154E+00
  -5.146  0.153E+00  0.153E+00
  -5.136  0.153E+00  0.153E+00
  -5.126  0.152E+00  0.152E+00
  -5.116  0.151E+00  0.151E+00
  -5.106  0.150E+00  0.150E+00
  -5.096  0.149E+00  0.149E+00
  -5.086  0.148E+00  0.148E+00
  -5.076  0.147E+00  0.147E+00
  -5.066  0.146E+00  0.146E+00
  -5.056  0.144E+00  0.144E+00
  -5.046  0.143E+00  0.143E+00
  -5.036  0.142E+00  0.142E+00
  -5.026  0.140E+00  0.140E+00
  -5.016  0.139E+00  0.139E+00
  -5.006  0.137E+00  0.137E+00
  -4.996  0.135E+00  0.135E+00
  -4.986  0.134E+00  0.134E+00
  -4.976  0.132E+00  0.132E+00
  -4.966  0.130E+00  0.130E+00
  -4.956  0.128E+00  0.128E+00
  -4.946  0.126E+00  0.126E+00
  -4.936  0.124E+00  0.124E+00
  -4.926  0.122E+00  0.122E+00
  -4.916  0.120E+00  0.120E+00
  -4.906  0.118E+00  0.118E+00
  -4.896  0.116E+00  0.116E+00
  -4.886  0.114E+00  0.114E+00
  -4.876  0.112E+00  0.112E+00
  -4.866  0.110E+00  0.110E+00
  -4.856  0.108E+00  0.108E+00
  -4.846  0.106E+00  0.106E+00
  -4.836  0.104E+00  0.104E+00
  -4.826  0.102E+00  0.102E+00
  -4.816  0.995E-01  0.995E-01
  -4.806  0.974E-01  0.974E-01
  -4.796  0.953E-01  0.953E-01
  -4.786  0.931E-01  0.931E-01
  -4.776  0.910E-01  0.910E-01
  -4.766  0.890E-01  0.890E-01
  -4.756  0.869E-01  0.869E-01
  -4.746  0.848E-01  0.848E-01
  -4.736  0.828E-01  0.828E-01
  -4.726  0.808E-01  0.808E-01
  -4.716  0.788E-01  0.788E-01
  -4.706  0.768E-01  0.768E-01
  -4.696  0.748E-01  0.748E-01
  -4.686  0.729E-01  0.729E-01
  -4.676  0.710E-01  0.710E-01
  -4.666  0.692E-01  0.692E-01
  -4.656  0.674E-01  0.674E-01
  -4.646  0.656E-01  0.656E-01
  -4.636  0.638E-01  0.638E-01
  -4.626  0.621E-01  0.621E-01
  -4.616  0.604E-01  0.604E-01
  -4.606  0.588E-01  0.588E-01
  -4.596  0.572E-01  0.572E-01
  -4.586  0.556E-01  0.556E-01
  -4.576  0.541E-01  0.541E-01
  -4.566  0.526E-01  0.526E-01
  -4.556  0.512E-01  0.512E-01
  -4.546  0.498E-01  0.498E-01
  -4.536  0.484E-01  0.484E-01
  -4.526  0.471E-01  0.471E-01
  -4.516  0.458E-01  0.458E-01
  -4.506  0.446E-01  0.446E-01
  -4.496  0.434E-01  0.434E-01
  -4.486  0.422E-01  0.422E-01
  -4.476  0.411E-01  0.411E-01
  -4.466  0.400E-01  0.400E-01
  -4.456  0.390E-01  0.390E-01
  -4.446  0.380E-01  0.380E-01
  -4.436  0.371E-01  0.371E-01
  -4.426  0.361E-01  0.361E-01
  -4.416  0.353E-01  0.353E-01
  -4.406  0.344E-01  0.344E-01
  -4.396  0.336E-01  0.336E-01
  -4.386  0.328E-01  0.328E-01
  -4.376  0.321E-01  0.321E-01
  -4.366  0.314E-01  0.314E-01
  -4.356  0.308E-01  0.308E-01
  -4.346  0.301E-01  0.301E-01
  -4.336  0.295E-01  0.295E-01
  -4.326  0.290E-01  0.290E-01
  -4.316  0.284E-01  0.284E-01
  -4.306  0.279E-01  0.279E-01
  -4.296  0.275E-01  0.275E-01
  -4.286  0.270E-01  0.270E-01
  -4.276  0.266E-01  0.266E-01
  -4.266  0.262E-01  0.262E-01
  -4.256  0.259E-01  0.259E-01
  -4.246  0.255E-01  0.255E-01
  -4.236  0.252E-01  0.252E-01
  -4.226  0.250E-01  0.250E-01
  -4.216  0.247E-01  0.247E-01
  -4.206  0.245E-01  0.245E-01
  -4.196  0.243E-01  0.243E-01
  -4.186  0.241E-01  0.241E-01
  -4.176  0.240E-01  0.240E-01
  -4.166  0.238E-01  0.238E-01
  -4.156  0.237E-01  0.237E-01
  -4.146  0.236E-01  0.236E-01
  -4.136  0.236E-01  0.236E-01
  -4.126  0.235E-01  0.235E-01
  -4.116  0.235E-01  0.235E-01
  -4.106  0.235E-01  0.235E-01
  -4.096  0.235E-01  0.235E-01
  -4.086  0.236E-01  0.236E-01
  -4.076  0.236E-01  0.236E-01
  -4.066  0.237E-01  0.237E-01
  -4.056  0.238E-01  0.238E-01
  -4.046  0.239E-01  0.239E-01
  -4.036  0.241E-01  0.241E-01
  -4.026  0.242E-01  0.242E-01
  -4.016  0.244E-01  0.244E-01
  -4.006  0.246E-01  0.246E-01
  -3.996  0.248E-01  0.248E-01
  -3.986  0.250E-01  0.250E-01
  -3.976  0.253E-01  0.253E-01
  -3.966  0.256E-01  0.256E-01
  -3.956  0.258E-01  0.258E-01
  -3.946  0.261E-01  0.261E-01
  -3.936  0.265E-01  0.265E-01
  -3.926  0.268E-01  0.268E-01
  -3.916  0.272E-01  0.272E-01
  -3.906  0.275E-01  0.275E-01
  -3.896  0.279E-01  0.279E-01
  -3.886  0.284E-01  0.284E-01
  -3.876  0.288E-01  0.288E-01
  -3.866  0.292E-01  0.292E-01
  -3.856  0.297E-01  0.297E-01
  -3.846  0.302E-01  0.302E-01
  -3.836  0.307E-01  0.307E-01
  -3.826  0.312E-01  0.312E-01
  -3.816  0.317E-01  0.317E-01
  -3.806  0.322E-01  0.322E-01
  -3.796  0.328E-01  0.328E-01
  -3.786  0.334E-01  0.334E-01
  -3.776  0.339E-01  0.339E-01
  -3.766  0.345E-01  0.345E-01
  -3.756  0.352E-01  0.352E-01
  -3.746  0.358E-01  0.358E-01
  -3.736  0.364E-01  0.364E-01
  -3.726  0.371E-01  0.371E-01
  -3.716  0.377E-01  0.377E-01
  -3.706  0.384E-01  0.384E-01
  -3.696  0.391E-01  0.391E-01
  -3.686  0.398E-01  0.398E-01
  -3.676  0.405E-01  0.405E-01
  -3.666  0.412E-01  0.412E-01
  -3.656  0.419E-01  0.419E-01
  -3.646  0.426E-01  0.426E-01
  -3.636  0.434E-01  0.434E-01
  -3.626  0.441E-01  0.441E-01
  -3.616  0.448E-01  0.448E-01
  -3.606  0.456E-01  0.456E-01
  -3.596  0.463E-01  0.463E-01
  -3.586  0.471E-01  0.471E-01
  -3.576  0.478E-01  0.478E-01
  -3.566  0.486E-01  0.486E-01
  -3.556  0.493E-01  0.493E-01
  -3.546  0.501E-01  0.501E-01
  -3.536  0.508E-01  0.508E-01
  -3.526  0.516E-01  0.516E-01
  -3.516  0.523E-01  0.523E-01
  -3.506  0.530E-01  0.530E-01
  -3.496  0.538E-01  0.538E-01
  -3.486  0.545E-01  0.545E-01
  -3.476  0.552E-01  0.552E-01
  -3.466  0.559E-01  0.559E-01
  -3.456  0.566E-01  0.566E-01
  -3.446  0.573E-01  0.573E-01
  -3.436  0.580E-01  0.580E-01
  -3.426  0.586E-01  0.586E-01
  -3.416  0.593E-01  0.593E-01
  -3.406  0.599E-01  0.599E-01
  -3.396  0.605E-01  0.605E-01
  -3.386  0.611E-01  0.611E-01
  -3.376  0.617E-01  0.617E-01
  -3.366  0.622E-01  0.622E-01
  -3.356  0.628E-01  0.628E-01
  -3.346  0.633E-01  0.633E-01
  -3.336  0.638E-01  0.638E-01
  -3.326  0.643E-01  0.643E-01
  -3.316  0.647E-01  0.647E-01
  -3.306  0.652E-01  0.652E-01
  -3.296  0.656E-01  0.656E-01
  -3.286  0.660E-01  0.660E-01
  -3.276  0.663E-01  0.663E-01
  -3.266  0.667E-01  0.667E-01
  -3.256  0.670E-01  0.670E-01
  -3.246  0.673E-01  0.673E-01
  -3.236  0.675E-01  0.675E-01
  -3.226  0.678E-01  0.678E-01
  -3.216  0.679E-01  0.679E-01
  -3.206  0.681E-01  0.681E-01
  -3.196  0.683E-01  0.683E-01
  -3.186  0.684E-01  0.684E-01
  -3.176  0.685E-01  0.685E-01
  -3.166  0.685E-01  0.685E-01
  -3.156  0.685E-01  0.685E-01
  -3.146  0.685E-01  0.685E-01
  -3.136  0.685E-01  0.685E-01
  -3.126  0.684E-01  0.684E-01
  -3.116  0.683E-01  0.683E-01
  -3.106  0.682E-01  0.682E-01
  -3.096  0.680E-01  0.680E-01
  -3.086  0.678E-01  0.678E-01
  -3.076  0.676E-01  0.676E-01
  -3.066  0.674E-01  0.674E-01
  -3.056  0.671E-01  0.671E-01
  -3.046  0.668E-01  0.668E-01
  -3.036  0.664E-01  0.664E-01
  -3.026  0.661E-01  0.661E-01
  -3.016  0.657E-01  0.657E-01
  -3.006  0.653E-01  0.653E-01
  -2.996  0.648E-01  0.648E-01
  -2.986  0.644E-01  0.644E-01
  -2.976  0.639E-01  0.639E-01
  -2.966  0.634E-01  0.634E-01
  -2.956  0.628E-01  0.628E-01
  -2.946  0.623E-01  0.623E-01
  -2.936  0.617E-01  0.617E-01
  -2.926  0.611E-01  0.611E-01
  -2.916  0.604E-01  0.604E-01
  -2.906  0.598E-01  0.598E-01
  -2.896  0.591E-01  0.591E-01
  -2.886  0.585E-01  0.585E-01
  -2.876  0.578E-01  0.578E-01
  -2.866  0.571E-01  0.571E-01
  -2.856  0.564E-01  0.564E-01
  -2.846  0.556E-01  0.556E-01
  -2.836  0.549E-01  0.549E-01
  -2.826  0.541E-01  0.541E-01
  -2.816  0.534E-01  0.534E-01
  -2.806  0.526E-01  0.526E-01
  -2.796  0.519E-01  0.519E-01
  -2.786  0.511E-01  0.511E-01
  -2.776  0.503E-01  0.503E-01
  -2.766  0.495E-01  0.495E-01
  -2.756  0.488E-01  0.488E-01
  -2.746  0.480E-01  0.480E-01
  -2.736  0.472E-01  0.472E-01
  -2.726  0.465E-01  0.465E-01
  -2.716  0.457E-01  0.457E-01
  -2.706  0.450E-01  0.450E-01
  -2.696  0.443E-01  0.443E-01
  -2.686  0.435E-01  0.435E-01
  -2.676  0.428E-01  0.428E-01
  -2.666  0.422E-01  0.422E-01
  -2.656  0.415E-01  0.415E-01
  -2.646  0.408E-01  0.408E-01
  -2.636  0.402E-01  0.402E-01
  -2.626  0.396E-01  0.396E-01
  -2.616  0.390E-01  0.390E-01
  -2.606  0.385E-01  0.385E-01
  -2.596  0.379E-01  0.379E-01
  -2.586  0.374E-01  0.374E-01
  -2.576  0.369E-01  0.369E-01
  -2.566  0.365E-01  0.365E-01
  -2.556  0.361E-01  0.361E-01
  -2.546  0.357E-01  0.357E-01
  -2.536  0.354E-01  0.354E-01
  -2.526  0.351E-01  0.351E-01
  -2.516  0.348E-01  0.348E-01
  -2.506  0.346E-01  0.346E-01
  -2.496  0.344E-01  0.344E-01
  -2.486  0.343E-01  0.343E-01
  -2.476  0.342E-01  0.342E-01
  -2.466  0.342E-01  0.342E-01
  -2.456  0.342E-01  0.342E-01
  -2.446  0.343E-01  0.343E-01
  -2.436  0.344E-01  0.344E-01
  -2.426  0.345E-01  0.345E-01
  -2.416  0.347E-01  0.347E-01
  -2.406  0.350E-01  0.350E-01
  -2.396  0.353E-01  0.353E-01
  -2.386  0.357E-01  0.357E-01
  -2.376  0.361E-01  0.361E-01
  -2.366  0.366E-01  0.366E-01
  -2.356  0.371E-01  0.371E-01
  -2.346  0.377E-01  0.377E-01
  -2.336  0.383E-01  0.383E-01
  -2.326  0.390E-01  0.390E-01
  -2.316  0.398E-01  0.398E-01
  -2.306  0.406E-01  0.406E-01
  -2.296  0.415E-01  0.415E-01
  -2.286  0.424E-01  0.424E-01
  -2.276  0.434E-01  0.434E-01
  -2.266  0.445E-01  0.445E-01
  -2.256  0.456E-01  0.456E-01
  -2.246  0.468E-01  0.468E-01
  -2.236  0.480E-01  0.480E-01
  -2.226  0.493E-01  0.493E-01
  -2.216  0.506E-01  0.506E-01
  -2.206  0.520E-01  0.520E-01
  -2.196  0.535E-01  0.535E-01
  -2.186  0.550E-01  0.550E-01
  -2.176  0.565E-01  0.565E-01
  -2.166  0.582E-01  0.582E-01
  -2.156  0.598E-01  0.598E-01
  -2.146  0.615E-01  0.615E-01
  -2.136  0.633E-01  0.633E-01
  -2.126  0.651E-01  0.651E-01
  -2.116  0.669E-01  0.669E-01
  -2.106  0.688E-01  0.688E-01
  -2.096  0.708E-01  0.708E-01
  -2.086  0.727E-01  0.727E-01
  -2.076  0.747E-01  0.747E-01
  -2.066  0.768E-01  0.768E-01
  -2.056  0.789E-01  0.789E-01
  -2.046  0.810E-01  0.810E-01
  -2.036  0.831E-01  0.831E-01
  -2.026  0.853E-01  0.853E-01
  -2.016  0.875E-01  0.875E-01
  -2.006  0.897E-01  0.897E-01
  -1.996  0.919E-01  0.919E-01
  -1.986  0.942E-01  0.942E-01
  -1.976  0.964E-01  0.964E-01
  -1.966  0.987E-01  0.987E-01
  -1.956  0.101E+00  0.101E+00
  -1.946  0.103E+00  0.103E+00
  -1.936  0.106E+00  0.106E+00
  -1.926  0.108E+00  0.108E+00
  -1.916  0.110E+00  0.110E+00
  -1.906  0.112E+00  0.112E+00
  -1.896  0.115E+00  0.115E+00
  -1.886  0.117E+00  0.117E+00
  -1.876  0.119E+00  0.119E+00
  -1.866  0.121E+00  0.121E+00
  -1.856  0.124E+00  0.124E+00
  -1.846  0.126E+00  0.126E+00
  -1.836  0.128E+00  0.128E+00
  -1.826  0.130E+00  0.130E+00
  -1.816  0.132E+00  0.132E+00
  -1.806  0.134E+00  0.134E+00
  -1.796  0.136E+00  0.136E+00
  -1.786  0.138E+00  0.138E+00
  -1.776  0.140E+00  0.140E+00
  -1.766  0.142E+00  0.142E+00
  -1.756  0.144E+00  0.144E+00
  -1.746  0.145E+00  0.145E+00
  -1.736  0.147E+00  0.147E+00
  -1.726  0.149E+00  0.149E+00
  -1.716  0.150E+00  0.150E+00
  -1.706  0.152E+00  0.152E+00
  -1.696  0.153E+00  0.153E+00
  -1.686  0.154E+00  0.154E+00
  -1.676  0.156E+00  0.156E+00
  -1.666  0.157E+00  0.157E+00
  -1.656  0.158E+00  0.158E+00
  -1.646  0.159E+00  0.159E+00
  -1.636  0.160E+00  0.160E+00
  -1.626  0.161E+00  0.161E+00
  -1.616  0.162E+00  0.162E+00
  -1.606  0.162E+00  0.162E+00
  -1.596  0.163E+00  0.163E+00
  -1.586  0.163E+00  0.163E+00
  -1.576  0.164E+00  0.164E+00
  -1.566  0.164E+00  0.164E+00
  -1.556  0.164E+00  0.164E+00
  -1.546  0.165E+00  0.165E+00
  -1.536  0.165E+00  0.165E+00
  -1.526  0.165E+00  0.165E+00
  -1.516  0.165E+00  0.165E+00
  -1.506  0.164E+00  0.164E+00
  -1.496  0.164E+00  0.164E+00
  -1.486  0.164E+00  0.164E+00
  -1.476  0.163E+00  0.163E+00
  -1.466  0.162E+00  0.162E+00
  -1.456  0.162E+00  0.162E+00
  -1.446  0.161E+00  0.161E+00
  -1.436  0.160E+00  0.160E+00
  -1.426  0.159E+00  0.159E+00
  -1.416  0.158E+00  0.158E+00
  -1.406  0.157E+00  0.157E+00
  -1.396  0.156E+00  0.156E+00
  -1.386  0.154E+00  0.154E+00
  -1.376  0.153E+00  0.153E+00
  -1.366  0.152E+00  0.152E+00
  -1.356  0.150E+00  0.150E+00
  -1.346  0.148E+00  0.148E+00
  -1.336  0.147E+00  0.147E+00
  -1.326  0.145E+00  0.145E+00
  -1.316  0.143E+00  0.143E+00
  -1.306  0.141E+00  0.141E+00
  -1.296  0.139E+00  0.139E+00
  -1.286  0.137E+00  0.137E+00
  -1.276  0.135E+00  0.135E+00
  -1.266  0.133E+00  0.133E+00
  -1.256  0.131E+00  0.131E+00
  -1.246  0.129E+00  0.129E+00
  -1.236  0.126E+00  0.126E+00
  -1.226  0.124E+00  0.124E+00
  -1.216  0.122E+00  0.122E+00
  -1.206  0.119E+00  0.119E+00
  -1.196  0.117E+00  0.117E+00
  -1.186  0.114E+00  0.114E+00
  -1.176  0.112E+00  0.112E+00
  -1.166  0.109E+00  0.109E+00
  -1.156  0.107E+00  0.107E+00
  -1.146  0.104E+00  0.104E+00
  -1.136  0.102E+00  0.102E+00
  -1.126  0.991E-01  0.991E-01
  -1.116  0.965E-01  0.965E-01
  -1.106  0.939E-01  0.939E-01
  -1.096  0.914E-01  0.914E-01
  -1.086  0.888E-01  0.888E-01
  -1.076  0.862E-01  0.862E-01
  -1.066  0.836E-01  0.836E-01
  -1.056  0.811E-01  0.811E-01
  -1.046  0.785E-01  0.785E-01
  -1.036  0.760E-01  0.760E-01
  -1.026  0.734E-01  0.734E-01
  -1.016  0.709E-01  0.709E-01
  -1.006  0.685E-01  0.685E-01
  -0.996  0.660E-01  0.660E-01
  -0.986  0.636E-01  0.636E-01
  -0.976  0.612E-01  0.612E-01
  -0.966  0.589E-01  0.589E-01
  -0.956  0.565E-01  0.565E-01
  -0.946  0.542E-01  0.542E-01
  -0.936  0.520E-01  0.520E-01
  -0.926  0.498E-01  0.498E-01
  -0.916  0.476E-01  0.476E-01
  -0.906  0.455E-01  0.455E-01
  -0.896  0.434E-01  0.434E-01
  -0.886  0.414E-01  0.414E-01
  -0.876  0.394E-01  0.394E-01
  -0.866  0.375E-01  0.375E-01
  -0.856  0.356E-01  0.356E-01
  -0.846  0.337E-01  0.337E-01
  -0.836  0.319E-01  0.319E-01
  -0.826  0.302E-01  0.302E-01
  -0.816  0.285E-01  0.285E-01
  -0.806  0.269E-01  0.269E-01
  -0.796  0.253E-01  0.253E-01
  -0.786  0.238E-01  0.238E-01
  -0.776  0.223E-01  0.223E-01
  -0.766  0.209E-01  0.209E-01
  -0.756  0.195E-01  0.195E-01
  -0.746  0.182E-01  0.182E-01
  -0.736  0.170E-01  0.170E-01
  -0.726  0.158E-01  0.158E-01
  -0.716  0.146E-01  0.146E-01
  -0.706  0.136E-01  0.136E-01
  -0.696  0.125E-01  0.125E-01
  -0.686  0.115E-01  0.115E-01
  -0.676  0.106E-01  0.106E-01
  -0.666  0.975E-02  0.975E-02
  -0.656  0.893E-02  0.893E-02
  -0.646  0.816E-02  0.816E-02
  -0.636  0.744E-02  0.744E-02
  -0.626  0.677E-02  0.677E-02
  -0.616  0.615E-02  0.615E-02
  -0.606  0.558E-02  0.558E-02
  -0.596  0.506E-02  0.506E-02
  -0.586  0.459E-02  0.459E-02
  -0.576  0.416E-02  0.416E-02
  -0.566  0.377E-02  0.377E-02
  -0.556  0.343E-02  0.343E-02
  -0.546  0.314E-02  0.314E-02
  -0.536  0.289E-02  0.289E-02
  -0.526  0.267E-02  0.267E-02
  -0.516  0.250E-02  0.250E-02
  -0.506  0.237E-02  0.237E-02
  -0.496  0.227E-02  0.227E-02
  -0.486  0.222E-02  0.222E-02
  -0.476  0.220E-02  0.220E-02
  -0.466  0.221E-02  0.221E-02
  -0.456  0.226E-02  0.226E-02
  -0.446  0.234E-02  0.234E-02
  -0.436  0.245E-02  0.245E-02
  -0.426  0.259E-02  0.259E-02
  -0.416  0.276E-02  0.276E-02
  -0.406  0.296E-02  0.296E-02
  -0.396  0.318E-02  0.318E-02
  -0.386  0.344E-02  0.344E-02
  -0.376  0.372E-02  0.372E-02
  -0.366  0.402E-02  0.402E-02
  -0.356  0.434E-02  0.434E-02
  -0.346  0.469E-02  0.469E-02
  -0.336  0.505E-02  0.505E-02
  -0.326  0.544E-02  0.544E-02
  -0.316  0.585E-02  0.585E-02
  -0.306  0.627E-02  0.627E-02
  -0.296  0.671E-02  0.671E-02
  -0.286  0.717E-02  0.717E-02
  -0.276  0.764E-02  0.764E-02
  -0.266  0.813E-02  0.813E-02
  -0.256  0.863E-02  0.863E-02
  -0.246  0.914E-02  0.914E-02
  -0.236  0.966E-02  0.966E-02
  -0.226  0.102E-01  0.102E-01
  -0.216  0.107E-01  0.107E-01
  -0.206  0.113E-01  0.113E-01
  -0.196  0.119E-01  0.119E-01
  -0.186  0.124E-01  0.124E-01
  -0.176  0.130E-01  0.130E-01
  -0.166  0.136E-01  0.136E-01
  -0.156  0.142E-01  0.142E-01
  -0.146  0.148E-01  0.148E-01
  -0.136  0.154E-01  0.154E-01
  -0.126  0.160E-01  0.160E-01
  -0.116  0.166E-01  0.166E-01
  -0.106  0.172E-01  0.172E-01
  -0.096  0.178E-01  0.178E-01
  -0.086  0.185E-01  0.185E-01
  -0.076  0.191E-01  0.191E-01
  -0.066  0.197E-01  0.197E-01
  -0.056  0.204E-01  0.204E-01
  -0.046  0.210E-01  0.210E-01
  -0.036  0.216E-01  0.216E-01
  -0.026  0.223E-01  0.223E-01
  -0.016  0.229E-01  0.229E-01
  -0.006  0.236E-01  0.236E-01
   0.004  0.242E-01  0.242E-01
   0.014  0.249E-01  0.249E-01
   0.024  0.255E-01  0.255E-01
   0.034  0.262E-01  0.262E-01
   0.044  0.268E-01  0.268E-01
   0.054  0.275E-01  0.275E-01
   0.064  0.282E-01  0.282E-01
   0.074  0.288E-01  0.288E-01
   0.084  0.295E-01  0.295E-01
   0.094  0.302E-01  0.302E-01
   0.104  0.309E-01  0.309E-01
   0.114  0.316E-01  0.316E-01
   0.124  0.323E-01  0.323E-01
   0.134  0.330E-01  0.330E-01
   0.144  0.337E-01  0.337E-01
   0.154  0.344E-01  0.344E-01
   0.164  0.352E-01  0.352E-01
   0.174  0.359E-01  0.359E-01
   0.184  0.367E-01  0.367E-01
   0.194  0.374E-01  0.374E-01
   0.204  0.382E-01  0.382E-01
   0.214  0.390E-01  0.390E-01
   0.224  0.398E-01  0.398E-01
   0.234  0.406E-01  0.406E-01
   0.244  0.414E-01  0.414E-01
   0.254  0.423E-01  0.423E-01
   0.264  0.431E-01  0.431E-01
   0.274  0.440E-01  0.440E-01
   0.284  0.449E-01  0.449E-01
   0.294  0.459E-01  0.459E-01
   0.304  0.468E-01  0.468E-01
   0.314  0.478E-01  0.478E-01
   0.324  0.488E-01  0.488E-01
   0.334  0.498E-01  0.498E-01
   0.344  0.508E-01  0.508E-01
   0.354  0.519E-01  0.519E-01
   0.364  0.529E-01  0.529E-01
   0.374  0.540E-01  0.540E-01
   0.384  0.552E-01  0.552E-01
   0.394  0.564E-01  0.564E-01
   0.404  0.575E-01  0.575E-01
   0.414  0.588E-01  0.588E-01
   0.424  0.600E-01  0.600E-01
   0.434  0.613E-01  0.613E-01
   0.444  0.626E-01  0.626E-01
   0.454  0.640E-01  0.640E-01
   0.464  0.654E-01  0.654E-01
   0.474  0.668E-01  0.668E-01
   0.484  0.682E-01  0.682E-01
   0.494  0.697E-01  0.697E-01
   0.504  0.712E-01  0.712E-01
   0.514  0.728E-01  0.728E-01
   0.524  0.744E-01  0.744E-01
   0.534  0.760E-01  0.760E-01
   0.544  0.777E-01  0.777E-01
   0.554  0.794E-01  0.794E-01
   0.564  0.811E-01  0.811E-01
   0.574  0.828E-01  0.828E-01
   0.584  0.846E-01  0.846E-01
   0.594  0.865E-01  0.865E-01
   0.604  0.884E-01  0.884E-01
   0.614  0.903E-01  0.903E-01
   0.624  0.922E-01  0.922E-01
   0.634  0.942E-01  0.942E-01
   0.644  0.962E-01  0.962E-01
   0.654  0.982E-01  0.982E-01
   0.664  0.100E+00  0.100E+00
   0.674  0.102E+00  0.102E+00
   0.684  0.105E+00  0.105E+00
   0.694  0.107E+00  0.107E+00
   0.704  0.109E+00  0.109E+00
   0.714  0.111E+00  0.111E+00
   0.724  0.113E+00  0.113E+00
   0.734  0.116E+00  0.116E+00
   0.744  0.118E+00  0.118E+00
   0.754  0.120E+00  0.120E+00
   0.764  0.123E+00  0.123E+00
   0.774  0.125E+00  0.125E+00
   0.784  0.127E+00  0.127E+00
   0.794  0.130E+00  0.130E+00
   0.804  0.132E+00  0.132E+00
   0.814  0.135E+00  0.135E+00
   0.824  0.137E+00  0.137E+00
   0.834  0.139E+00  0.139E+00
   0.844  0.142E+00  0.142E+00
   0.854  0.144E+00  0.144E+00
   0.864  0.147E+00  0.147E+00
   0.874  0.149E+00  0.149E+00
   0.884  0.152E+00  0.152E+00
   0.894  0.154E+00  0.154E+00
   0.904  0.157E+00  0.157E+00
   0.914  0.159E+00  0.159E+00
   0.924  0.162E+00  0.162E+00
   0.934  0.164E+00  0.164E+00
   0.944  0.166E+00  0.166E+00
   0.954  0.169E+00  0.169E+00
   0.964  0.171E+00  0.171E+00
   0.974  0.174E+00  0.174E+00
   0.984  0.176E+00  0.176E+00
   0.994  0.178E+00  0.178E+00
   1.004  0.181E+00  0.181E+00
   1.014  0.183E+00  0.183E+00
   1.024  0.185E+00  0.185E+00
   1.034  0.187E+00  0.187E+00
   1.044  0.189E+00  0.189E+00
   1.054  0.192E+00  0.192E+00
   1.064  0.194E+00  0.194E+00
   1.074  0.196E+00  0.196E+00
   1.084  0.198E+00  0.198E+00
   1.094  0.200E+00  0.200E+00
   1.104  0.201E+00  0.201E+00
   1.114  0.203E+00  0.203E+00
   1.124  0.205E+00  0.205E+00
   1.134  0.207E+00  0.207E+00
   1.144  0.208E+00  0.208E+00
   1.154  0.210E+00  0.210E+00
   1.164  0.212E+00  0.212E+00
   1.174  0.213E+00  0.213E+00
   1.184  0.214E+00  0.214E+00
   1.194  0.216E+00  0.216E+00
   1.204  0.217E+00  0.217E+00
   1.214  0.218E+00  0.218E+00
   1.224  0.219E+00  0.219E+00
   1.234  0.220E+00  0.220E+00
   1.244  0.221E+00  0.221E+00
   1.254  0.222E+00  0.222E+00
   1.264  0.223E+00  0.223E+00
   1.274  0.223E+00  0.223E+00
   1.284  0.224E+00  0.224E+00
   1.294  0.225E+00  0.225E+00
   1.304  0.225E+00  0.225E+00
   1.314  0.225E+00  0.225E+00
   1.324  0.226E+00  0.226E+00
   1.334  0.226E+00  0.226E+00
   1.344  0.226E+00  0.226E+00
   1.354  0.226E+00  0.226E+00
   1.364  0.226E+00  0.226E+00
   1.374  0.226E+00  0.226E+00
   1.384  0.225E+00  0.225E+00
   1.394  0.225E+00  0.225E+00
   1.404  0.224E+00  0.224E+00
   1.414  0.224E+00  0.224E+00
   1.424  0.223E+00  0.223E+00
   1.434  0.222E+00  0.222E+00
   1.444  0.222E+00  0.222E+00
   1.454  0.221E+00  0.221E+00
   1.464  0.220E+00  0.220E+00
   1.474  0.219E+00  0.219E+00
   1.484  0.218E+00  0.218E+00
   1.494  0.216E+00  0.216E+00
   1.504  0.215E+00  0.215E+00
   1.514  0.214E+00  0.214E+00
   1.524  0.212E+00  0.212E+00
   1.534  0.210E+00  0.210E+00
   1.544  0.209E+00  0.209E+00
   1.554  0.207E+00  0.207E+00
   1.564  0.205E+00  0.205E+00
   1.574  0.203E+00  0.203E+00
   1.584  0.202E+00  0.202E+00
   1.594  0.200E+00  0.200E+00
   1.604  0.197E+00  0.197E+00
   1.614  0.195E+00  0.195E+00
   1.624  0.193E+00  0.193E+00
   1.634  0.191E+00  0.191E+00
   1.644  0.189E+00  0.189E+00
   1.654  0.186E+00  0.186E+00
   1.664  0.184E+00  0.184E+00
   1.674  0.182E+00  0.182E+00
   1.684  0.179E+00  0.179E+00
   1.694  0.177E+00  0.177E+00
   1.704  0.174E+00  0.174E+00
   1.714  0.172E+00  0.172E+00
   1.724  0.169E+00  0.169E+00
   1.734  0.166E+00  0.166E+00
   1.744  0.164E+00  0.164E+00
   1.754  0.161E+00  0.161E+00
   1.764  0.159E+00  0.159E+00
   1.774  0.156E+00  0.156E+00
   1.784  0.153E+00  0.153E+00
   1.794  0.150E+00  0.150E+00
   1.804  0.148E+00  0.148E+00
   1.814  0.145E+00  0.145E+00
   1.824  0.142E+00  0.142E+00
   1.834  0.140E+00  0.140E+00
   1.844  0.137E+00  0.137E+00
   1.854  0.134E+00  0.134E+00
   1.864  0.132E+00  0.132E+00
   1.874  0.129E+00  0.129E+00
   1.884  0.127E+00  0.127E+00
   1.894  0.124E+00  0.124E+00
   1.904  0.122E+00  0.122E+00
   1.914  0.119E+00  0.119E+00
   1.924  0.117E+00  0.117E+00
   1.934  0.114E+00  0.114E+00
   1.944  0.112E+00  0.112E+00
   1.954  0.110E+00  0.110E+00
   1.964  0.107E+00  0.107E+00
   1.974  0.105E+00  0.105E+00
   1.984  0.103E+00  0.103E+00
   1.994  0.101E+00  0.101E+00
   2.004  0.987E-01  0.987E-01
   2.014  0.967E-01  0.967E-01
   2.024  0.947E-01  0.947E-01
   2.034  0.929E-01  0.929E-01
   2.044  0.911E-01  0.911E-01
   2.054  0.893E-01  0.893E-01
   2.064  0.877E-01  0.877E-01
   2.074  0.861E-01  0.861E-01
   2.084  0.845E-01  0.845E-01
   2.094  0.831E-01  0.831E-01
   2.104  0.817E-01  0.817E-01
   2.114  0.805E-01  0.805E-01
   2.124  0.792E-01  0.792E-01
   2.134  0.781E-01  0.781E-01
   2.144  0.771E-01  0.771E-01
   2.154  0.761E-01  0.761E-01
   2.164  0.753E-01  0.753E-01
   2.174  0.745E-01  0.745E-01
   2.184  0.738E-01  0.738E-01
   2.194  0.731E-01  0.731E-01
   2.204  0.726E-01  0.726E-01
   2.214  0.722E-01  0.722E-01
   2.224  0.718E-01  0.718E-01
   2.234  0.715E-01  0.715E-01
   2.244  0.714E-01  0.714E-01
   2.254  0.713E-01  0.713E-01
   2.264  0.713E-01  0.713E-01
   2.274  0.713E-01  0.713E-01
   2.284  0.715E-01  0.715E-01
   2.294  0.718E-01  0.718E-01
   2.304  0.721E-01  0.721E-01
   2.314  0.725E-01  0.725E-01
   2.324  0.730E-01  0.730E-01
   2.334  0.736E-01  0.736E-01
   2.344  0.742E-01  0.742E-01
   2.354  0.750E-01  0.750E-01
   2.364  0.758E-01  0.758E-01
   2.374  0.767E-01  0.767E-01
   2.384  0.777E-01  0.777E-01
   2.394  0.787E-01  0.787E-01
   2.404  0.798E-01  0.798E-01
   2.414  0.810E-01  0.810E-01
   2.424  0.822E-01  0.822E-01
   2.434  0.835E-01  0.835E-01
   2.444  0.849E-01  0.849E-01
   2.454  0.863E-01  0.863E-01
   2.464  0.878E-01  0.878E-01
   2.474  0.893E-01  0.893E-01
   2.484  0.909E-01  0.909E-01
   2.494  0.925E-01  0.925E-01
   2.504  0.942E-01  0.942E-01
   2.514  0.959E-01  0.959E-01
   2.524  0.977E-01  0.977E-01
   2.534  0.995E-01  0.995E-01
   2.544  0.101E+00  0.101E+00
   2.554  0.103E+00  0.103E+00
   2.564  0.105E+00  0.105E+00
   2.574  0.107E+00  0.107E+00
   2.584  0.109E+00  0.109E+00
   2.594  0.111E+00  0.111E+00
   2.604  0.113E+00  0.113E+00
   2.614  0.115E+00  0.115E+00
   2.624  0.117E+00  0.117E+00
   2.634  0.119E+00  0.119E+00
   2.644  0.121E+00  0.121E+00
   2.654  0.123E+00  0.123E+00
   2.664  0.125E+00  0.125E+00
   2.674  0.126E+00  0.126E+00
   2.684  0.128E+00  0.128E+00
   2.694  0.130E+00  0.130E+00
   2.704  0.132E+00  0.132E+00
   2.714  0.134E+00  0.134E+00
   2.724  0.136E+00  0.136E+00
   2.734  0.138E+00  0.138E+00
   2.744  0.139E+00  0.139E+00
   2.754  0.141E+00  0.141E+00
   2.764  0.143E+00  0.143E+00
   2.774  0.145E+00  0.145E+00
   2.784  0.146E+00  0.146E+00
   2.794  0.148E+00  0.148E+00
   2.804  0.149E+00  0.149E+00
   2.814  0.151E+00  0.151E+00
   2.824  0.152E+00  0.152E+00
   2.834  0.153E+00  0.153E+00
   2.844  0.154E+00  0.154E+00
   2.854  0.156E+00  0.156E+00
   2.864  0.157E+00  0.157E+00
   2.874  0.158E+00  0.158E+00
   2.884  0.159E+00  0.159E+00
   2.894  0.159E+00  0.159E+00
   2.904  0.160E+00  0.160E+00
   2.914  0.161E+00  0.161E+00
   2.924  0.162E+00  0.162E+00
   2.934  0.162E+00  0.162E+00
   2.944  0.163E+00  0.163E+00
   2.954  0.163E+00  0.163E+00
   2.964  0.163E+00  0.163E+00
   2.974  0.163E+00  0.163E+00
   2.984  0.163E+00  0.163E+00
   2.994  0.163E+00  0.163E+00
   3.004  0.163E+00  0.163E+00
   3.014  0.163E+00  0.163E+00
   3.024  0.163E+00  0.163E+00
   3.034  0.162E+00  0.162E+00
   3.044  0.162E+00  0.162E+00
   3.054  0.161E+00  0.161E+00
   3.064  0.161E+00  0.161E+00
   3.074  0.160E+00  0.160E+00
   3.084  0.159E+00  0.159E+00
   3.094  0.158E+00  0.158E+00
   3.104  0.157E+00  0.157E+00
   3.114  0.156E+00  0.156E+00
   3.124  0.155E+00  0.155E+00
   3.134  0.154E+00  0.154E+00
   3.144  0.152E+00  0.152E+00
   3.154  0.151E+00  0.151E+00
   3.164  0.150E+00  0.150E+00
   3.174  0.148E+00  0.148E+00
   3.184  0.146E+00  0.146E+00
   3.194  0.145E+00  0.145E+00
   3.204  0.143E+00  0.143E+00
   3.214  0.141E+00  0.141E+00
   3.224  0.139E+00  0.139E+00
   3.234  0.137E+00  0.137E+00
   3.244  0.135E+00  0.135E+00
   3.254  0.133E+00  0.133E+00
   3.264  0.131E+00  0.131E+00
   3.274  0.128E+00  0.128E+00
   3.284  0.126E+00  0.126E+00
   3.294  0.124E+00  0.124E+00
   3.304  0.121E+00  0.121E+00
   3.314  0.119E+00  0.119E+00
   3.324  0.117E+00  0.117E+00
   3.334  0.114E+00  0.114E+00
   3.344  0.112E+00  0.112E+00
   3.354  0.109E+00  0.109E+00
   3.364  0.107E+00  0.107E+00
   3.374  0.104E+00  0.104E+00
   3.384  0.101E+00  0.101E+00
   3.394  0.989E-01  0.989E-01
   3.404  0.963E-01  0.963E-01
   3.414  0.936E-01  0.936E-01
   3.424  0.910E-01  0.910E-01
   3.434  0.884E-01  0.884E-01
   3.444  0.857E-01  0.857E-01
   3.454  0.831E-01  0.831E-01
   3.464  0.805E-01  0.805E-01
   3.474  0.779E-01  0.779E-01
   3.484  0.753E-01  0.753E-01
   3.494  0.727E-01  0.727E-01
   3.504  0.701E-01  0.701E-01
   3.514  0.676E-01  0.676E-01
   3.524  0.651E-01  0.651E-01
   3.534  0.626E-01  0.626E-01
   3.544  0.601E-01  0.601E-01
   3.554  0.577E-01  0.577E-01
   3.564  0.553E-01  0.553E-01
   3.574  0.529E-01  0.529E-01
   3.584  0.505E-01  0.505E-01
   3.594  0.482E-01  0.482E-01
   3.604  0.460E-01  0.460E-01
   3.614  0.437E-01  0.437E-01
   3.624  0.416E-01  0.416E-01
   3.634  0.394E-01  0.394E-01
   3.644  0.373E-01  0.373E-01
   3.654  0.353E-01  0.353E-01
   3.664  0.333E-01  0.333E-01
   3.674  0.313E-01  0.313E-01
   3.684  0.294E-01  0.294E-01
   3.694  0.275E-01  0.275E-01
   3.704  0.257E-01  0.257E-01
   3.714  0.240E-01  0.240E-01
   3.724  0.223E-01  0.223E-01
   3.734  0.206E-01  0.206E-01
   3.744  0.190E-01  0.190E-01
   3.754  0.175E-01  0.175E-01
   3.764  0.160E-01  0.160E-01
   3.774  0.145E-01  0.145E-01
   3.784  0.131E-01  0.131E-01
   3.794  0.118E-01  0.118E-01
   3.804  0.105E-01  0.105E-01
   3.814  0.928E-02  0.928E-02
   3.824  0.809E-02  0.809E-02
   3.834  0.696E-02  0.696E-02
   3.844  0.587E-02  0.587E-02
   3.854  0.484E-02  0.484E-02
   3.864  0.385E-02  0.385E-02
   3.874  0.291E-02  0.291E-02
   3.884  0.202E-02  0.202E-02
   3.894  0.117E-02  0.117E-02
   3.904  0.375E-03  0.375E-03
   3.914 -0.380E-03 -0.380E-03
   3.924 -0.109E-02 -0.109E-02
   3.934 -0.176E-02 -0.176E-02
   3.944 -0.239E-02 -0.239E-02
   3.954 -0.297E-02 -0.297E-02
   3.964 -0.352E-02 -0.352E-02
   3.974 -0.403E-02 -0.403E-02
   3.984 -0.450E-02 -0.450E-02
   3.994 -0.493E-02 -0.493E-02
   4.004 -0.533E-02 -0.533E-02
   4.014 -0.570E-02 -0.570E-02
   4.024 -0.603E-02 -0.603E-02
   4.034 -0.633E-02 -0.633E-02
   4.044 -0.660E-02 -0.660E-02
   4.054 -0.685E-02 -0.685E-02
   4.064 -0.706E-02 -0.706E-02
   4.074 -0.725E-02 -0.725E-02
   4.084 -0.741E-02 -0.741E-02
   4.094 -0.755E-02 -0.755E-02
   4.104 -0.766E-02 -0.766E-02
   4.114 -0.776E-02 -0.776E-02
   4.124 -0.783E-02 -0.783E-02
   4.134 -0.788E-02 -0.788E-02
   4.144 -0.791E-02 -0.791E-02
   4.154 -0.793E-02 -0.793E-02
   4.164 -0.793E-02 -0.793E-02
   4.174 -0.791E-02 -0.791E-02
   4.184 -0.788E-02 -0.788E-02
   4.194 -0.784E-02 -0.784E-02
   4.204 -0.778E-02 -0.778E-02
   4.214 -0.771E-02 -0.771E-02
   4.224 -0.763E-02 -0.763E-02
   4.234 -0.754E-02 -0.754E-02
   4.244 -0.744E-02 -0.744E-02
   4.254 -0.733E-02 -0.733E-02
   4.264 -0.722E-02 -0.722E-02
   4.274 -0.710E-02 -0.710E-02
   4.284 -0.697E-02 -0.697E-02
   4.294 -0.683E-02 -0.683E-02
   4.304 -0.669E-02 -0.669E-02
   4.314 -0.655E-02 -0.655E-02
   4.324 -0.640E-02 -0.640E-02
   4.334 -0.626E-02 -0.626E-02
   4.344 -0.610E-02 -0.610E-02
   4.354 -0.595E-02 -0.595E-02
   4.364 -0.579E-02 -0.579E-02
   4.374 -0.564E-02 -0.564E-02
   4.384 -0.548E-02 -0.548E-02
   4.394 -0.532E-02 -0.532E-02
   4.404 -0.516E-02 -0.516E-02
   4.414 -0.501E-02 -0.501E-02
   4.424 -0.485E-02 -0.485E-02
   4.434 -0.469E-02 -0.469E-02
   4.444 -0.454E-02 -0.454E-02
   4.454 -0.439E-02 -0.439E-02
   4.464 -0.424E-02 -0.424E-02
   4.474 -0.409E-02 -0.409E-02
   4.484 -0.394E-02 -0.394E-02
   4.494 -0.380E-02 -0.380E-02
   4.504 -0.366E-02 -0.366E-02
   4.514 -0.352E-02 -0.352E-02
   4.524 -0.338E-02 -0.338E-02
   4.534 -0.325E-02 -0.325E-02
   4.544 -0.312E-02 -0.312E-02
   4.554 -0.299E-02 -0.299E-02
   4.564 -0.287E-02 -0.287E-02
   4.574 -0.275E-02 -0.275E-02
   4.584 -0.263E-02 -0.263E-02
   4.594 -0.252E-02 -0.252E-02
   4.604 -0.241E-02 -0.241E-02
   4.614 -0.230E-02 -0.230E-02
   4.624 -0.220E-02 -0.220E-02
   4.634 -0.210E-02 -0.210E-02
   4.644 -0.200E-02 -0.200E-02
   4.654 -0.191E-02 -0.191E-02
   4.664 -0.182E-02 -0.182E-02
   4.674 -0.173E-02 -0.173E-02
   4.684 -0.165E-02 -0.165E-02
   4.694 -0.157E-02 -0.157E-02
   4.704 -0.149E-02 -0.149E-02
   4.714 -0.142E-02 -0.142E-02
   4.724 -0.134E-02 -0.134E-02
   4.734 -0.128E-02 -0.128E-02
   4.744 -0.121E-02 -0.121E-02
   4.754 -0.115E-02 -0.115E-02
   4.764 -0.109E-02 -0.109E-02
   4.774 -0.103E-02 -0.103E-02
   4.784 -0.972E-03 -0.972E-03
   4.794 -0.919E-03 -0.919E-03
   4.804 -0.868E-03 -0.868E-03
   4.814 -0.820E-03 -0.820E-03
   4.824 -0.774E-03 -0.774E-03
   4.834 -0.730E-03 -0.730E-03
   4.844 -0.689E-03 -0.689E-03
   4.854 -0.649E-03 -0.649E-03
   4.864 -0.611E-03 -0.611E-03
   4.874 -0.575E-03 -0.575E-03
   4.884 -0.541E-03 -0.541E-03
   4.894 -0.509E-03 -0.509E-03
   4.904 -0.479E-03 -0.479E-03
   4.914 -0.449E-03 -0.449E-03
   4.924 -0.422E-03 -0.422E-03
   4.934 -0.396E-03 -0.396E-03
   4.944 -0.371E-03 -0.371E-03
   4.954 -0.348E-03 -0.348E-03
   4.964 -0.326E-03 -0.326E-03
   4.974 -0.305E-03 -0.305E-03
   4.984 -0.286E-03 -0.286E-03
   4.994 -0.267E-03 -0.267E-03
   5.004 -0.250E-03 -0.250E-03
   5.014 -0.234E-03 -0.234E-03
   5.024 -0.218E-03 -0.218E-03
   5.034 -0.204E-03 -0.204E-03
   5.044 -0.190E-03 -0.190E-03
   5.054 -0.177E-03 -0.177E-03
   5.064 -0.165E-03 -0.165E-03
   5.074 -0.154E-03 -0.154E-03
   5.084 -0.143E-03 -0.143E-03
   5.094 -0.133E-03 -0.133E-03
   5.104 -0.124E-03 -0.124E-03
   5.114 -0.115E-03 -0.115E-03
   5.124 -0.107E-03 -0.107E-03
   5.134 -0.995E-04 -0.995E-04
   5.144 -0.923E-04 -0.923E-04
   5.154 -0.857E-04 -0.857E-04
   5.164 -0.794E-04 -0.794E-04
   5.174 -0.736E-04 -0.736E-04
   5.184 -0.682E-04 -0.682E-04
   5.194 -0.632E-04 -0.632E-04
   5.204 -0.585E-04 -0.585E-04
   5.214 -0.541E-04 -0.541E-04
   5.224 -0.500E-04 -0.500E-04
   5.234 -0.462E-04 -0.462E-04
   5.244 -0.427E-04 -0.427E-04
   5.254 -0.394E-04 -0.394E-04
   5.264 -0.364E-04 -0.364E-04
   5.274 -0.336E-04 -0.336E-04
   5.284 -0.309E-04 -0.309E-04
   5.294 -0.285E-04 -0.285E-04
