# E (eV)   ldos(E)   pdos(E)   
 -27.116 -0.143E-07 -0.143E-07
 -27.106 -0.154E-07 -0.154E-07
 -27.096 -0.167E-07 -0.167E-07
 -27.086 -0.180E-07 -0.180E-07
 -27.076 -0.194E-07 -0.194E-07
 -27.066 -0.209E-07 -0.209E-07
 -27.056 -0.225E-07 -0.225E-07
 -27.046 -0.242E-07 -0.242E-07
 -27.036 -0.260E-07 -0.260E-07
 -27.026 -0.279E-07 -0.279E-07
 -27.016 -0.300E-07 -0.300E-07
 -27.006 -0.322E-07 -0.322E-07
 -26.996 -0.346E-07 -0.346E-07
 -26.986 -0.371E-07 -0.371E-07
 -26.976 -0.398E-07 -0.398E-07
 -26.966 -0.426E-07 -0.426E-07
 -26.956 -0.457E-07 -0.457E-07
 -26.946 -0.489E-07 -0.489E-07
 -26.936 -0.523E-07 -0.523E-07
 -26.926 -0.559E-07 -0.559E-07
 -26.916 -0.598E-07 -0.598E-07
 -26.906 -0.638E-07 -0.638E-07
 -26.896 -0.681E-07 -0.681E-07
 -26.886 -0.727E-07 -0.727E-07
 -26.876 -0.775E-07 -0.775E-07
 -26.866 -0.826E-07 -0.826E-07
 -26.856 -0.880E-07 -0.880E-07
 -26.846 -0.937E-07 -0.937E-07
 -26.836 -0.997E-07 -0.997E-07
 -26.826 -0.106E-06 -0.106E-06
 -26.816 -0.113E-06 -0.113E-06
 -26.806 -0.120E-06 -0.120E-06
 -26.796 -0.127E-06 -0.127E-06
 -26.786 -0.135E-06 -0.135E-06
 -26.776 -0.143E-06 -0.143E-06
 -26.766 -0.151E-06 -0.151E-06
 -26.756 -0.160E-06 -0.160E-06
 -26.746 -0.170E-06 -0.170E-06
 -26.736 -0.180E-06 -0.180E-06
 -26.726 -0.190E-06 -0.190E-06
 -26.716 -0.201E-06 -0.201E-06
 -26.706 -0.212E-06 -0.212E-06
 -26.696 -0.224E-06 -0.224E-06
 -26.686 -0.236E-06 -0.236E-06
 -26.676 -0.249E-06 -0.249E-06
 -26.666 -0.262E-06 -0.262E-06
 -26.656 -0.276E-06 -0.276E-06
 -26.646 -0.290E-06 -0.290E-06
 -26.636 -0.305E-06 -0.305E-06
 -26.626 -0.321E-06 -0.321E-06
 -26.616 -0.337E-06 -0.337E-06
 -26.606 -0.353E-06 -0.353E-06
 -26.596 -0.371E-06 -0.371E-06
 -26.586 -0.388E-06 -0.388E-06
 -26.576 -0.407E-06 -0.407E-06
 -26.566 -0.426E-06 -0.426E-06
 -26.556 -0.445E-06 -0.445E-06
 -26.546 -0.466E-06 -0.466E-06
 -26.536 -0.486E-06 -0.486E-06
 -26.526 -0.508E-06 -0.508E-06
 -26.516 -0.529E-06 -0.529E-06
 -26.506 -0.552E-06 -0.552E-06
 -26.496 -0.575E-06 -0.575E-06
 -26.486 -0.598E-06 -0.598E-06
 -26.476 -0.622E-06 -0.622E-06
 -26.466 -0.647E-06 -0.647E-06
 -26.456 -0.671E-06 -0.671E-06
 -26.446 -0.697E-06 -0.697E-06
 -26.436 -0.722E-06 -0.722E-06
 -26.426 -0.748E-06 -0.748E-06
 -26.416 -0.775E-06 -0.775E-06
 -26.406 -0.801E-06 -0.801E-06
 -26.396 -0.828E-06 -0.828E-06
 -26.386 -0.855E-06 -0.855E-06
 -26.376 -0.882E-06 -0.882E-06
 -26.366 -0.909E-06 -0.909E-06
 -26.356 -0.936E-06 -0.936E-06
 -26.346 -0.963E-06 -0.963E-06
 -26.336 -0.989E-06 -0.989E-06
 -26.326 -0.102E-05 -0.102E-05
 -26.316 -0.104E-05 -0.104E-05
 -26.306 -0.107E-05 -0.107E-05
 -26.296 -0.109E-05 -0.109E-05
 -26.286 -0.112E-05 -0.112E-05
 -26.276 -0.114E-05 -0.114E-05
 -26.266 -0.116E-05 -0.116E-05
 -26.256 -0.119E-05 -0.119E-05
 -26.246 -0.121E-05 -0.121E-05
 -26.236 -0.123E-05 -0.123E-05
 -26.226 -0.124E-05 -0.124E-05
 -26.216 -0.126E-05 -0.126E-05
 -26.206 -0.128E-05 -0.128E-05
 -26.196 -0.129E-05 -0.129E-05
 -26.186 -0.130E-05 -0.130E-05
 -26.176 -0.131E-05 -0.131E-05
 -26.166 -0.132E-05 -0.132E-05
 -26.156 -0.132E-05 -0.132E-05
 -26.146 -0.132E-05 -0.132E-05
 -26.136 -0.132E-05 -0.132E-05
 -26.126 -0.132E-05 -0.132E-05
 -26.116 -0.131E-05 -0.131E-05
 -26.106 -0.130E-05 -0.130E-05
 -26.096 -0.128E-05 -0.128E-05
 -26.086 -0.126E-05 -0.126E-05
 -26.076 -0.124E-05 -0.124E-05
 -26.066 -0.121E-05 -0.121E-05
 -26.056 -0.118E-05 -0.118E-05
 -26.046 -0.115E-05 -0.115E-05
 -26.036 -0.111E-05 -0.111E-05
 -26.026 -0.106E-05 -0.106E-05
 -26.016 -0.101E-05 -0.101E-05
 -26.006 -0.953E-06 -0.953E-06
 -25.996 -0.891E-06 -0.891E-06
 -25.986 -0.823E-06 -0.823E-06
 -25.976 -0.748E-06 -0.748E-06
 -25.966 -0.668E-06 -0.668E-06
 -25.956 -0.580E-06 -0.580E-06
 -25.946 -0.486E-06 -0.486E-06
 -25.936 -0.385E-06 -0.385E-06
 -25.926 -0.277E-06 -0.277E-06
 -25.916 -0.161E-06 -0.161E-06
 -25.906 -0.381E-07 -0.381E-07
 -25.896  0.928E-07  0.928E-07
 -25.886  0.232E-06  0.232E-06
 -25.876  0.378E-06  0.378E-06
 -25.866  0.533E-06  0.533E-06
 -25.856  0.696E-06  0.696E-06
 -25.846  0.868E-06  0.868E-06
 -25.836  0.105E-05  0.105E-05
 -25.826  0.124E-05  0.124E-05
 -25.816  0.144E-05  0.144E-05
 -25.806  0.164E-05  0.164E-05
 -25.796  0.186E-05  0.186E-05
 -25.786  0.208E-05  0.208E-05
 -25.776  0.231E-05  0.231E-05
 -25.766  0.256E-05  0.256E-05
 -25.756  0.281E-05  0.281E-05
 -25.746  0.307E-05  0.307E-05
 -25.736  0.334E-05  0.334E-05
 -25.726  0.362E-05  0.362E-05
 -25.716  0.390E-05  0.390E-05
 -25.706  0.420E-05  0.420E-05
 -25.696  0.450E-05  0.450E-05
 -25.686  0.482E-05  0.482E-05
 -25.676  0.514E-05  0.514E-05
 -25.666  0.547E-05  0.547E-05
 -25.656  0.580E-05  0.580E-05
 -25.646  0.615E-05  0.615E-05
 -25.636  0.650E-05  0.650E-05
 -25.626  0.686E-05  0.686E-05
 -25.616  0.723E-05  0.723E-05
 -25.606  0.760E-05  0.760E-05
 -25.596  0.798E-05  0.798E-05
 -25.586  0.836E-05  0.836E-05
 -25.576  0.875E-05  0.875E-05
 -25.566  0.915E-05  0.915E-05
 -25.556  0.955E-05  0.955E-05
 -25.546  0.996E-05  0.996E-05
 -25.536  0.104E-04  0.104E-04
 -25.526  0.108E-04  0.108E-04
 -25.516  0.112E-04  0.112E-04
 -25.506  0.116E-04  0.116E-04
 -25.496  0.120E-04  0.120E-04
 -25.486  0.125E-04  0.125E-04
 -25.476  0.129E-04  0.129E-04
 -25.466  0.133E-04  0.133E-04
 -25.456  0.137E-04  0.137E-04
 -25.446  0.142E-04  0.142E-04
 -25.436  0.146E-04  0.146E-04
 -25.426  0.150E-04  0.150E-04
 -25.416  0.154E-04  0.154E-04
 -25.406  0.158E-04  0.158E-04
 -25.396  0.162E-04  0.162E-04
 -25.386  0.166E-04  0.166E-04
 -25.376  0.170E-04  0.170E-04
 -25.366  0.174E-04  0.174E-04
 -25.356  0.178E-04  0.178E-04
 -25.346  0.182E-04  0.182E-04
 -25.336  0.186E-04  0.186E-04
 -25.326  0.190E-04  0.190E-04
 -25.316  0.193E-04  0.193E-04
 -25.306  0.197E-04  0.197E-04
 -25.296  0.200E-04  0.200E-04
 -25.286  0.203E-04  0.203E-04
 -25.276  0.207E-04  0.207E-04
 -25.266  0.210E-04  0.210E-04
 -25.256  0.213E-04  0.213E-04
 -25.246  0.216E-04  0.216E-04
 -25.236  0.218E-04  0.218E-04
 -25.226  0.221E-04  0.221E-04
 -25.216  0.223E-04  0.223E-04
 -25.206  0.226E-04  0.226E-04
 -25.196  0.228E-04  0.228E-04
 -25.186  0.230E-04  0.230E-04
 -25.176  0.232E-04  0.232E-04
 -25.166  0.233E-04  0.233E-04
 -25.156  0.235E-04  0.235E-04
 -25.146  0.236E-04  0.236E-04
 -25.136  0.238E-04  0.238E-04
 -25.126  0.239E-04  0.239E-04
 -25.116  0.240E-04  0.240E-04
 -25.106  0.240E-04  0.240E-04
 -25.096  0.241E-04  0.241E-04
 -25.086  0.241E-04  0.241E-04
 -25.076  0.241E-04  0.241E-04
 -25.066  0.241E-04  0.241E-04
 -25.056  0.241E-04  0.241E-04
 -25.046  0.241E-04  0.241E-04
 -25.036  0.240E-04  0.240E-04
 -25.026  0.240E-04  0.240E-04
 -25.016  0.239E-04  0.239E-04
 -25.006  0.238E-04  0.238E-04
 -24.996  0.237E-04  0.237E-04
 -24.986  0.235E-04  0.235E-04
 -24.976  0.234E-04  0.234E-04
 -24.966  0.232E-04  0.232E-04
 -24.956  0.230E-04  0.230E-04
 -24.946  0.228E-04  0.228E-04
 -24.936  0.226E-04  0.226E-04
 -24.926  0.224E-04  0.224E-04
 -24.916  0.222E-04  0.222E-04
 -24.906  0.219E-04  0.219E-04
 -24.896  0.216E-04  0.216E-04
 -24.886  0.213E-04  0.213E-04
 -24.876  0.210E-04  0.210E-04
 -24.866  0.207E-04  0.207E-04
 -24.856  0.204E-04  0.204E-04
 -24.846  0.201E-04  0.201E-04
 -24.836  0.198E-04  0.198E-04
 -24.826  0.194E-04  0.194E-04
 -24.816  0.190E-04  0.190E-04
 -24.806  0.187E-04  0.187E-04
 -24.796  0.183E-04  0.183E-04
 -24.786  0.179E-04  0.179E-04
 -24.776  0.175E-04  0.175E-04
 -24.766  0.171E-04  0.171E-04
 -24.756  0.167E-04  0.167E-04
 -24.746  0.163E-04  0.163E-04
 -24.736  0.159E-04  0.159E-04
 -24.726  0.155E-04  0.155E-04
 -24.716  0.151E-04  0.151E-04
 -24.706  0.147E-04  0.147E-04
 -24.696  0.143E-04  0.143E-04
 -24.686  0.138E-04  0.138E-04
 -24.676  0.134E-04  0.134E-04
 -24.666  0.130E-04  0.130E-04
 -24.656  0.126E-04  0.126E-04
 -24.646  0.121E-04  0.121E-04
 -24.636  0.117E-04  0.117E-04
 -24.626  0.113E-04  0.113E-04
 -24.616  0.109E-04  0.109E-04
 -24.606  0.105E-04  0.105E-04
 -24.596  0.101E-04  0.101E-04
 -24.586  0.965E-05  0.965E-05
 -24.576  0.924E-05  0.924E-05
 -24.566  0.885E-05  0.885E-05
 -24.556  0.845E-05  0.845E-05
 -24.546  0.807E-05  0.807E-05
 -24.536  0.769E-05  0.769E-05
 -24.526  0.731E-05  0.731E-05
 -24.516  0.694E-05  0.694E-05
 -24.506  0.658E-05  0.658E-05
 -24.496  0.623E-05  0.623E-05
 -24.486  0.588E-05  0.588E-05
 -24.476  0.554E-05  0.554E-05
 -24.466  0.521E-05  0.521E-05
 -24.456  0.489E-05  0.489E-05
 -24.446  0.457E-05  0.457E-05
 -24.436  0.427E-05  0.427E-05
 -24.426  0.397E-05  0.397E-05
 -24.416  0.368E-05  0.368E-05
 -24.406  0.340E-05  0.340E-05
 -24.396  0.313E-05  0.313E-05
 -24.386  0.287E-05  0.287E-05
 -24.376  0.261E-05  0.261E-05
 -24.366  0.237E-05  0.237E-05
 -24.356  0.213E-05  0.213E-05
 -24.346  0.191E-05  0.191E-05
 -24.336  0.169E-05  0.169E-05
 -24.326  0.148E-05  0.148E-05
 -24.316  0.128E-05  0.128E-05
 -24.306  0.109E-05  0.109E-05
 -24.296  0.909E-06  0.909E-06
 -24.286  0.735E-06  0.735E-06
 -24.276  0.570E-06  0.570E-06
 -24.266  0.413E-06  0.413E-06
 -24.256  0.264E-06  0.264E-06
 -24.246  0.124E-06  0.124E-06
 -24.236 -0.872E-08 -0.872E-08
 -24.226 -0.134E-06 -0.134E-06
 -24.216 -0.251E-06 -0.251E-06
 -24.206 -0.361E-06 -0.361E-06
 -24.196 -0.464E-06 -0.464E-06
 -24.186 -0.559E-06 -0.559E-06
 -24.176 -0.648E-06 -0.648E-06
 -24.166 -0.730E-06 -0.730E-06
 -24.156 -0.806E-06 -0.806E-06
 -24.146 -0.876E-06 -0.876E-06
 -24.136 -0.940E-06 -0.940E-06
 -24.126 -0.998E-06 -0.998E-06
 -24.116 -0.105E-05 -0.105E-05
 -24.106 -0.110E-05 -0.110E-05
 -24.096 -0.114E-05 -0.114E-05
 -24.086 -0.118E-05 -0.118E-05
 -24.076 -0.121E-05 -0.121E-05
 -24.066 -0.124E-05 -0.124E-05
 -24.056 -0.126E-05 -0.126E-05
 -24.046 -0.128E-05 -0.128E-05
 -24.036 -0.129E-05 -0.129E-05
 -24.026 -0.131E-05 -0.131E-05
 -24.016 -0.131E-05 -0.131E-05
 -24.006 -0.132E-05 -0.132E-05
 -23.996 -0.132E-05 -0.132E-05
 -23.986 -0.132E-05 -0.132E-05
 -23.976 -0.132E-05 -0.132E-05
 -23.966 -0.131E-05 -0.131E-05
 -23.956 -0.130E-05 -0.130E-05
 -23.946 -0.129E-05 -0.129E-05
 -23.936 -0.128E-05 -0.128E-05
 -23.926 -0.126E-05 -0.126E-05
 -23.916 -0.125E-05 -0.125E-05
 -23.906 -0.123E-05 -0.123E-05
 -23.896 -0.121E-05 -0.121E-05
 -23.886 -0.119E-05 -0.119E-05
 -23.876 -0.117E-05 -0.117E-05
 -23.866 -0.115E-05 -0.115E-05
 -23.856 -0.112E-05 -0.112E-05
 -23.846 -0.110E-05 -0.110E-05
 -23.836 -0.107E-05 -0.107E-05
 -23.826 -0.105E-05 -0.105E-05
 -23.816 -0.102E-05 -0.102E-05
 -23.806 -0.995E-06 -0.995E-06
 -23.796 -0.969E-06 -0.969E-06
 -23.786 -0.942E-06 -0.942E-06
 -23.776 -0.915E-06 -0.915E-06
 -23.766 -0.888E-06 -0.888E-06
 -23.756 -0.861E-06 -0.861E-06
 -23.746 -0.834E-06 -0.834E-06
 -23.736 -0.807E-06 -0.807E-06
 -23.726 -0.781E-06 -0.781E-06
 -23.716 -0.754E-06 -0.754E-06
 -23.706 -0.728E-06 -0.728E-06
 -23.696 -0.703E-06 -0.703E-06
 -23.686 -0.677E-06 -0.677E-06
 -23.676 -0.652E-06 -0.652E-06
 -23.666 -0.628E-06 -0.628E-06
 -23.656 -0.604E-06 -0.604E-06
 -23.646 -0.580E-06 -0.580E-06
 -23.636 -0.557E-06 -0.557E-06
 -23.626 -0.535E-06 -0.535E-06
 -23.616 -0.513E-06 -0.513E-06
 -23.606 -0.491E-06 -0.491E-06
 -23.596 -0.470E-06 -0.470E-06
 -23.586 -0.450E-06 -0.450E-06
 -23.576 -0.430E-06 -0.430E-06
 -23.566 -0.411E-06 -0.411E-06
 -23.556 -0.393E-06 -0.393E-06
 -23.546 -0.375E-06 -0.375E-06
 -23.536 -0.357E-06 -0.357E-06
 -23.526 -0.341E-06 -0.341E-06
 -23.516 -0.324E-06 -0.324E-06
 -23.506 -0.309E-06 -0.309E-06
 -23.496 -0.294E-06 -0.294E-06
 -23.486 -0.279E-06 -0.279E-06
 -23.476 -0.265E-06 -0.265E-06
 -23.466 -0.252E-06 -0.252E-06
 -23.456 -0.239E-06 -0.239E-06
 -23.446 -0.226E-06 -0.226E-06
 -23.436 -0.215E-06 -0.215E-06
 -23.426 -0.203E-06 -0.203E-06
 -23.416 -0.192E-06 -0.192E-06
 -23.406 -0.182E-06 -0.182E-06
 -23.396 -0.172E-06 -0.172E-06
 -23.386 -0.163E-06 -0.163E-06
 -23.376 -0.154E-06 -0.154E-06
 -23.366 -0.145E-06 -0.145E-06
 -23.356 -0.137E-06 -0.137E-06
 -23.346 -0.129E-06 -0.129E-06
 -23.336 -0.121E-06 -0.121E-06
 -23.326 -0.114E-06 -0.114E-06
 -23.316 -0.108E-06 -0.108E-06
 -23.306 -0.101E-06 -0.101E-06
 -23.296 -0.951E-07 -0.951E-07
 -23.286 -0.893E-07 -0.893E-07
 -23.276 -0.838E-07 -0.838E-07
 -23.266 -0.787E-07 -0.787E-07
 -23.256 -0.738E-07 -0.738E-07
 -23.246 -0.692E-07 -0.692E-07
 -23.236 -0.648E-07 -0.648E-07
 -23.226 -0.607E-07 -0.607E-07
 -23.216 -0.568E-07 -0.568E-07
 -23.206 -0.531E-07 -0.531E-07
 -23.196 -0.496E-07 -0.496E-07
 -23.186 -0.464E-07 -0.464E-07
 -23.176 -0.433E-07 -0.433E-07
 -23.166 -0.404E-07 -0.404E-07
 -23.156 -0.377E-07 -0.377E-07
 -23.146 -0.352E-07 -0.352E-07
 -23.136 -0.328E-07 -0.328E-07
 -23.126 -0.305E-07 -0.305E-07
 -23.116 -0.284E-07 -0.284E-07
 -23.106 -0.264E-07 -0.264E-07
 -23.096 -0.246E-07 -0.246E-07
 -23.086 -0.228E-07 -0.228E-07
 -23.076 -0.212E-07 -0.212E-07
 -23.066 -0.197E-07 -0.197E-07
 -23.056 -0.183E-07 -0.183E-07
 -23.046 -0.170E-07 -0.170E-07
 -23.036 -0.157E-07 -0.157E-07
 -23.026 -0.146E-07 -0.146E-07
 -23.016 -0.135E-07 -0.135E-07
 -23.006 -0.125E-07 -0.125E-07
 -22.996 -0.115E-07 -0.115E-07
 -22.986 -0.107E-07 -0.107E-07
 -22.976 -0.987E-08 -0.987E-08
 -22.966 -0.912E-08 -0.912E-08
 -22.956 -0.842E-08 -0.842E-08
 -22.946 -0.777E-08 -0.777E-08
 -22.936 -0.717E-08 -0.717E-08
 -22.926 -0.662E-08 -0.662E-08
 -22.916 -0.610E-08 -0.610E-08
 -22.906 -0.562E-08 -0.562E-08
 -22.896 -0.518E-08 -0.518E-08
 -22.886 -0.477E-08 -0.477E-08
 -22.876 -0.439E-08 -0.439E-08
 -22.866 -0.404E-08 -0.404E-08
 -22.856 -0.372E-08 -0.372E-08
 -22.846 -0.342E-08 -0.342E-08
 -22.836 -0.315E-08 -0.315E-08
 -22.826 -0.290E-08 -0.290E-08
 -22.816 -0.267E-08 -0.267E-08
 -22.806 -0.245E-08 -0.245E-08
 -22.796 -0.226E-08 -0.226E-08
 -22.786 -0.208E-08 -0.208E-08
 -22.776 -0.192E-08 -0.192E-08
 -22.766 -0.177E-08 -0.177E-08
 -22.756 -0.164E-08 -0.164E-08
 -22.746 -0.152E-08 -0.152E-08
 -22.736 -0.141E-08 -0.141E-08
 -22.726 -0.131E-08 -0.131E-08
 -22.716 -0.122E-08 -0.122E-08
 -22.706 -0.114E-08 -0.114E-08
 -22.696 -0.107E-08 -0.107E-08
 -22.686 -0.101E-08 -0.101E-08
 -22.676 -0.963E-09 -0.963E-09
 -22.666 -0.920E-09 -0.920E-09
 -22.656 -0.884E-09 -0.884E-09
 -22.646 -0.855E-09 -0.855E-09
 -22.636 -0.834E-09 -0.834E-09
 -22.626 -0.820E-09 -0.820E-09
 -22.616 -0.813E-09 -0.813E-09
 -22.606 -0.812E-09 -0.812E-09
 -22.596 -0.818E-09 -0.818E-09
 -22.586 -0.831E-09 -0.831E-09
 -22.576 -0.851E-09 -0.851E-09
 -22.566 -0.878E-09 -0.878E-09
 -22.556 -0.911E-09 -0.911E-09
 -22.546 -0.952E-09 -0.952E-09
 -22.536 -0.100E-08 -0.100E-08
 -22.526 -0.106E-08 -0.106E-08
 -22.516 -0.112E-08 -0.112E-08
 -22.506 -0.119E-08 -0.119E-08
 -22.496 -0.127E-08 -0.127E-08
 -22.486 -0.136E-08 -0.136E-08
 -22.476 -0.146E-08 -0.146E-08
 -22.466 -0.157E-08 -0.157E-08
 -22.456 -0.168E-08 -0.168E-08
 -22.446 -0.181E-08 -0.181E-08
 -22.436 -0.196E-08 -0.196E-08
 -22.426 -0.211E-08 -0.211E-08
 -22.416 -0.228E-08 -0.228E-08
 -22.406 -0.246E-08 -0.246E-08
 -22.396 -0.265E-08 -0.265E-08
 -22.386 -0.287E-08 -0.287E-08
 -22.376 -0.309E-08 -0.309E-08
 -22.366 -0.334E-08 -0.334E-08
 -22.356 -0.361E-08 -0.361E-08
 -22.346 -0.389E-08 -0.389E-08
 -22.336 -0.420E-08 -0.420E-08
 -22.326 -0.453E-08 -0.453E-08
 -22.316 -0.489E-08 -0.489E-08
 -22.306 -0.527E-08 -0.527E-08
 -22.296 -0.567E-08 -0.567E-08
 -22.286 -0.611E-08 -0.611E-08
 -22.276 -0.658E-08 -0.658E-08
 -22.266 -0.708E-08 -0.708E-08
 -22.256 -0.761E-08 -0.761E-08
 -22.246 -0.818E-08 -0.818E-08
 -22.236 -0.879E-08 -0.879E-08
 -22.226 -0.944E-08 -0.944E-08
 -22.216 -0.101E-07 -0.101E-07
 -22.206 -0.109E-07 -0.109E-07
 -22.196 -0.117E-07 -0.117E-07
 -22.186 -0.125E-07 -0.125E-07
 -22.176 -0.134E-07 -0.134E-07
 -22.166 -0.143E-07 -0.143E-07
 -22.156 -0.153E-07 -0.153E-07
 -22.146 -0.164E-07 -0.164E-07
 -22.136 -0.175E-07 -0.175E-07
 -22.126 -0.187E-07 -0.187E-07
 -22.116 -0.200E-07 -0.200E-07
 -22.106 -0.213E-07 -0.213E-07
 -22.096 -0.227E-07 -0.227E-07
 -22.086 -0.242E-07 -0.242E-07
 -22.076 -0.258E-07 -0.258E-07
 -22.066 -0.275E-07 -0.275E-07
 -22.056 -0.293E-07 -0.293E-07
 -22.046 -0.311E-07 -0.311E-07
 -22.036 -0.331E-07 -0.331E-07
 -22.026 -0.352E-07 -0.352E-07
 -22.016 -0.373E-07 -0.373E-07
 -22.006 -0.396E-07 -0.396E-07
 -21.996 -0.420E-07 -0.420E-07
 -21.986 -0.445E-07 -0.445E-07
 -21.976 -0.472E-07 -0.472E-07
 -21.966 -0.499E-07 -0.499E-07
 -21.956 -0.528E-07 -0.528E-07
 -21.946 -0.559E-07 -0.559E-07
 -21.936 -0.591E-07 -0.591E-07
 -21.926 -0.624E-07 -0.624E-07
 -21.916 -0.658E-07 -0.658E-07
 -21.906 -0.695E-07 -0.695E-07
 -21.896 -0.732E-07 -0.732E-07
 -21.886 -0.772E-07 -0.772E-07
 -21.876 -0.812E-07 -0.812E-07
 -21.866 -0.855E-07 -0.855E-07
 -21.856 -0.899E-07 -0.899E-07
 -21.846 -0.945E-07 -0.945E-07
 -21.836 -0.993E-07 -0.993E-07
 -21.826 -0.104E-06 -0.104E-06
 -21.816 -0.109E-06 -0.109E-06
 -21.806 -0.115E-06 -0.115E-06
 -21.796 -0.120E-06 -0.120E-06
 -21.786 -0.126E-06 -0.126E-06
 -21.776 -0.131E-06 -0.131E-06
 -21.766 -0.137E-06 -0.137E-06
 -21.756 -0.144E-06 -0.144E-06
 -21.746 -0.150E-06 -0.150E-06
 -21.736 -0.156E-06 -0.156E-06
 -21.726 -0.163E-06 -0.163E-06
 -21.716 -0.170E-06 -0.170E-06
 -21.706 -0.177E-06 -0.177E-06
 -21.696 -0.184E-06 -0.184E-06
 -21.686 -0.191E-06 -0.191E-06
 -21.676 -0.199E-06 -0.199E-06
 -21.666 -0.206E-06 -0.206E-06
 -21.656 -0.214E-06 -0.214E-06
 -21.646 -0.222E-06 -0.222E-06
 -21.636 -0.229E-06 -0.229E-06
 -21.626 -0.237E-06 -0.237E-06
 -21.616 -0.245E-06 -0.245E-06
 -21.606 -0.253E-06 -0.253E-06
 -21.596 -0.261E-06 -0.261E-06
 -21.586 -0.270E-06 -0.270E-06
 -21.576 -0.278E-06 -0.278E-06
 -21.566 -0.286E-06 -0.286E-06
 -21.556 -0.294E-06 -0.294E-06
 -21.546 -0.302E-06 -0.302E-06
 -21.536 -0.309E-06 -0.309E-06
 -21.526 -0.317E-06 -0.317E-06
 -21.516 -0.325E-06 -0.325E-06
 -21.506 -0.332E-06 -0.332E-06
 -21.496 -0.339E-06 -0.339E-06
 -21.486 -0.346E-06 -0.346E-06
 -21.476 -0.353E-06 -0.353E-06
 -21.466 -0.359E-06 -0.359E-06
 -21.456 -0.365E-06 -0.365E-06
 -21.446 -0.371E-06 -0.371E-06
 -21.436 -0.376E-06 -0.376E-06
 -21.426 -0.381E-06 -0.381E-06
 -21.416 -0.385E-06 -0.385E-06
 -21.406 -0.388E-06 -0.388E-06
 -21.396 -0.391E-06 -0.391E-06
 -21.386 -0.393E-06 -0.393E-06
 -21.376 -0.395E-06 -0.395E-06
 -21.366 -0.396E-06 -0.396E-06
 -21.356 -0.396E-06 -0.396E-06
 -21.346 -0.395E-06 -0.395E-06
 -21.336 -0.393E-06 -0.393E-06
 -21.326 -0.390E-06 -0.390E-06
 -21.316 -0.386E-06 -0.386E-06
 -21.306 -0.381E-06 -0.381E-06
 -21.296 -0.375E-06 -0.375E-06
 -21.286 -0.367E-06 -0.367E-06
 -21.276 -0.358E-06 -0.358E-06
 -21.266 -0.348E-06 -0.348E-06
 -21.256 -0.336E-06 -0.336E-06
 -21.246 -0.323E-06 -0.323E-06
 -21.236 -0.309E-06 -0.309E-06
 -21.226 -0.292E-06 -0.292E-06
 -21.216 -0.274E-06 -0.274E-06
 -21.206 -0.255E-06 -0.255E-06
 -21.196 -0.233E-06 -0.233E-06
 -21.186 -0.210E-06 -0.210E-06
 -21.176 -0.184E-06 -0.184E-06
 -21.166 -0.157E-06 -0.157E-06
 -21.156 -0.127E-06 -0.127E-06
 -21.146 -0.960E-07 -0.960E-07
 -21.136 -0.623E-07 -0.623E-07
 -21.126 -0.263E-07 -0.263E-07
 -21.116  0.119E-07  0.119E-07
 -21.106  0.524E-07  0.524E-07
 -21.096  0.953E-07  0.953E-07
 -21.086  0.141E-06  0.141E-06
 -21.076  0.188E-06  0.188E-06
 -21.066  0.239E-06  0.239E-06
 -21.056  0.291E-06  0.291E-06
 -21.046  0.347E-06  0.347E-06
 -21.036  0.405E-06  0.405E-06
 -21.026  0.465E-06  0.465E-06
 -21.016  0.528E-06  0.528E-06
 -21.006  0.594E-06  0.594E-06
 -20.996  0.663E-06  0.663E-06
 -20.986  0.734E-06  0.734E-06
 -20.976  0.807E-06  0.807E-06
 -20.966  0.884E-06  0.884E-06
 -20.956  0.963E-06  0.963E-06
 -20.946  0.104E-05  0.104E-05
 -20.936  0.113E-05  0.113E-05
 -20.926  0.122E-05  0.122E-05
 -20.916  0.130E-05  0.130E-05
 -20.906  0.140E-05  0.140E-05
 -20.896  0.149E-05  0.149E-05
 -20.886  0.159E-05  0.159E-05
 -20.876  0.169E-05  0.169E-05
 -20.866  0.179E-05  0.179E-05
 -20.856  0.189E-05  0.189E-05
 -20.846  0.200E-05  0.200E-05
 -20.836  0.210E-05  0.210E-05
 -20.826  0.221E-05  0.221E-05
 -20.816  0.232E-05  0.232E-05
 -20.806  0.244E-05  0.244E-05
 -20.796  0.255E-05  0.255E-05
 -20.786  0.267E-05  0.267E-05
 -20.776  0.279E-05  0.279E-05
 -20.766  0.291E-05  0.291E-05
 -20.756  0.303E-05  0.303E-05
 -20.746  0.315E-05  0.315E-05
 -20.736  0.327E-05  0.327E-05
 -20.726  0.339E-05  0.339E-05
 -20.716  0.351E-05  0.351E-05
 -20.706  0.364E-05  0.364E-05
 -20.696  0.376E-05  0.376E-05
 -20.686  0.388E-05  0.388E-05
 -20.676  0.401E-05  0.401E-05
 -20.666  0.413E-05  0.413E-05
 -20.656  0.425E-05  0.425E-05
 -20.646  0.438E-05  0.438E-05
 -20.636  0.450E-05  0.450E-05
 -20.626  0.462E-05  0.462E-05
 -20.616  0.474E-05  0.474E-05
 -20.606  0.485E-05  0.485E-05
 -20.596  0.497E-05  0.497E-05
 -20.586  0.508E-05  0.508E-05
 -20.576  0.520E-05  0.520E-05
 -20.566  0.531E-05  0.531E-05
 -20.556  0.541E-05  0.541E-05
 -20.546  0.552E-05  0.552E-05
 -20.536  0.562E-05  0.562E-05
 -20.526  0.572E-05  0.572E-05
 -20.516  0.582E-05  0.582E-05
 -20.506  0.591E-05  0.591E-05
 -20.496  0.600E-05  0.600E-05
 -20.486  0.609E-05  0.609E-05
 -20.476  0.617E-05  0.617E-05
 -20.466  0.625E-05  0.625E-05
 -20.456  0.632E-05  0.632E-05
 -20.446  0.639E-05  0.639E-05
 -20.436  0.646E-05  0.646E-05
 -20.426  0.652E-05  0.652E-05
 -20.416  0.658E-05  0.658E-05
 -20.406  0.663E-05  0.663E-05
 -20.396  0.668E-05  0.668E-05
 -20.386  0.673E-05  0.673E-05
 -20.376  0.676E-05  0.676E-05
 -20.366  0.680E-05  0.680E-05
 -20.356  0.683E-05  0.683E-05
 -20.346  0.685E-05  0.685E-05
 -20.336  0.687E-05  0.687E-05
 -20.326  0.688E-05  0.688E-05
 -20.316  0.689E-05  0.689E-05
 -20.306  0.689E-05  0.689E-05
 -20.296  0.689E-05  0.689E-05
 -20.286  0.688E-05  0.688E-05
 -20.276  0.687E-05  0.687E-05
 -20.266  0.685E-05  0.685E-05
 -20.256  0.683E-05  0.683E-05
 -20.246  0.680E-05  0.680E-05
 -20.236  0.677E-05  0.677E-05
 -20.226  0.673E-05  0.673E-05
 -20.216  0.669E-05  0.669E-05
 -20.206  0.664E-05  0.664E-05
 -20.196  0.659E-05  0.659E-05
 -20.186  0.653E-05  0.653E-05
 -20.176  0.647E-05  0.647E-05
 -20.166  0.641E-05  0.641E-05
 -20.156  0.634E-05  0.634E-05
 -20.146  0.626E-05  0.626E-05
 -20.136  0.619E-05  0.619E-05
 -20.126  0.611E-05  0.611E-05
 -20.116  0.602E-05  0.602E-05
 -20.106  0.594E-05  0.594E-05
 -20.096  0.585E-05  0.585E-05
 -20.086  0.576E-05  0.576E-05
 -20.076  0.566E-05  0.566E-05
 -20.066  0.557E-05  0.557E-05
 -20.056  0.547E-05  0.547E-05
 -20.046  0.537E-05  0.537E-05
 -20.036  0.526E-05  0.526E-05
 -20.026  0.516E-05  0.516E-05
 -20.016  0.506E-05  0.506E-05
 -20.006  0.495E-05  0.495E-05
 -19.996  0.485E-05  0.485E-05
 -19.986  0.474E-05  0.474E-05
 -19.976  0.463E-05  0.463E-05
 -19.966  0.453E-05  0.453E-05
 -19.956  0.442E-05  0.442E-05
 -19.946  0.432E-05  0.432E-05
 -19.936  0.421E-05  0.421E-05
 -19.926  0.411E-05  0.411E-05
 -19.916  0.401E-05  0.401E-05
 -19.906  0.391E-05  0.391E-05
 -19.896  0.382E-05  0.382E-05
 -19.886  0.372E-05  0.372E-05
 -19.876  0.363E-05  0.363E-05
 -19.866  0.354E-05  0.354E-05
 -19.856  0.345E-05  0.345E-05
 -19.846  0.337E-05  0.337E-05
 -19.836  0.329E-05  0.329E-05
 -19.826  0.322E-05  0.322E-05
 -19.816  0.314E-05  0.314E-05
 -19.806  0.308E-05  0.308E-05
 -19.796  0.301E-05  0.301E-05
 -19.786  0.295E-05  0.295E-05
 -19.776  0.290E-05  0.290E-05
 -19.766  0.285E-05  0.285E-05
 -19.756  0.281E-05  0.281E-05
 -19.746  0.277E-05  0.277E-05
 -19.736  0.273E-05  0.273E-05
 -19.726  0.270E-05  0.270E-05
 -19.716  0.268E-05  0.268E-05
 -19.706  0.266E-05  0.266E-05
 -19.696  0.265E-05  0.265E-05
 -19.686  0.264E-05  0.264E-05
 -19.676  0.264E-05  0.264E-05
 -19.666  0.264E-05  0.264E-05
 -19.656  0.265E-05  0.265E-05
 -19.646  0.267E-05  0.267E-05
 -19.636  0.269E-05  0.269E-05
 -19.626  0.272E-05  0.272E-05
 -19.616  0.275E-05  0.275E-05
 -19.606  0.279E-05  0.279E-05
 -19.596  0.284E-05  0.284E-05
 -19.586  0.289E-05  0.289E-05
 -19.576  0.294E-05  0.294E-05
 -19.566  0.300E-05  0.300E-05
 -19.556  0.307E-05  0.307E-05
 -19.546  0.314E-05  0.314E-05
 -19.536  0.322E-05  0.322E-05
 -19.526  0.330E-05  0.330E-05
 -19.516  0.338E-05  0.338E-05
 -19.506  0.348E-05  0.348E-05
 -19.496  0.357E-05  0.357E-05
 -19.486  0.367E-05  0.367E-05
 -19.476  0.377E-05  0.377E-05
 -19.466  0.388E-05  0.388E-05
 -19.456  0.399E-05  0.399E-05
 -19.446  0.411E-05  0.411E-05
 -19.436  0.423E-05  0.423E-05
 -19.426  0.435E-05  0.435E-05
 -19.416  0.447E-05  0.447E-05
 -19.406  0.460E-05  0.460E-05
 -19.396  0.472E-05  0.472E-05
 -19.386  0.485E-05  0.485E-05
 -19.376  0.499E-05  0.499E-05
 -19.366  0.512E-05  0.512E-05
 -19.356  0.525E-05  0.525E-05
 -19.346  0.539E-05  0.539E-05
 -19.336  0.552E-05  0.552E-05
 -19.326  0.566E-05  0.566E-05
 -19.316  0.580E-05  0.580E-05
 -19.306  0.593E-05  0.593E-05
 -19.296  0.607E-05  0.607E-05
 -19.286  0.620E-05  0.620E-05
 -19.276  0.633E-05  0.633E-05
 -19.266  0.646E-05  0.646E-05
 -19.256  0.659E-05  0.659E-05
 -19.246  0.672E-05  0.672E-05
 -19.236  0.685E-05  0.685E-05
 -19.226  0.697E-05  0.697E-05
 -19.216  0.709E-05  0.709E-05
 -19.206  0.721E-05  0.721E-05
 -19.196  0.732E-05  0.732E-05
 -19.186  0.743E-05  0.743E-05
 -19.176  0.753E-05  0.753E-05
 -19.166  0.764E-05  0.764E-05
 -19.156  0.773E-05  0.773E-05
 -19.146  0.782E-05  0.782E-05
 -19.136  0.791E-05  0.791E-05
 -19.126  0.800E-05  0.800E-05
 -19.116  0.807E-05  0.807E-05
 -19.106  0.815E-05  0.815E-05
 -19.096  0.821E-05  0.821E-05
 -19.086  0.828E-05  0.828E-05
 -19.076  0.833E-05  0.833E-05
 -19.066  0.838E-05  0.838E-05
 -19.056  0.843E-05  0.843E-05
 -19.046  0.846E-05  0.846E-05
 -19.036  0.849E-05  0.849E-05
 -19.026  0.852E-05  0.852E-05
 -19.016  0.854E-05  0.854E-05
 -19.006  0.855E-05  0.855E-05
 -18.996  0.856E-05  0.856E-05
 -18.986  0.856E-05  0.856E-05
 -18.976  0.855E-05  0.855E-05
 -18.966  0.854E-05  0.854E-05
 -18.956  0.852E-05  0.852E-05
 -18.946  0.849E-05  0.849E-05
 -18.936  0.846E-05  0.846E-05
 -18.926  0.842E-05  0.842E-05
 -18.916  0.838E-05  0.838E-05
 -18.906  0.833E-05  0.833E-05
 -18.896  0.827E-05  0.827E-05
 -18.886  0.821E-05  0.821E-05
 -18.876  0.814E-05  0.814E-05
 -18.866  0.806E-05  0.806E-05
 -18.856  0.798E-05  0.798E-05
 -18.846  0.789E-05  0.789E-05
 -18.836  0.780E-05  0.780E-05
 -18.826  0.771E-05  0.771E-05
 -18.816  0.760E-05  0.760E-05
 -18.806  0.750E-05  0.750E-05
 -18.796  0.738E-05  0.738E-05
 -18.786  0.727E-05  0.727E-05
 -18.776  0.715E-05  0.715E-05
 -18.766  0.702E-05  0.702E-05
 -18.756  0.689E-05  0.689E-05
 -18.746  0.676E-05  0.676E-05
 -18.736  0.662E-05  0.662E-05
 -18.726  0.648E-05  0.648E-05
 -18.716  0.634E-05  0.634E-05
 -18.706  0.619E-05  0.619E-05
 -18.696  0.604E-05  0.604E-05
 -18.686  0.589E-05  0.589E-05
 -18.676  0.573E-05  0.573E-05
 -18.666  0.558E-05  0.558E-05
 -18.656  0.542E-05  0.542E-05
 -18.646  0.526E-05  0.526E-05
 -18.636  0.509E-05  0.509E-05
 -18.626  0.493E-05  0.493E-05
 -18.616  0.476E-05  0.476E-05
 -18.606  0.460E-05  0.460E-05
 -18.596  0.443E-05  0.443E-05
 -18.586  0.426E-05  0.426E-05
 -18.576  0.409E-05  0.409E-05
 -18.566  0.392E-05  0.392E-05
 -18.556  0.376E-05  0.376E-05
 -18.546  0.359E-05  0.359E-05
 -18.536  0.342E-05  0.342E-05
 -18.526  0.325E-05  0.325E-05
 -18.516  0.308E-05  0.308E-05
 -18.506  0.291E-05  0.291E-05
 -18.496  0.275E-05  0.275E-05
 -18.486  0.258E-05  0.258E-05
 -18.476  0.241E-05  0.241E-05
 -18.466  0.225E-05  0.225E-05
 -18.456  0.209E-05  0.209E-05
 -18.446  0.193E-05  0.193E-05
 -18.436  0.177E-05  0.177E-05
 -18.426  0.161E-05  0.161E-05
 -18.416  0.145E-05  0.145E-05
 -18.406  0.129E-05  0.129E-05
 -18.396  0.114E-05  0.114E-05
 -18.386  0.988E-06  0.988E-06
 -18.376  0.838E-06  0.838E-06
 -18.366  0.689E-06  0.689E-06
 -18.356  0.543E-06  0.543E-06
 -18.346  0.398E-06  0.398E-06
 -18.336  0.256E-06  0.256E-06
 -18.326  0.116E-06  0.116E-06
 -18.316 -0.223E-07 -0.223E-07
 -18.306 -0.158E-06 -0.158E-06
 -18.296 -0.292E-06 -0.292E-06
 -18.286 -0.423E-06 -0.423E-06
 -18.276 -0.552E-06 -0.552E-06
 -18.266 -0.679E-06 -0.679E-06
 -18.256 -0.804E-06 -0.804E-06
 -18.246 -0.926E-06 -0.926E-06
 -18.236 -0.105E-05 -0.105E-05
 -18.226 -0.116E-05 -0.116E-05
 -18.216 -0.128E-05 -0.128E-05
 -18.206 -0.139E-05 -0.139E-05
 -18.196 -0.150E-05 -0.150E-05
 -18.186 -0.160E-05 -0.160E-05
 -18.176 -0.171E-05 -0.171E-05
 -18.166 -0.181E-05 -0.181E-05
 -18.156 -0.191E-05 -0.191E-05
 -18.146 -0.200E-05 -0.200E-05
 -18.136 -0.209E-05 -0.209E-05
 -18.126 -0.218E-05 -0.218E-05
 -18.116 -0.227E-05 -0.227E-05
 -18.106 -0.235E-05 -0.235E-05
 -18.096 -0.243E-05 -0.243E-05
 -18.086 -0.250E-05 -0.250E-05
 -18.076 -0.258E-05 -0.258E-05
 -18.066 -0.264E-05 -0.264E-05
 -18.056 -0.271E-05 -0.271E-05
 -18.046 -0.276E-05 -0.276E-05
 -18.036 -0.282E-05 -0.282E-05
 -18.026 -0.287E-05 -0.287E-05
 -18.016 -0.291E-05 -0.291E-05
 -18.006 -0.295E-05 -0.295E-05
 -17.996 -0.299E-05 -0.299E-05
 -17.986 -0.302E-05 -0.302E-05
 -17.976 -0.304E-05 -0.304E-05
 -17.966 -0.306E-05 -0.306E-05
 -17.956 -0.307E-05 -0.307E-05
 -17.946 -0.308E-05 -0.308E-05
 -17.936 -0.307E-05 -0.307E-05
 -17.926 -0.307E-05 -0.307E-05
 -17.916 -0.305E-05 -0.305E-05
 -17.906 -0.302E-05 -0.302E-05
 -17.896 -0.299E-05 -0.299E-05
 -17.886 -0.295E-05 -0.295E-05
 -17.876 -0.290E-05 -0.290E-05
 -17.866 -0.284E-05 -0.284E-05
 -17.856 -0.277E-05 -0.277E-05
 -17.846 -0.270E-05 -0.270E-05
 -17.836 -0.261E-05 -0.261E-05
 -17.826 -0.251E-05 -0.251E-05
 -17.816 -0.240E-05 -0.240E-05
 -17.806 -0.228E-05 -0.228E-05
 -17.796 -0.215E-05 -0.215E-05
 -17.786 -0.200E-05 -0.200E-05
 -17.776 -0.184E-05 -0.184E-05
 -17.766 -0.167E-05 -0.167E-05
 -17.756 -0.149E-05 -0.149E-05
 -17.746 -0.130E-05 -0.130E-05
 -17.736 -0.108E-05 -0.108E-05
 -17.726 -0.860E-06 -0.860E-06
 -17.716 -0.621E-06 -0.621E-06
 -17.706 -0.366E-06 -0.366E-06
 -17.696 -0.970E-07 -0.970E-07
 -17.686  0.188E-06  0.188E-06
 -17.676  0.488E-06  0.488E-06
 -17.666  0.805E-06  0.805E-06
 -17.656  0.114E-05  0.114E-05
 -17.646  0.149E-05  0.149E-05
 -17.636  0.185E-05  0.185E-05
 -17.626  0.224E-05  0.224E-05
 -17.616  0.264E-05  0.264E-05
 -17.606  0.305E-05  0.305E-05
 -17.596  0.349E-05  0.349E-05
 -17.586  0.394E-05  0.394E-05
 -17.576  0.441E-05  0.441E-05
 -17.566  0.490E-05  0.490E-05
 -17.556  0.540E-05  0.540E-05
 -17.546  0.592E-05  0.592E-05
 -17.536  0.646E-05  0.646E-05
 -17.526  0.702E-05  0.702E-05
 -17.516  0.759E-05  0.759E-05
 -17.506  0.818E-05  0.818E-05
 -17.496  0.879E-05  0.879E-05
 -17.486  0.941E-05  0.941E-05
 -17.476  0.100E-04  0.100E-04
 -17.466  0.107E-04  0.107E-04
 -17.456  0.114E-04  0.114E-04
 -17.446  0.121E-04  0.121E-04
 -17.436  0.128E-04  0.128E-04
 -17.426  0.135E-04  0.135E-04
 -17.416  0.142E-04  0.142E-04
 -17.406  0.149E-04  0.149E-04
 -17.396  0.157E-04  0.157E-04
 -17.386  0.165E-04  0.165E-04
 -17.376  0.172E-04  0.172E-04
 -17.366  0.180E-04  0.180E-04
 -17.356  0.188E-04  0.188E-04
 -17.346  0.196E-04  0.196E-04
 -17.336  0.204E-04  0.204E-04
 -17.326  0.212E-04  0.212E-04
 -17.316  0.220E-04  0.220E-04
 -17.306  0.229E-04  0.229E-04
 -17.296  0.237E-04  0.237E-04
 -17.286  0.245E-04  0.245E-04
 -17.276  0.254E-04  0.254E-04
 -17.266  0.262E-04  0.262E-04
 -17.256  0.270E-04  0.270E-04
 -17.246  0.279E-04  0.279E-04
 -17.236  0.287E-04  0.287E-04
 -17.226  0.295E-04  0.295E-04
 -17.216  0.303E-04  0.303E-04
 -17.206  0.312E-04  0.312E-04
 -17.196  0.320E-04  0.320E-04
 -17.186  0.328E-04  0.328E-04
 -17.176  0.336E-04  0.336E-04
 -17.166  0.343E-04  0.343E-04
 -17.156  0.351E-04  0.351E-04
 -17.146  0.359E-04  0.359E-04
 -17.136  0.366E-04  0.366E-04
 -17.126  0.373E-04  0.373E-04
 -17.116  0.380E-04  0.380E-04
 -17.106  0.387E-04  0.387E-04
 -17.096  0.394E-04  0.394E-04
 -17.086  0.400E-04  0.400E-04
 -17.076  0.406E-04  0.406E-04
 -17.066  0.413E-04  0.413E-04
 -17.056  0.418E-04  0.418E-04
 -17.046  0.424E-04  0.424E-04
 -17.036  0.429E-04  0.429E-04
 -17.026  0.434E-04  0.434E-04
 -17.016  0.439E-04  0.439E-04
 -17.006  0.444E-04  0.444E-04
 -16.996  0.448E-04  0.448E-04
 -16.986  0.452E-04  0.452E-04
 -16.976  0.455E-04  0.455E-04
 -16.966  0.459E-04  0.459E-04
 -16.956  0.462E-04  0.462E-04
 -16.946  0.464E-04  0.464E-04
 -16.936  0.467E-04  0.467E-04
 -16.926  0.469E-04  0.469E-04
 -16.916  0.470E-04  0.470E-04
 -16.906  0.472E-04  0.472E-04
 -16.896  0.473E-04  0.473E-04
 -16.886  0.474E-04  0.474E-04
 -16.876  0.474E-04  0.474E-04
 -16.866  0.474E-04  0.474E-04
 -16.856  0.474E-04  0.474E-04
 -16.846  0.473E-04  0.473E-04
 -16.836  0.472E-04  0.472E-04
 -16.826  0.471E-04  0.471E-04
 -16.816  0.469E-04  0.469E-04
 -16.806  0.467E-04  0.467E-04
 -16.796  0.465E-04  0.465E-04
 -16.786  0.462E-04  0.462E-04
 -16.776  0.459E-04  0.459E-04
 -16.766  0.456E-04  0.456E-04
 -16.756  0.452E-04  0.452E-04
 -16.746  0.448E-04  0.448E-04
 -16.736  0.444E-04  0.444E-04
 -16.726  0.440E-04  0.440E-04
 -16.716  0.435E-04  0.435E-04
 -16.706  0.430E-04  0.430E-04
 -16.696  0.425E-04  0.425E-04
 -16.686  0.419E-04  0.419E-04
 -16.676  0.413E-04  0.413E-04
 -16.666  0.408E-04  0.408E-04
 -16.656  0.401E-04  0.401E-04
 -16.646  0.395E-04  0.395E-04
 -16.636  0.388E-04  0.388E-04
 -16.626  0.382E-04  0.382E-04
 -16.616  0.375E-04  0.375E-04
 -16.606  0.367E-04  0.367E-04
 -16.596  0.360E-04  0.360E-04
 -16.586  0.353E-04  0.353E-04
 -16.576  0.345E-04  0.345E-04
 -16.566  0.337E-04  0.337E-04
 -16.556  0.330E-04  0.330E-04
 -16.546  0.322E-04  0.322E-04
 -16.536  0.314E-04  0.314E-04
 -16.526  0.306E-04  0.306E-04
 -16.516  0.298E-04  0.298E-04
 -16.506  0.290E-04  0.290E-04
 -16.496  0.281E-04  0.281E-04
 -16.486  0.273E-04  0.273E-04
 -16.476  0.265E-04  0.265E-04
 -16.466  0.257E-04  0.257E-04
 -16.456  0.249E-04  0.249E-04
 -16.446  0.240E-04  0.240E-04
 -16.436  0.232E-04  0.232E-04
 -16.426  0.224E-04  0.224E-04
 -16.416  0.216E-04  0.216E-04
 -16.406  0.208E-04  0.208E-04
 -16.396  0.200E-04  0.200E-04
 -16.386  0.192E-04  0.192E-04
 -16.376  0.184E-04  0.184E-04
 -16.366  0.177E-04  0.177E-04
 -16.356  0.169E-04  0.169E-04
 -16.346  0.162E-04  0.162E-04
 -16.336  0.154E-04  0.154E-04
 -16.326  0.147E-04  0.147E-04
 -16.316  0.140E-04  0.140E-04
 -16.306  0.133E-04  0.133E-04
 -16.296  0.126E-04  0.126E-04
 -16.286  0.119E-04  0.119E-04
 -16.276  0.113E-04  0.113E-04
 -16.266  0.106E-04  0.106E-04
 -16.256  0.100E-04  0.100E-04
 -16.246  0.940E-05  0.940E-05
 -16.236  0.881E-05  0.881E-05
 -16.226  0.824E-05  0.824E-05
 -16.216  0.768E-05  0.768E-05
 -16.206  0.713E-05  0.713E-05
 -16.196  0.661E-05  0.661E-05
 -16.186  0.610E-05  0.610E-05
 -16.176  0.561E-05  0.561E-05
 -16.166  0.514E-05  0.514E-05
 -16.156  0.468E-05  0.468E-05
 -16.146  0.424E-05  0.424E-05
 -16.136  0.382E-05  0.382E-05
 -16.126  0.341E-05  0.341E-05
 -16.116  0.303E-05  0.303E-05
 -16.106  0.265E-05  0.265E-05
 -16.096  0.230E-05  0.230E-05
 -16.086  0.196E-05  0.196E-05
 -16.076  0.164E-05  0.164E-05
 -16.066  0.133E-05  0.133E-05
 -16.056  0.104E-05  0.104E-05
 -16.046  0.766E-06  0.766E-06
 -16.036  0.506E-06  0.506E-06
 -16.026  0.260E-06  0.260E-06
 -16.016  0.283E-07  0.283E-07
 -16.006 -0.189E-06 -0.189E-06
 -15.996 -0.393E-06 -0.393E-06
 -15.986 -0.584E-06 -0.584E-06
 -15.976 -0.761E-06 -0.761E-06
 -15.966 -0.927E-06 -0.927E-06
 -15.956 -0.108E-05 -0.108E-05
 -15.946 -0.122E-05 -0.122E-05
 -15.936 -0.135E-05 -0.135E-05
 -15.926 -0.147E-05 -0.147E-05
 -15.916 -0.158E-05 -0.158E-05
 -15.906 -0.168E-05 -0.168E-05
 -15.896 -0.177E-05 -0.177E-05
 -15.886 -0.185E-05 -0.185E-05
 -15.876 -0.192E-05 -0.192E-05
 -15.866 -0.198E-05 -0.198E-05
 -15.856 -0.204E-05 -0.204E-05
 -15.846 -0.208E-05 -0.208E-05
 -15.836 -0.212E-05 -0.212E-05
 -15.826 -0.216E-05 -0.216E-05
 -15.816 -0.219E-05 -0.219E-05
 -15.806 -0.221E-05 -0.221E-05
 -15.796 -0.222E-05 -0.222E-05
 -15.786 -0.223E-05 -0.223E-05
 -15.776 -0.224E-05 -0.224E-05
 -15.766 -0.224E-05 -0.224E-05
 -15.756 -0.224E-05 -0.224E-05
 -15.746 -0.223E-05 -0.223E-05
 -15.736 -0.222E-05 -0.222E-05
 -15.726 -0.220E-05 -0.220E-05
 -15.716 -0.219E-05 -0.219E-05
 -15.706 -0.217E-05 -0.217E-05
 -15.696 -0.215E-05 -0.215E-05
 -15.686 -0.212E-05 -0.212E-05
 -15.676 -0.210E-05 -0.210E-05
 -15.666 -0.207E-05 -0.207E-05
 -15.656 -0.204E-05 -0.204E-05
 -15.646 -0.201E-05 -0.201E-05
 -15.636 -0.198E-05 -0.198E-05
 -15.626 -0.195E-05 -0.195E-05
 -15.616 -0.192E-05 -0.192E-05
 -15.606 -0.189E-05 -0.189E-05
 -15.596 -0.185E-05 -0.185E-05
 -15.586 -0.182E-05 -0.182E-05
 -15.576 -0.179E-05 -0.179E-05
 -15.566 -0.176E-05 -0.176E-05
 -15.556 -0.173E-05 -0.173E-05
 -15.546 -0.170E-05 -0.170E-05
 -15.536 -0.167E-05 -0.167E-05
 -15.526 -0.164E-05 -0.164E-05
 -15.516 -0.162E-05 -0.162E-05
 -15.506 -0.159E-05 -0.159E-05
 -15.496 -0.157E-05 -0.157E-05
 -15.486 -0.155E-05 -0.155E-05
 -15.476 -0.153E-05 -0.153E-05
 -15.466 -0.151E-05 -0.151E-05
 -15.456 -0.149E-05 -0.149E-05
 -15.446 -0.148E-05 -0.148E-05
 -15.436 -0.146E-05 -0.146E-05
 -15.426 -0.145E-05 -0.145E-05
 -15.416 -0.144E-05 -0.144E-05
 -15.406 -0.143E-05 -0.143E-05
 -15.396 -0.143E-05 -0.143E-05
 -15.386 -0.143E-05 -0.143E-05
 -15.376 -0.142E-05 -0.142E-05
 -15.366 -0.143E-05 -0.143E-05
 -15.356 -0.143E-05 -0.143E-05
 -15.346 -0.144E-05 -0.144E-05
 -15.336 -0.144E-05 -0.144E-05
 -15.326 -0.145E-05 -0.145E-05
 -15.316 -0.147E-05 -0.147E-05
 -15.306 -0.148E-05 -0.148E-05
 -15.296 -0.150E-05 -0.150E-05
 -15.286 -0.152E-05 -0.152E-05
 -15.276 -0.154E-05 -0.154E-05
 -15.266 -0.157E-05 -0.157E-05
 -15.256 -0.160E-05 -0.160E-05
 -15.246 -0.162E-05 -0.162E-05
 -15.236 -0.166E-05 -0.166E-05
 -15.226 -0.169E-05 -0.169E-05
 -15.216 -0.173E-05 -0.173E-05
 -15.206 -0.176E-05 -0.176E-05
 -15.196 -0.181E-05 -0.181E-05
 -15.186 -0.185E-05 -0.185E-05
 -15.176 -0.189E-05 -0.189E-05
 -15.166 -0.194E-05 -0.194E-05
 -15.156 -0.199E-05 -0.199E-05
 -15.146 -0.204E-05 -0.204E-05
 -15.136 -0.209E-05 -0.209E-05
 -15.126 -0.214E-05 -0.214E-05
 -15.116 -0.220E-05 -0.220E-05
 -15.106 -0.225E-05 -0.225E-05
 -15.096 -0.231E-05 -0.231E-05
 -15.086 -0.237E-05 -0.237E-05
 -15.076 -0.243E-05 -0.243E-05
 -15.066 -0.248E-05 -0.248E-05
 -15.056 -0.254E-05 -0.254E-05
 -15.046 -0.261E-05 -0.261E-05
 -15.036 -0.267E-05 -0.267E-05
 -15.026 -0.273E-05 -0.273E-05
 -15.016 -0.279E-05 -0.279E-05
 -15.006 -0.285E-05 -0.285E-05
 -14.996 -0.290E-05 -0.290E-05
 -14.986 -0.296E-05 -0.296E-05
 -14.976 -0.302E-05 -0.302E-05
 -14.966 -0.307E-05 -0.307E-05
 -14.956 -0.313E-05 -0.313E-05
 -14.946 -0.318E-05 -0.318E-05
 -14.936 -0.323E-05 -0.323E-05
 -14.926 -0.327E-05 -0.327E-05
 -14.916 -0.332E-05 -0.332E-05
 -14.906 -0.336E-05 -0.336E-05
 -14.896 -0.339E-05 -0.339E-05
 -14.886 -0.342E-05 -0.342E-05
 -14.876 -0.345E-05 -0.345E-05
 -14.866 -0.347E-05 -0.347E-05
 -14.856 -0.349E-05 -0.349E-05
 -14.846 -0.350E-05 -0.350E-05
 -14.836 -0.350E-05 -0.350E-05
 -14.826 -0.350E-05 -0.350E-05
 -14.816 -0.349E-05 -0.349E-05
 -14.806 -0.347E-05 -0.347E-05
 -14.796 -0.345E-05 -0.345E-05
 -14.786 -0.341E-05 -0.341E-05
 -14.776 -0.337E-05 -0.337E-05
 -14.766 -0.332E-05 -0.332E-05
 -14.756 -0.325E-05 -0.325E-05
 -14.746 -0.318E-05 -0.318E-05
 -14.736 -0.309E-05 -0.309E-05
 -14.726 -0.300E-05 -0.300E-05
 -14.716 -0.289E-05 -0.289E-05
 -14.706 -0.277E-05 -0.277E-05
 -14.696 -0.263E-05 -0.263E-05
 -14.686 -0.248E-05 -0.248E-05
 -14.676 -0.232E-05 -0.232E-05
 -14.666 -0.214E-05 -0.214E-05
 -14.656 -0.195E-05 -0.195E-05
 -14.646 -0.174E-05 -0.174E-05
 -14.636 -0.152E-05 -0.152E-05
 -14.626 -0.128E-05 -0.128E-05
 -14.616 -0.102E-05 -0.102E-05
 -14.606 -0.743E-06 -0.743E-06
 -14.596 -0.449E-06 -0.449E-06
 -14.586 -0.136E-06 -0.136E-06
 -14.576  0.196E-06  0.196E-06
 -14.566  0.548E-06  0.548E-06
 -14.556  0.919E-06  0.919E-06
 -14.546  0.131E-05  0.131E-05
 -14.536  0.172E-05  0.172E-05
 -14.526  0.215E-05  0.215E-05
 -14.516  0.261E-05  0.261E-05
 -14.506  0.308E-05  0.308E-05
 -14.496  0.358E-05  0.358E-05
 -14.486  0.410E-05  0.410E-05
 -14.476  0.464E-05  0.464E-05
 -14.466  0.520E-05  0.520E-05
 -14.456  0.579E-05  0.579E-05
 -14.446  0.639E-05  0.639E-05
 -14.436  0.702E-05  0.702E-05
 -14.426  0.767E-05  0.767E-05
 -14.416  0.835E-05  0.835E-05
 -14.406  0.904E-05  0.904E-05
 -14.396  0.976E-05  0.976E-05
 -14.386  0.105E-04  0.105E-04
 -14.376  0.113E-04  0.113E-04
 -14.366  0.120E-04  0.120E-04
 -14.356  0.128E-04  0.128E-04
 -14.346  0.137E-04  0.137E-04
 -14.336  0.145E-04  0.145E-04
 -14.326  0.154E-04  0.154E-04
 -14.316  0.163E-04  0.163E-04
 -14.306  0.172E-04  0.172E-04
 -14.296  0.181E-04  0.181E-04
 -14.286  0.190E-04  0.190E-04
 -14.276  0.200E-04  0.200E-04
 -14.266  0.210E-04  0.210E-04
 -14.256  0.219E-04  0.219E-04
 -14.246  0.229E-04  0.229E-04
 -14.236  0.240E-04  0.240E-04
 -14.226  0.250E-04  0.250E-04
 -14.216  0.260E-04  0.260E-04
 -14.206  0.271E-04  0.271E-04
 -14.196  0.282E-04  0.282E-04
 -14.186  0.292E-04  0.292E-04
 -14.176  0.303E-04  0.303E-04
 -14.166  0.314E-04  0.314E-04
 -14.156  0.325E-04  0.325E-04
 -14.146  0.336E-04  0.336E-04
 -14.136  0.347E-04  0.347E-04
 -14.126  0.358E-04  0.358E-04
 -14.116  0.369E-04  0.369E-04
 -14.106  0.380E-04  0.380E-04
 -14.096  0.391E-04  0.391E-04
 -14.086  0.403E-04  0.403E-04
 -14.076  0.414E-04  0.414E-04
 -14.066  0.425E-04  0.425E-04
 -14.056  0.435E-04  0.435E-04
 -14.046  0.446E-04  0.446E-04
 -14.036  0.457E-04  0.457E-04
 -14.026  0.468E-04  0.468E-04
 -14.016  0.478E-04  0.478E-04
 -14.006  0.489E-04  0.489E-04
 -13.996  0.499E-04  0.499E-04
 -13.986  0.509E-04  0.509E-04
 -13.976  0.519E-04  0.519E-04
 -13.966  0.529E-04  0.529E-04
 -13.956  0.539E-04  0.539E-04
 -13.946  0.548E-04  0.548E-04
 -13.936  0.557E-04  0.557E-04
 -13.926  0.566E-04  0.566E-04
 -13.916  0.575E-04  0.575E-04
 -13.906  0.584E-04  0.584E-04
 -13.896  0.592E-04  0.592E-04
 -13.886  0.600E-04  0.600E-04
 -13.876  0.608E-04  0.608E-04
 -13.866  0.616E-04  0.616E-04
 -13.856  0.623E-04  0.623E-04
 -13.846  0.630E-04  0.630E-04
 -13.836  0.636E-04  0.636E-04
 -13.826  0.643E-04  0.643E-04
 -13.816  0.649E-04  0.649E-04
 -13.806  0.654E-04  0.654E-04
 -13.796  0.660E-04  0.660E-04
 -13.786  0.665E-04  0.665E-04
 -13.776  0.669E-04  0.669E-04
 -13.766  0.674E-04  0.674E-04
 -13.756  0.678E-04  0.678E-04
 -13.746  0.681E-04  0.681E-04
 -13.736  0.685E-04  0.685E-04
 -13.726  0.688E-04  0.688E-04
 -13.716  0.690E-04  0.690E-04
 -13.706  0.693E-04  0.693E-04
 -13.696  0.695E-04  0.695E-04
 -13.686  0.696E-04  0.696E-04
 -13.676  0.697E-04  0.697E-04
 -13.666  0.698E-04  0.698E-04
 -13.656  0.699E-04  0.699E-04
 -13.646  0.699E-04  0.699E-04
 -13.636  0.699E-04  0.699E-04
 -13.626  0.698E-04  0.698E-04
 -13.616  0.697E-04  0.697E-04
 -13.606  0.696E-04  0.696E-04
 -13.596  0.695E-04  0.695E-04
 -13.586  0.693E-04  0.693E-04
 -13.576  0.691E-04  0.691E-04
 -13.566  0.689E-04  0.689E-04
 -13.556  0.686E-04  0.686E-04
 -13.546  0.683E-04  0.683E-04
 -13.536  0.680E-04  0.680E-04
 -13.526  0.676E-04  0.676E-04
 -13.516  0.672E-04  0.672E-04
 -13.506  0.668E-04  0.668E-04
 -13.496  0.664E-04  0.664E-04
 -13.486  0.659E-04  0.659E-04
 -13.476  0.654E-04  0.654E-04
 -13.466  0.649E-04  0.649E-04
 -13.456  0.644E-04  0.644E-04
 -13.446  0.638E-04  0.638E-04
 -13.436  0.633E-04  0.633E-04
 -13.426  0.627E-04  0.627E-04
 -13.416  0.621E-04  0.621E-04
 -13.406  0.614E-04  0.614E-04
 -13.396  0.608E-04  0.608E-04
 -13.386  0.601E-04  0.601E-04
 -13.376  0.595E-04  0.595E-04
 -13.366  0.588E-04  0.588E-04
 -13.356  0.581E-04  0.581E-04
 -13.346  0.574E-04  0.574E-04
 -13.336  0.566E-04  0.566E-04
 -13.326  0.559E-04  0.559E-04
 -13.316  0.552E-04  0.552E-04
 -13.306  0.544E-04  0.544E-04
 -13.296  0.537E-04  0.537E-04
 -13.286  0.529E-04  0.529E-04
 -13.276  0.521E-04  0.521E-04
 -13.266  0.513E-04  0.513E-04
 -13.256  0.506E-04  0.506E-04
 -13.246  0.498E-04  0.498E-04
 -13.236  0.490E-04  0.490E-04
 -13.226  0.482E-04  0.482E-04
 -13.216  0.474E-04  0.474E-04
 -13.206  0.466E-04  0.466E-04
 -13.196  0.458E-04  0.458E-04
 -13.186  0.450E-04  0.450E-04
 -13.176  0.442E-04  0.442E-04
 -13.166  0.434E-04  0.434E-04
 -13.156  0.426E-04  0.426E-04
 -13.146  0.418E-04  0.418E-04
 -13.136  0.410E-04  0.410E-04
 -13.126  0.402E-04  0.402E-04
 -13.116  0.394E-04  0.394E-04
 -13.106  0.386E-04  0.386E-04
 -13.096  0.378E-04  0.378E-04
 -13.086  0.370E-04  0.370E-04
 -13.076  0.363E-04  0.363E-04
 -13.066  0.355E-04  0.355E-04
 -13.056  0.347E-04  0.347E-04
 -13.046  0.340E-04  0.340E-04
 -13.036  0.332E-04  0.332E-04
 -13.026  0.324E-04  0.324E-04
 -13.016  0.317E-04  0.317E-04
 -13.006  0.309E-04  0.309E-04
 -12.996  0.302E-04  0.302E-04
 -12.986  0.295E-04  0.295E-04
 -12.976  0.287E-04  0.287E-04
 -12.966  0.280E-04  0.280E-04
 -12.956  0.273E-04  0.273E-04
 -12.946  0.266E-04  0.266E-04
 -12.936  0.259E-04  0.259E-04
 -12.926  0.252E-04  0.252E-04
 -12.916  0.245E-04  0.245E-04
 -12.906  0.238E-04  0.238E-04
 -12.896  0.231E-04  0.231E-04
 -12.886  0.224E-04  0.224E-04
 -12.876  0.217E-04  0.217E-04
 -12.866  0.211E-04  0.211E-04
 -12.856  0.204E-04  0.204E-04
 -12.846  0.197E-04  0.197E-04
 -12.836  0.191E-04  0.191E-04
 -12.826  0.184E-04  0.184E-04
 -12.816  0.178E-04  0.178E-04
 -12.806  0.172E-04  0.172E-04
 -12.796  0.165E-04  0.165E-04
 -12.786  0.159E-04  0.159E-04
 -12.776  0.153E-04  0.153E-04
 -12.766  0.146E-04  0.146E-04
 -12.756  0.140E-04  0.140E-04
 -12.746  0.134E-04  0.134E-04
 -12.736  0.128E-04  0.128E-04
 -12.726  0.122E-04  0.122E-04
 -12.716  0.116E-04  0.116E-04
 -12.706  0.110E-04  0.110E-04
 -12.696  0.104E-04  0.104E-04
 -12.686  0.979E-05  0.979E-05
 -12.676  0.921E-05  0.921E-05
 -12.666  0.862E-05  0.862E-05
 -12.656  0.804E-05  0.804E-05
 -12.646  0.747E-05  0.747E-05
 -12.636  0.690E-05  0.690E-05
 -12.626  0.633E-05  0.633E-05
 -12.616  0.577E-05  0.577E-05
 -12.606  0.521E-05  0.521E-05
 -12.596  0.465E-05  0.465E-05
 -12.586  0.410E-05  0.410E-05
 -12.576  0.356E-05  0.356E-05
 -12.566  0.302E-05  0.302E-05
 -12.556  0.248E-05  0.248E-05
 -12.546  0.195E-05  0.195E-05
 -12.536  0.142E-05  0.142E-05
 -12.526  0.899E-06  0.899E-06
 -12.516  0.383E-06  0.383E-06
 -12.506 -0.126E-06 -0.126E-06
 -12.496 -0.630E-06 -0.630E-06
 -12.486 -0.113E-05 -0.113E-05
 -12.476 -0.162E-05 -0.162E-05
 -12.466 -0.210E-05 -0.210E-05
 -12.456 -0.257E-05 -0.257E-05
 -12.446 -0.304E-05 -0.304E-05
 -12.436 -0.350E-05 -0.350E-05
 -12.426 -0.395E-05 -0.395E-05
 -12.416 -0.439E-05 -0.439E-05
 -12.406 -0.482E-05 -0.482E-05
 -12.396 -0.524E-05 -0.524E-05
 -12.386 -0.565E-05 -0.565E-05
 -12.376 -0.604E-05 -0.604E-05
 -12.366 -0.642E-05 -0.642E-05
 -12.356 -0.679E-05 -0.679E-05
 -12.346 -0.715E-05 -0.715E-05
 -12.336 -0.749E-05 -0.749E-05
 -12.326 -0.781E-05 -0.781E-05
 -12.316 -0.812E-05 -0.812E-05
 -12.306 -0.841E-05 -0.841E-05
 -12.296 -0.868E-05 -0.868E-05
 -12.286 -0.894E-05 -0.894E-05
 -12.276 -0.917E-05 -0.917E-05
 -12.266 -0.938E-05 -0.938E-05
 -12.256 -0.957E-05 -0.957E-05
 -12.246 -0.973E-05 -0.973E-05
 -12.236 -0.987E-05 -0.987E-05
 -12.226 -0.998E-05 -0.998E-05
 -12.216 -0.101E-04 -0.101E-04
 -12.206 -0.101E-04 -0.101E-04
 -12.196 -0.102E-04 -0.102E-04
 -12.186 -0.102E-04 -0.102E-04
 -12.176 -0.101E-04 -0.101E-04
 -12.166 -0.101E-04 -0.101E-04
 -12.156 -0.995E-05 -0.995E-05
 -12.146 -0.981E-05 -0.981E-05
 -12.136 -0.963E-05 -0.963E-05
 -12.126 -0.942E-05 -0.942E-05
 -12.116 -0.916E-05 -0.916E-05
 -12.106 -0.887E-05 -0.887E-05
 -12.096 -0.853E-05 -0.853E-05
 -12.086 -0.815E-05 -0.815E-05
 -12.076 -0.772E-05 -0.772E-05
 -12.066 -0.725E-05 -0.725E-05
 -12.056 -0.672E-05 -0.672E-05
 -12.046 -0.615E-05 -0.615E-05
 -12.036 -0.553E-05 -0.553E-05
 -12.026 -0.485E-05 -0.485E-05
 -12.016 -0.413E-05 -0.413E-05
 -12.006 -0.335E-05 -0.335E-05
 -11.996 -0.251E-05 -0.251E-05
 -11.986 -0.162E-05 -0.162E-05
 -11.976 -0.669E-06 -0.669E-06
 -11.966  0.339E-06  0.339E-06
 -11.956  0.141E-05  0.141E-05
 -11.946  0.253E-05  0.253E-05
 -11.936  0.372E-05  0.372E-05
 -11.926  0.497E-05  0.497E-05
 -11.916  0.628E-05  0.628E-05
 -11.906  0.765E-05  0.765E-05
 -11.896  0.908E-05  0.908E-05
 -11.886  0.106E-04  0.106E-04
 -11.876  0.121E-04  0.121E-04
 -11.866  0.138E-04  0.138E-04
 -11.856  0.155E-04  0.155E-04
 -11.846  0.172E-04  0.172E-04
 -11.836  0.190E-04  0.190E-04
 -11.826  0.209E-04  0.209E-04
 -11.816  0.228E-04  0.228E-04
 -11.806  0.248E-04  0.248E-04
 -11.796  0.269E-04  0.269E-04
 -11.786  0.290E-04  0.290E-04
 -11.776  0.312E-04  0.312E-04
 -11.766  0.334E-04  0.334E-04
 -11.756  0.357E-04  0.357E-04
 -11.746  0.380E-04  0.380E-04
 -11.736  0.404E-04  0.404E-04
 -11.726  0.429E-04  0.429E-04
 -11.716  0.454E-04  0.454E-04
 -11.706  0.479E-04  0.479E-04
 -11.696  0.505E-04  0.505E-04
 -11.686  0.531E-04  0.531E-04
 -11.676  0.558E-04  0.558E-04
 -11.666  0.585E-04  0.585E-04
 -11.656  0.612E-04  0.612E-04
 -11.646  0.640E-04  0.640E-04
 -11.636  0.668E-04  0.668E-04
 -11.626  0.696E-04  0.696E-04
 -11.616  0.724E-04  0.724E-04
 -11.606  0.753E-04  0.753E-04
 -11.596  0.781E-04  0.781E-04
 -11.586  0.810E-04  0.810E-04
 -11.576  0.839E-04  0.839E-04
 -11.566  0.867E-04  0.867E-04
 -11.556  0.896E-04  0.896E-04
 -11.546  0.924E-04  0.924E-04
 -11.536  0.953E-04  0.953E-04
 -11.526  0.981E-04  0.981E-04
 -11.516  0.101E-03  0.101E-03
 -11.506  0.104E-03  0.104E-03
 -11.496  0.106E-03  0.106E-03
 -11.486  0.109E-03  0.109E-03
 -11.476  0.112E-03  0.112E-03
 -11.466  0.114E-03  0.114E-03
 -11.456  0.117E-03  0.117E-03
 -11.446  0.119E-03  0.119E-03
 -11.436  0.122E-03  0.122E-03
 -11.426  0.124E-03  0.124E-03
 -11.416  0.126E-03  0.126E-03
 -11.406  0.128E-03  0.128E-03
 -11.396  0.130E-03  0.130E-03
 -11.386  0.132E-03  0.132E-03
 -11.376  0.134E-03  0.134E-03
 -11.366  0.136E-03  0.136E-03
 -11.356  0.137E-03  0.137E-03
 -11.346  0.139E-03  0.139E-03
 -11.336  0.140E-03  0.140E-03
 -11.326  0.141E-03  0.141E-03
 -11.316  0.142E-03  0.142E-03
 -11.306  0.143E-03  0.143E-03
 -11.296  0.143E-03  0.143E-03
 -11.286  0.144E-03  0.144E-03
 -11.276  0.144E-03  0.144E-03
 -11.266  0.144E-03  0.144E-03
 -11.256  0.144E-03  0.144E-03
 -11.246  0.144E-03  0.144E-03
 -11.236  0.143E-03  0.143E-03
 -11.226  0.142E-03  0.142E-03
 -11.216  0.141E-03  0.141E-03
 -11.206  0.140E-03  0.140E-03
 -11.196  0.138E-03  0.138E-03
 -11.186  0.136E-03  0.136E-03
 -11.176  0.134E-03  0.134E-03
 -11.166  0.131E-03  0.131E-03
 -11.156  0.129E-03  0.129E-03
 -11.146  0.125E-03  0.125E-03
 -11.136  0.122E-03  0.122E-03
 -11.126  0.118E-03  0.118E-03
 -11.116  0.114E-03  0.114E-03
 -11.106  0.109E-03  0.109E-03
 -11.096  0.104E-03  0.104E-03
 -11.086  0.983E-04  0.983E-04
 -11.076  0.924E-04  0.924E-04
 -11.066  0.860E-04  0.860E-04
 -11.056  0.790E-04  0.790E-04
 -11.046  0.716E-04  0.716E-04
 -11.036  0.637E-04  0.637E-04
 -11.026  0.552E-04  0.552E-04
 -11.016  0.462E-04  0.462E-04
 -11.006  0.366E-04  0.366E-04
 -10.996  0.263E-04  0.263E-04
 -10.986  0.155E-04  0.155E-04
 -10.976  0.393E-05  0.393E-05
 -10.966 -0.829E-05 -0.829E-05
 -10.956 -0.212E-04 -0.212E-04
 -10.946 -0.349E-04 -0.349E-04
 -10.936 -0.493E-04 -0.493E-04
 -10.926 -0.646E-04 -0.646E-04
 -10.916 -0.807E-04 -0.807E-04
 -10.906 -0.976E-04 -0.976E-04
 -10.896 -0.115E-03 -0.115E-03
 -10.886 -0.134E-03 -0.134E-03
 -10.876 -0.154E-03 -0.154E-03
 -10.866 -0.175E-03 -0.175E-03
 -10.856 -0.197E-03 -0.197E-03
 -10.846 -0.219E-03 -0.219E-03
 -10.836 -0.243E-03 -0.243E-03
 -10.826 -0.269E-03 -0.269E-03
 -10.816 -0.295E-03 -0.295E-03
 -10.806 -0.322E-03 -0.322E-03
 -10.796 -0.351E-03 -0.351E-03
 -10.786 -0.382E-03 -0.382E-03
 -10.776 -0.413E-03 -0.413E-03
 -10.766 -0.446E-03 -0.446E-03
 -10.756 -0.480E-03 -0.480E-03
 -10.746 -0.516E-03 -0.516E-03
 -10.736 -0.554E-03 -0.554E-03
 -10.726 -0.593E-03 -0.593E-03
 -10.716 -0.634E-03 -0.634E-03
 -10.706 -0.676E-03 -0.676E-03
 -10.696 -0.720E-03 -0.720E-03
 -10.686 -0.766E-03 -0.766E-03
 -10.676 -0.814E-03 -0.814E-03
 -10.666 -0.863E-03 -0.863E-03
 -10.656 -0.914E-03 -0.914E-03
 -10.646 -0.968E-03 -0.968E-03
 -10.636 -0.102E-02 -0.102E-02
 -10.626 -0.108E-02 -0.108E-02
 -10.616 -0.114E-02 -0.114E-02
 -10.606 -0.120E-02 -0.120E-02
 -10.596 -0.126E-02 -0.126E-02
 -10.586 -0.133E-02 -0.133E-02
 -10.576 -0.140E-02 -0.140E-02
 -10.566 -0.147E-02 -0.147E-02
 -10.556 -0.154E-02 -0.154E-02
 -10.546 -0.161E-02 -0.161E-02
 -10.536 -0.169E-02 -0.169E-02
 -10.526 -0.177E-02 -0.177E-02
 -10.516 -0.185E-02 -0.185E-02
 -10.506 -0.193E-02 -0.193E-02
 -10.496 -0.202E-02 -0.202E-02
 -10.486 -0.211E-02 -0.211E-02
 -10.476 -0.220E-02 -0.220E-02
 -10.466 -0.229E-02 -0.229E-02
 -10.456 -0.238E-02 -0.238E-02
 -10.446 -0.248E-02 -0.248E-02
 -10.436 -0.257E-02 -0.257E-02
 -10.426 -0.267E-02 -0.267E-02
 -10.416 -0.277E-02 -0.277E-02
 -10.406 -0.288E-02 -0.288E-02
 -10.396 -0.298E-02 -0.298E-02
 -10.386 -0.309E-02 -0.309E-02
 -10.376 -0.319E-02 -0.319E-02
 -10.366 -0.330E-02 -0.330E-02
 -10.356 -0.341E-02 -0.341E-02
 -10.346 -0.352E-02 -0.352E-02
 -10.336 -0.363E-02 -0.363E-02
 -10.326 -0.375E-02 -0.375E-02
 -10.316 -0.386E-02 -0.386E-02
 -10.306 -0.397E-02 -0.397E-02
 -10.296 -0.408E-02 -0.408E-02
 -10.286 -0.419E-02 -0.419E-02
 -10.276 -0.430E-02 -0.430E-02
 -10.266 -0.441E-02 -0.441E-02
 -10.256 -0.452E-02 -0.452E-02
 -10.246 -0.463E-02 -0.463E-02
 -10.236 -0.473E-02 -0.473E-02
 -10.226 -0.484E-02 -0.484E-02
 -10.216 -0.494E-02 -0.494E-02
 -10.206 -0.503E-02 -0.503E-02
 -10.196 -0.513E-02 -0.513E-02
 -10.186 -0.522E-02 -0.522E-02
 -10.176 -0.530E-02 -0.530E-02
 -10.166 -0.538E-02 -0.538E-02
 -10.156 -0.546E-02 -0.546E-02
 -10.146 -0.552E-02 -0.552E-02
 -10.136 -0.559E-02 -0.559E-02
 -10.126 -0.564E-02 -0.564E-02
 -10.116 -0.569E-02 -0.569E-02
 -10.106 -0.573E-02 -0.573E-02
 -10.096 -0.576E-02 -0.576E-02
 -10.086 -0.578E-02 -0.578E-02
 -10.076 -0.579E-02 -0.579E-02
 -10.066 -0.579E-02 -0.579E-02
 -10.056 -0.578E-02 -0.578E-02
 -10.046 -0.576E-02 -0.576E-02
 -10.036 -0.572E-02 -0.572E-02
 -10.026 -0.568E-02 -0.568E-02
 -10.016 -0.561E-02 -0.561E-02
 -10.006 -0.553E-02 -0.553E-02
  -9.996 -0.544E-02 -0.544E-02
  -9.986 -0.532E-02 -0.532E-02
  -9.976 -0.520E-02 -0.520E-02
  -9.966 -0.505E-02 -0.505E-02
  -9.956 -0.488E-02 -0.488E-02
  -9.946 -0.469E-02 -0.469E-02
  -9.936 -0.448E-02 -0.448E-02
  -9.926 -0.425E-02 -0.425E-02
  -9.916 -0.400E-02 -0.400E-02
  -9.906 -0.373E-02 -0.373E-02
  -9.896 -0.343E-02 -0.343E-02
  -9.886 -0.310E-02 -0.310E-02
  -9.876 -0.275E-02 -0.275E-02
  -9.866 -0.237E-02 -0.237E-02
  -9.856 -0.196E-02 -0.196E-02
  -9.846 -0.153E-02 -0.153E-02
  -9.836 -0.106E-02 -0.106E-02
  -9.826 -0.567E-03 -0.567E-03
  -9.816 -0.416E-04 -0.416E-04
  -9.806  0.516E-03  0.516E-03
  -9.796  0.111E-02  0.111E-02
  -9.786  0.173E-02  0.173E-02
  -9.776  0.239E-02  0.239E-02
  -9.766  0.308E-02  0.308E-02
  -9.756  0.381E-02  0.381E-02
  -9.746  0.457E-02  0.457E-02
  -9.736  0.537E-02  0.537E-02
  -9.726  0.621E-02  0.621E-02
  -9.716  0.708E-02  0.708E-02
  -9.706  0.799E-02  0.799E-02
  -9.696  0.894E-02  0.894E-02
  -9.686  0.993E-02  0.993E-02
  -9.676  0.110E-01  0.110E-01
  -9.666  0.120E-01  0.120E-01
  -9.656  0.131E-01  0.131E-01
  -9.646  0.143E-01  0.143E-01
  -9.636  0.155E-01  0.155E-01
  -9.626  0.167E-01  0.167E-01
  -9.616  0.180E-01  0.180E-01
  -9.606  0.193E-01  0.193E-01
  -9.596  0.206E-01  0.206E-01
  -9.586  0.220E-01  0.220E-01
  -9.576  0.234E-01  0.234E-01
  -9.566  0.249E-01  0.249E-01
  -9.556  0.264E-01  0.264E-01
  -9.546  0.279E-01  0.279E-01
  -9.536  0.295E-01  0.295E-01
  -9.526  0.311E-01  0.311E-01
  -9.516  0.328E-01  0.328E-01
  -9.506  0.345E-01  0.345E-01
  -9.496  0.362E-01  0.362E-01
  -9.486  0.380E-01  0.380E-01
  -9.476  0.398E-01  0.398E-01
  -9.466  0.416E-01  0.416E-01
  -9.456  0.434E-01  0.434E-01
  -9.446  0.453E-01  0.453E-01
  -9.436  0.472E-01  0.472E-01
  -9.426  0.492E-01  0.492E-01
  -9.416  0.511E-01  0.511E-01
  -9.406  0.531E-01  0.531E-01
  -9.396  0.552E-01  0.552E-01
  -9.386  0.572E-01  0.572E-01
  -9.376  0.593E-01  0.593E-01
  -9.366  0.613E-01  0.613E-01
  -9.356  0.634E-01  0.634E-01
  -9.346  0.655E-01  0.655E-01
  -9.336  0.677E-01  0.677E-01
  -9.326  0.698E-01  0.698E-01
  -9.316  0.720E-01  0.720E-01
  -9.306  0.741E-01  0.741E-01
  -9.296  0.763E-01  0.763E-01
  -9.286  0.785E-01  0.785E-01
  -9.276  0.806E-01  0.806E-01
  -9.266  0.828E-01  0.828E-01
  -9.256  0.850E-01  0.850E-01
  -9.246  0.872E-01  0.872E-01
  -9.236  0.893E-01  0.893E-01
  -9.226  0.915E-01  0.915E-01
  -9.216  0.936E-01  0.936E-01
  -9.206  0.958E-01  0.958E-01
  -9.196  0.979E-01  0.979E-01
  -9.186  0.100E+00  0.100E+00
  -9.176  0.102E+00  0.102E+00
  -9.166  0.104E+00  0.104E+00
  -9.156  0.106E+00  0.106E+00
  -9.146  0.108E+00  0.108E+00
  -9.136  0.110E+00  0.110E+00
  -9.126  0.112E+00  0.112E+00
  -9.116  0.114E+00  0.114E+00
  -9.106  0.116E+00  0.116E+00
  -9.096  0.118E+00  0.118E+00
  -9.086  0.120E+00  0.120E+00
  -9.076  0.122E+00  0.122E+00
  -9.066  0.124E+00  0.124E+00
  -9.056  0.126E+00  0.126E+00
  -9.046  0.127E+00  0.127E+00
  -9.036  0.129E+00  0.129E+00
  -9.026  0.131E+00  0.131E+00
  -9.016  0.132E+00  0.132E+00
  -9.006  0.134E+00  0.134E+00
  -8.996  0.135E+00  0.135E+00
  -8.986  0.137E+00  0.137E+00
  -8.976  0.138E+00  0.138E+00
  -8.966  0.140E+00  0.140E+00
  -8.956  0.141E+00  0.141E+00
  -8.946  0.142E+00  0.142E+00
  -8.936  0.144E+00  0.144E+00
  -8.926  0.145E+00  0.145E+00
  -8.916  0.146E+00  0.146E+00
  -8.906  0.147E+00  0.147E+00
  -8.896  0.148E+00  0.148E+00
  -8.886  0.149E+00  0.149E+00
  -8.876  0.150E+00  0.150E+00
  -8.866  0.151E+00  0.151E+00
  -8.856  0.152E+00  0.152E+00
  -8.846  0.153E+00  0.153E+00
  -8.836  0.154E+00  0.154E+00
  -8.826  0.155E+00  0.155E+00
  -8.816  0.155E+00  0.155E+00
  -8.806  0.156E+00  0.156E+00
  -8.796  0.156E+00  0.156E+00
  -8.786  0.157E+00  0.157E+00
  -8.776  0.157E+00  0.157E+00
  -8.766  0.158E+00  0.158E+00
  -8.756  0.158E+00  0.158E+00
  -8.746  0.159E+00  0.159E+00
  -8.736  0.159E+00  0.159E+00
  -8.726  0.159E+00  0.159E+00
  -8.716  0.159E+00  0.159E+00
  -8.706  0.159E+00  0.159E+00
  -8.696  0.160E+00  0.160E+00
  -8.686  0.160E+00  0.160E+00
  -8.676  0.160E+00  0.160E+00
  -8.666  0.159E+00  0.159E+00
  -8.656  0.159E+00  0.159E+00
  -8.646  0.159E+00  0.159E+00
  -8.636  0.159E+00  0.159E+00
  -8.626  0.159E+00  0.159E+00
  -8.616  0.159E+00  0.159E+00
  -8.606  0.158E+00  0.158E+00
  -8.596  0.158E+00  0.158E+00
  -8.586  0.157E+00  0.157E+00
  -8.576  0.157E+00  0.157E+00
  -8.566  0.156E+00  0.156E+00
  -8.556  0.156E+00  0.156E+00
  -8.546  0.155E+00  0.155E+00
  -8.536  0.155E+00  0.155E+00
  -8.526  0.154E+00  0.154E+00
  -8.516  0.153E+00  0.153E+00
  -8.506  0.152E+00  0.152E+00
  -8.496  0.152E+00  0.152E+00
  -8.486  0.151E+00  0.151E+00
  -8.476  0.150E+00  0.150E+00
  -8.466  0.149E+00  0.149E+00
  -8.456  0.148E+00  0.148E+00
  -8.446  0.147E+00  0.147E+00
  -8.436  0.146E+00  0.146E+00
  -8.426  0.145E+00  0.145E+00
  -8.416  0.144E+00  0.144E+00
  -8.406  0.143E+00  0.143E+00
  -8.396  0.141E+00  0.141E+00
  -8.386  0.140E+00  0.140E+00
  -8.376  0.139E+00  0.139E+00
  -8.366  0.138E+00  0.138E+00
  -8.356  0.136E+00  0.136E+00
  -8.346  0.135E+00  0.135E+00
  -8.336  0.133E+00  0.133E+00
  -8.326  0.132E+00  0.132E+00
  -8.316  0.130E+00  0.130E+00
  -8.306  0.129E+00  0.129E+00
  -8.296  0.127E+00  0.127E+00
  -8.286  0.126E+00  0.126E+00
  -8.276  0.124E+00  0.124E+00
  -8.266  0.123E+00  0.123E+00
  -8.256  0.121E+00  0.121E+00
  -8.246  0.119E+00  0.119E+00
  -8.236  0.117E+00  0.117E+00
  -8.226  0.116E+00  0.116E+00
  -8.216  0.114E+00  0.114E+00
  -8.206  0.112E+00  0.112E+00
  -8.196  0.110E+00  0.110E+00
  -8.186  0.108E+00  0.108E+00
  -8.176  0.107E+00  0.107E+00
  -8.166  0.105E+00  0.105E+00
  -8.156  0.103E+00  0.103E+00
  -8.146  0.101E+00  0.101E+00
  -8.136  0.989E-01  0.989E-01
  -8.126  0.969E-01  0.969E-01
  -8.116  0.950E-01  0.950E-01
  -8.106  0.930E-01  0.930E-01
  -8.096  0.911E-01  0.911E-01
  -8.086  0.891E-01  0.891E-01
  -8.076  0.871E-01  0.871E-01
  -8.066  0.852E-01  0.852E-01
  -8.056  0.832E-01  0.832E-01
  -8.046  0.812E-01  0.812E-01
  -8.036  0.793E-01  0.793E-01
  -8.026  0.774E-01  0.774E-01
  -8.016  0.754E-01  0.754E-01
  -8.006  0.735E-01  0.735E-01
  -7.996  0.716E-01  0.716E-01
  -7.986  0.698E-01  0.698E-01
  -7.976  0.679E-01  0.679E-01
  -7.966  0.661E-01  0.661E-01
  -7.956  0.643E-01  0.643E-01
  -7.946  0.625E-01  0.625E-01
  -7.936  0.608E-01  0.608E-01
  -7.926  0.590E-01  0.590E-01
  -7.916  0.574E-01  0.574E-01
  -7.906  0.557E-01  0.557E-01
  -7.896  0.542E-01  0.542E-01
  -7.886  0.526E-01  0.526E-01
  -7.876  0.511E-01  0.511E-01
  -7.866  0.497E-01  0.497E-01
  -7.856  0.483E-01  0.483E-01
  -7.846  0.469E-01  0.469E-01
  -7.836  0.456E-01  0.456E-01
  -7.826  0.444E-01  0.444E-01
  -7.816  0.432E-01  0.432E-01
  -7.806  0.421E-01  0.421E-01
  -7.796  0.410E-01  0.410E-01
  -7.786  0.401E-01  0.401E-01
  -7.776  0.391E-01  0.391E-01
  -7.766  0.383E-01  0.383E-01
  -7.756  0.375E-01  0.375E-01
  -7.746  0.368E-01  0.368E-01
  -7.736  0.362E-01  0.362E-01
  -7.726  0.356E-01  0.356E-01
  -7.716  0.351E-01  0.351E-01
  -7.706  0.347E-01  0.347E-01
  -7.696  0.344E-01  0.344E-01
  -7.686  0.341E-01  0.341E-01
  -7.676  0.339E-01  0.339E-01
  -7.666  0.339E-01  0.339E-01
  -7.656  0.338E-01  0.338E-01
  -7.646  0.339E-01  0.339E-01
  -7.636  0.340E-01  0.340E-01
  -7.626  0.343E-01  0.343E-01
  -7.616  0.346E-01  0.346E-01
  -7.606  0.350E-01  0.350E-01
  -7.596  0.354E-01  0.354E-01
  -7.586  0.360E-01  0.360E-01
  -7.576  0.366E-01  0.366E-01
  -7.566  0.373E-01  0.373E-01
  -7.556  0.381E-01  0.381E-01
  -7.546  0.389E-01  0.389E-01
  -7.536  0.398E-01  0.398E-01
  -7.526  0.408E-01  0.408E-01
  -7.516  0.419E-01  0.419E-01
  -7.506  0.431E-01  0.431E-01
  -7.496  0.443E-01  0.443E-01
  -7.486  0.455E-01  0.455E-01
  -7.476  0.469E-01  0.469E-01
  -7.466  0.483E-01  0.483E-01
  -7.456  0.497E-01  0.497E-01
  -7.446  0.512E-01  0.512E-01
  -7.436  0.528E-01  0.528E-01
  -7.426  0.544E-01  0.544E-01
  -7.416  0.561E-01  0.561E-01
  -7.406  0.578E-01  0.578E-01
  -7.396  0.596E-01  0.596E-01
  -7.386  0.614E-01  0.614E-01
  -7.376  0.632E-01  0.632E-01
  -7.366  0.651E-01  0.651E-01
  -7.356  0.670E-01  0.670E-01
  -7.346  0.689E-01  0.689E-01
  -7.336  0.708E-01  0.708E-01
  -7.326  0.728E-01  0.728E-01
  -7.316  0.748E-01  0.748E-01
  -7.306  0.768E-01  0.768E-01
  -7.296  0.788E-01  0.788E-01
  -7.286  0.808E-01  0.808E-01
  -7.276  0.828E-01  0.828E-01
  -7.266  0.848E-01  0.848E-01
  -7.256  0.868E-01  0.868E-01
  -7.246  0.888E-01  0.888E-01
  -7.236  0.908E-01  0.908E-01
  -7.226  0.927E-01  0.927E-01
  -7.216  0.947E-01  0.947E-01
  -7.206  0.966E-01  0.966E-01
  -7.196  0.985E-01  0.985E-01
  -7.186  0.100E+00  0.100E+00
  -7.176  0.102E+00  0.102E+00
  -7.166  0.104E+00  0.104E+00
  -7.156  0.106E+00  0.106E+00
  -7.146  0.107E+00  0.107E+00
  -7.136  0.109E+00  0.109E+00
  -7.126  0.111E+00  0.111E+00
  -7.116  0.112E+00  0.112E+00
  -7.106  0.114E+00  0.114E+00
  -7.096  0.115E+00  0.115E+00
  -7.086  0.116E+00  0.116E+00
  -7.076  0.118E+00  0.118E+00
  -7.066  0.119E+00  0.119E+00
  -7.056  0.120E+00  0.120E+00
  -7.046  0.121E+00  0.121E+00
  -7.036  0.122E+00  0.122E+00
  -7.026  0.123E+00  0.123E+00
  -7.016  0.124E+00  0.124E+00
  -7.006  0.125E+00  0.125E+00
  -6.996  0.126E+00  0.126E+00
  -6.986  0.126E+00  0.126E+00
  -6.976  0.127E+00  0.127E+00
  -6.966  0.127E+00  0.127E+00
  -6.956  0.128E+00  0.128E+00
  -6.946  0.128E+00  0.128E+00
  -6.936  0.128E+00  0.128E+00
  -6.926  0.128E+00  0.128E+00
  -6.916  0.128E+00  0.128E+00
  -6.906  0.128E+00  0.128E+00
  -6.896  0.128E+00  0.128E+00
  -6.886  0.128E+00  0.128E+00
  -6.876  0.127E+00  0.127E+00
  -6.866  0.127E+00  0.127E+00
  -6.856  0.127E+00  0.127E+00
  -6.846  0.126E+00  0.126E+00
  -6.836  0.125E+00  0.125E+00
  -6.826  0.125E+00  0.125E+00
  -6.816  0.124E+00  0.124E+00
  -6.806  0.123E+00  0.123E+00
  -6.796  0.122E+00  0.122E+00
  -6.786  0.121E+00  0.121E+00
  -6.776  0.120E+00  0.120E+00
  -6.766  0.119E+00  0.119E+00
  -6.756  0.118E+00  0.118E+00
  -6.746  0.116E+00  0.116E+00
  -6.736  0.115E+00  0.115E+00
  -6.726  0.114E+00  0.114E+00
  -6.716  0.112E+00  0.112E+00
  -6.706  0.111E+00  0.111E+00
  -6.696  0.109E+00  0.109E+00
  -6.686  0.108E+00  0.108E+00
  -6.676  0.106E+00  0.106E+00
  -6.666  0.104E+00  0.104E+00
  -6.656  0.103E+00  0.103E+00
  -6.646  0.101E+00  0.101E+00
  -6.636  0.994E-01  0.994E-01
  -6.626  0.976E-01  0.976E-01
  -6.616  0.958E-01  0.958E-01
  -6.606  0.940E-01  0.940E-01
  -6.596  0.922E-01  0.922E-01
  -6.586  0.904E-01  0.904E-01
  -6.576  0.886E-01  0.886E-01
  -6.566  0.867E-01  0.867E-01
  -6.556  0.849E-01  0.849E-01
  -6.546  0.831E-01  0.831E-01
  -6.536  0.812E-01  0.812E-01
  -6.526  0.794E-01  0.794E-01
  -6.516  0.776E-01  0.776E-01
  -6.506  0.758E-01  0.758E-01
  -6.496  0.740E-01  0.740E-01
  -6.486  0.723E-01  0.723E-01
  -6.476  0.706E-01  0.706E-01
  -6.466  0.688E-01  0.688E-01
  -6.456  0.672E-01  0.672E-01
  -6.446  0.655E-01  0.655E-01
  -6.436  0.639E-01  0.639E-01
  -6.426  0.623E-01  0.623E-01
  -6.416  0.608E-01  0.608E-01
  -6.406  0.593E-01  0.593E-01
  -6.396  0.578E-01  0.578E-01
  -6.386  0.564E-01  0.564E-01
  -6.376  0.550E-01  0.550E-01
  -6.366  0.537E-01  0.537E-01
  -6.356  0.524E-01  0.524E-01
  -6.346  0.511E-01  0.511E-01
  -6.336  0.499E-01  0.499E-01
  -6.326  0.488E-01  0.488E-01
  -6.316  0.477E-01  0.477E-01
  -6.306  0.467E-01  0.467E-01
  -6.296  0.457E-01  0.457E-01
  -6.286  0.448E-01  0.448E-01
  -6.276  0.439E-01  0.439E-01
  -6.266  0.431E-01  0.431E-01
  -6.256  0.423E-01  0.423E-01
  -6.246  0.416E-01  0.416E-01
  -6.236  0.409E-01  0.409E-01
  -6.226  0.403E-01  0.403E-01
  -6.216  0.398E-01  0.398E-01
  -6.206  0.392E-01  0.392E-01
  -6.196  0.388E-01  0.388E-01
  -6.186  0.384E-01  0.384E-01
  -6.176  0.381E-01  0.381E-01
  -6.166  0.378E-01  0.378E-01
  -6.156  0.375E-01  0.375E-01
  -6.146  0.373E-01  0.373E-01
  -6.136  0.372E-01  0.372E-01
  -6.126  0.370E-01  0.370E-01
  -6.116  0.370E-01  0.370E-01
  -6.106  0.370E-01  0.370E-01
  -6.096  0.370E-01  0.370E-01
  -6.086  0.371E-01  0.371E-01
  -6.076  0.372E-01  0.372E-01
  -6.066  0.373E-01  0.373E-01
  -6.056  0.375E-01  0.375E-01
  -6.046  0.377E-01  0.377E-01
  -6.036  0.380E-01  0.380E-01
  -6.026  0.382E-01  0.382E-01
  -6.016  0.386E-01  0.386E-01
  -6.006  0.389E-01  0.389E-01
  -5.996  0.393E-01  0.393E-01
  -5.986  0.397E-01  0.397E-01
  -5.976  0.401E-01  0.401E-01
  -5.966  0.405E-01  0.405E-01
  -5.956  0.410E-01  0.410E-01
  -5.946  0.415E-01  0.415E-01
  -5.936  0.420E-01  0.420E-01
  -5.926  0.426E-01  0.426E-01
  -5.916  0.431E-01  0.431E-01
  -5.906  0.437E-01  0.437E-01
  -5.896  0.442E-01  0.442E-01
  -5.886  0.448E-01  0.448E-01
  -5.876  0.454E-01  0.454E-01
  -5.866  0.461E-01  0.461E-01
  -5.856  0.467E-01  0.467E-01
  -5.846  0.473E-01  0.473E-01
  -5.836  0.480E-01  0.480E-01
  -5.826  0.486E-01  0.486E-01
  -5.816  0.493E-01  0.493E-01
  -5.806  0.500E-01  0.500E-01
  -5.796  0.507E-01  0.507E-01
  -5.786  0.514E-01  0.514E-01
  -5.776  0.520E-01  0.520E-01
  -5.766  0.527E-01  0.527E-01
  -5.756  0.535E-01  0.535E-01
  -5.746  0.542E-01  0.542E-01
  -5.736  0.549E-01  0.549E-01
  -5.726  0.556E-01  0.556E-01
  -5.716  0.563E-01  0.563E-01
  -5.706  0.571E-01  0.571E-01
  -5.696  0.578E-01  0.578E-01
  -5.686  0.585E-01  0.585E-01
  -5.676  0.593E-01  0.593E-01
  -5.666  0.601E-01  0.601E-01
  -5.656  0.608E-01  0.608E-01
  -5.646  0.616E-01  0.616E-01
  -5.636  0.624E-01  0.624E-01
  -5.626  0.632E-01  0.632E-01
  -5.616  0.640E-01  0.640E-01
  -5.606  0.648E-01  0.648E-01
  -5.596  0.656E-01  0.656E-01
  -5.586  0.664E-01  0.664E-01
  -5.576  0.672E-01  0.672E-01
  -5.566  0.681E-01  0.681E-01
  -5.556  0.690E-01  0.690E-01
  -5.546  0.698E-01  0.698E-01
  -5.536  0.707E-01  0.707E-01
  -5.526  0.716E-01  0.716E-01
  -5.516  0.725E-01  0.725E-01
  -5.506  0.735E-01  0.735E-01
  -5.496  0.744E-01  0.744E-01
  -5.486  0.754E-01  0.754E-01
  -5.476  0.764E-01  0.764E-01
  -5.466  0.774E-01  0.774E-01
  -5.456  0.784E-01  0.784E-01
  -5.446  0.794E-01  0.794E-01
  -5.436  0.805E-01  0.805E-01
  -5.426  0.816E-01  0.816E-01
  -5.416  0.827E-01  0.827E-01
  -5.406  0.838E-01  0.838E-01
  -5.396  0.849E-01  0.849E-01
  -5.386  0.861E-01  0.861E-01
  -5.376  0.873E-01  0.873E-01
  -5.366  0.885E-01  0.885E-01
  -5.356  0.897E-01  0.897E-01
  -5.346  0.909E-01  0.909E-01
  -5.336  0.922E-01  0.922E-01
  -5.326  0.935E-01  0.935E-01
  -5.316  0.948E-01  0.948E-01
  -5.306  0.961E-01  0.961E-01
  -5.296  0.974E-01  0.974E-01
  -5.286  0.987E-01  0.987E-01
  -5.276  0.100E+00  0.100E+00
  -5.266  0.101E+00  0.101E+00
  -5.256  0.103E+00  0.103E+00
  -5.246  0.104E+00  0.104E+00
  -5.236  0.106E+00  0.106E+00
  -5.226  0.107E+00  0.107E+00
  -5.216  0.109E+00  0.109E+00
  -5.206  0.110E+00  0.110E+00
  -5.196  0.111E+00  0.111E+00
  -5.186  0.113E+00  0.113E+00
  -5.176  0.114E+00  0.114E+00
  -5.166  0.116E+00  0.116E+00
  -5.156  0.117E+00  0.117E+00
  -5.146  0.119E+00  0.119E+00
  -5.136  0.120E+00  0.120E+00
  -5.126  0.122E+00  0.122E+00
  -5.116  0.123E+00  0.123E+00
  -5.106  0.124E+00  0.124E+00
  -5.096  0.126E+00  0.126E+00
  -5.086  0.127E+00  0.127E+00
  -5.076  0.129E+00  0.129E+00
  -5.066  0.130E+00  0.130E+00
  -5.056  0.131E+00  0.131E+00
  -5.046  0.133E+00  0.133E+00
  -5.036  0.134E+00  0.134E+00
  -5.026  0.135E+00  0.135E+00
  -5.016  0.136E+00  0.136E+00
  -5.006  0.138E+00  0.138E+00
  -4.996  0.139E+00  0.139E+00
  -4.986  0.140E+00  0.140E+00
  -4.976  0.141E+00  0.141E+00
  -4.966  0.142E+00  0.142E+00
  -4.956  0.143E+00  0.143E+00
  -4.946  0.144E+00  0.144E+00
  -4.936  0.145E+00  0.145E+00
  -4.926  0.146E+00  0.146E+00
  -4.916  0.147E+00  0.147E+00
  -4.906  0.147E+00  0.147E+00
  -4.896  0.148E+00  0.148E+00
  -4.886  0.149E+00  0.149E+00
  -4.876  0.149E+00  0.149E+00
  -4.866  0.150E+00  0.150E+00
  -4.856  0.150E+00  0.150E+00
  -4.846  0.151E+00  0.151E+00
  -4.836  0.151E+00  0.151E+00
  -4.826  0.152E+00  0.152E+00
  -4.816  0.152E+00  0.152E+00
  -4.806  0.152E+00  0.152E+00
  -4.796  0.152E+00  0.152E+00
  -4.786  0.152E+00  0.152E+00
  -4.776  0.152E+00  0.152E+00
  -4.766  0.152E+00  0.152E+00
  -4.756  0.152E+00  0.152E+00
  -4.746  0.152E+00  0.152E+00
  -4.736  0.152E+00  0.152E+00
  -4.726  0.151E+00  0.151E+00
  -4.716  0.151E+00  0.151E+00
  -4.706  0.151E+00  0.151E+00
  -4.696  0.150E+00  0.150E+00
  -4.686  0.150E+00  0.150E+00
  -4.676  0.149E+00  0.149E+00
  -4.666  0.148E+00  0.148E+00
  -4.656  0.147E+00  0.147E+00
  -4.646  0.147E+00  0.147E+00
  -4.636  0.146E+00  0.146E+00
  -4.626  0.145E+00  0.145E+00
  -4.616  0.144E+00  0.144E+00
  -4.606  0.143E+00  0.143E+00
  -4.596  0.142E+00  0.142E+00
  -4.586  0.141E+00  0.141E+00
  -4.576  0.140E+00  0.140E+00
  -4.566  0.138E+00  0.138E+00
  -4.556  0.137E+00  0.137E+00
  -4.546  0.136E+00  0.136E+00
  -4.536  0.135E+00  0.135E+00
  -4.526  0.133E+00  0.133E+00
  -4.516  0.132E+00  0.132E+00
  -4.506  0.130E+00  0.130E+00
  -4.496  0.129E+00  0.129E+00
  -4.486  0.127E+00  0.127E+00
  -4.476  0.126E+00  0.126E+00
  -4.466  0.124E+00  0.124E+00
  -4.456  0.123E+00  0.123E+00
  -4.446  0.121E+00  0.121E+00
  -4.436  0.119E+00  0.119E+00
  -4.426  0.118E+00  0.118E+00
  -4.416  0.116E+00  0.116E+00
  -4.406  0.114E+00  0.114E+00
  -4.396  0.113E+00  0.113E+00
  -4.386  0.111E+00  0.111E+00
  -4.376  0.109E+00  0.109E+00
  -4.366  0.108E+00  0.108E+00
  -4.356  0.106E+00  0.106E+00
  -4.346  0.104E+00  0.104E+00
  -4.336  0.103E+00  0.103E+00
  -4.326  0.101E+00  0.101E+00
  -4.316  0.992E-01  0.992E-01
  -4.306  0.975E-01  0.975E-01
  -4.296  0.958E-01  0.958E-01
  -4.286  0.941E-01  0.941E-01
  -4.276  0.925E-01  0.925E-01
  -4.266  0.908E-01  0.908E-01
  -4.256  0.892E-01  0.892E-01
  -4.246  0.876E-01  0.876E-01
  -4.236  0.860E-01  0.860E-01
  -4.226  0.845E-01  0.845E-01
  -4.216  0.829E-01  0.829E-01
  -4.206  0.814E-01  0.814E-01
  -4.196  0.799E-01  0.799E-01
  -4.186  0.785E-01  0.785E-01
  -4.176  0.770E-01  0.770E-01
  -4.166  0.756E-01  0.756E-01
  -4.156  0.742E-01  0.742E-01
  -4.146  0.729E-01  0.729E-01
  -4.136  0.715E-01  0.715E-01
  -4.126  0.702E-01  0.702E-01
  -4.116  0.690E-01  0.690E-01
  -4.106  0.677E-01  0.677E-01
  -4.096  0.665E-01  0.665E-01
  -4.086  0.654E-01  0.654E-01
  -4.076  0.643E-01  0.643E-01
  -4.066  0.632E-01  0.632E-01
  -4.056  0.621E-01  0.621E-01
  -4.046  0.611E-01  0.611E-01
  -4.036  0.601E-01  0.601E-01
  -4.026  0.591E-01  0.591E-01
  -4.016  0.582E-01  0.582E-01
  -4.006  0.573E-01  0.573E-01
  -3.996  0.565E-01  0.565E-01
  -3.986  0.556E-01  0.556E-01
  -3.976  0.548E-01  0.548E-01
  -3.966  0.541E-01  0.541E-01
  -3.956  0.534E-01  0.534E-01
  -3.946  0.527E-01  0.527E-01
  -3.936  0.521E-01  0.521E-01
  -3.926  0.514E-01  0.514E-01
  -3.916  0.509E-01  0.509E-01
  -3.906  0.503E-01  0.503E-01
  -3.896  0.498E-01  0.498E-01
  -3.886  0.493E-01  0.493E-01
  -3.876  0.489E-01  0.489E-01
  -3.866  0.484E-01  0.484E-01
  -3.856  0.480E-01  0.480E-01
  -3.846  0.477E-01  0.477E-01
  -3.836  0.473E-01  0.473E-01
  -3.826  0.470E-01  0.470E-01
  -3.816  0.468E-01  0.468E-01
  -3.806  0.465E-01  0.465E-01
  -3.796  0.463E-01  0.463E-01
  -3.786  0.461E-01  0.461E-01
  -3.776  0.459E-01  0.459E-01
  -3.766  0.458E-01  0.458E-01
  -3.756  0.457E-01  0.457E-01
  -3.746  0.456E-01  0.456E-01
  -3.736  0.455E-01  0.455E-01
  -3.726  0.454E-01  0.454E-01
  -3.716  0.454E-01  0.454E-01
  -3.706  0.454E-01  0.454E-01
  -3.696  0.454E-01  0.454E-01
  -3.686  0.455E-01  0.455E-01
  -3.676  0.455E-01  0.455E-01
  -3.666  0.456E-01  0.456E-01
  -3.656  0.457E-01  0.457E-01
  -3.646  0.458E-01  0.458E-01
  -3.636  0.460E-01  0.460E-01
  -3.626  0.461E-01  0.461E-01
  -3.616  0.463E-01  0.463E-01
  -3.606  0.465E-01  0.465E-01
  -3.596  0.467E-01  0.467E-01
  -3.586  0.469E-01  0.469E-01
  -3.576  0.471E-01  0.471E-01
  -3.566  0.473E-01  0.473E-01
  -3.556  0.476E-01  0.476E-01
  -3.546  0.479E-01  0.479E-01
  -3.536  0.482E-01  0.482E-01
  -3.526  0.485E-01  0.485E-01
  -3.516  0.488E-01  0.488E-01
  -3.506  0.491E-01  0.491E-01
  -3.496  0.494E-01  0.494E-01
  -3.486  0.498E-01  0.498E-01
  -3.476  0.501E-01  0.501E-01
  -3.466  0.505E-01  0.505E-01
  -3.456  0.509E-01  0.509E-01
  -3.446  0.513E-01  0.513E-01
  -3.436  0.517E-01  0.517E-01
  -3.426  0.521E-01  0.521E-01
  -3.416  0.525E-01  0.525E-01
  -3.406  0.529E-01  0.529E-01
  -3.396  0.533E-01  0.533E-01
  -3.386  0.537E-01  0.537E-01
  -3.376  0.542E-01  0.542E-01
  -3.366  0.546E-01  0.546E-01
  -3.356  0.550E-01  0.550E-01
  -3.346  0.555E-01  0.555E-01
  -3.336  0.560E-01  0.560E-01
  -3.326  0.564E-01  0.564E-01
  -3.316  0.569E-01  0.569E-01
  -3.306  0.573E-01  0.573E-01
  -3.296  0.578E-01  0.578E-01
  -3.286  0.583E-01  0.583E-01
  -3.276  0.587E-01  0.587E-01
  -3.266  0.592E-01  0.592E-01
  -3.256  0.597E-01  0.597E-01
  -3.246  0.601E-01  0.601E-01
  -3.236  0.606E-01  0.606E-01
  -3.226  0.611E-01  0.611E-01
  -3.216  0.615E-01  0.615E-01
  -3.206  0.620E-01  0.620E-01
  -3.196  0.624E-01  0.624E-01
  -3.186  0.629E-01  0.629E-01
  -3.176  0.633E-01  0.633E-01
  -3.166  0.638E-01  0.638E-01
  -3.156  0.642E-01  0.642E-01
  -3.146  0.647E-01  0.647E-01
  -3.136  0.651E-01  0.651E-01
  -3.126  0.655E-01  0.655E-01
  -3.116  0.659E-01  0.659E-01
  -3.106  0.663E-01  0.663E-01
  -3.096  0.667E-01  0.667E-01
  -3.086  0.671E-01  0.671E-01
  -3.076  0.674E-01  0.674E-01
  -3.066  0.678E-01  0.678E-01
  -3.056  0.682E-01  0.682E-01
  -3.046  0.685E-01  0.685E-01
  -3.036  0.688E-01  0.688E-01
  -3.026  0.691E-01  0.691E-01
  -3.016  0.694E-01  0.694E-01
  -3.006  0.697E-01  0.697E-01
  -2.996  0.700E-01  0.700E-01
  -2.986  0.703E-01  0.703E-01
  -2.976  0.705E-01  0.705E-01
  -2.966  0.708E-01  0.708E-01
  -2.956  0.710E-01  0.710E-01
  -2.946  0.712E-01  0.712E-01
  -2.936  0.714E-01  0.714E-01
  -2.926  0.715E-01  0.715E-01
  -2.916  0.717E-01  0.717E-01
  -2.906  0.719E-01  0.719E-01
  -2.896  0.720E-01  0.720E-01
  -2.886  0.721E-01  0.721E-01
  -2.876  0.722E-01  0.722E-01
  -2.866  0.723E-01  0.723E-01
  -2.856  0.724E-01  0.724E-01
  -2.846  0.724E-01  0.724E-01
  -2.836  0.725E-01  0.725E-01
  -2.826  0.725E-01  0.725E-01
  -2.816  0.725E-01  0.725E-01
  -2.806  0.725E-01  0.725E-01
  -2.796  0.725E-01  0.725E-01
  -2.786  0.725E-01  0.725E-01
  -2.776  0.724E-01  0.724E-01
  -2.766  0.724E-01  0.724E-01
  -2.756  0.723E-01  0.723E-01
  -2.746  0.723E-01  0.723E-01
  -2.736  0.722E-01  0.722E-01
  -2.726  0.721E-01  0.721E-01
  -2.716  0.720E-01  0.720E-01
  -2.706  0.719E-01  0.719E-01
  -2.696  0.718E-01  0.718E-01
  -2.686  0.717E-01  0.717E-01
  -2.676  0.716E-01  0.716E-01
  -2.666  0.714E-01  0.714E-01
  -2.656  0.713E-01  0.713E-01
  -2.646  0.712E-01  0.712E-01
  -2.636  0.711E-01  0.711E-01
  -2.626  0.710E-01  0.710E-01
  -2.616  0.708E-01  0.708E-01
  -2.606  0.707E-01  0.707E-01
  -2.596  0.706E-01  0.706E-01
  -2.586  0.705E-01  0.705E-01
  -2.576  0.704E-01  0.704E-01
  -2.566  0.703E-01  0.703E-01
  -2.556  0.702E-01  0.702E-01
  -2.546  0.701E-01  0.701E-01
  -2.536  0.700E-01  0.700E-01
  -2.526  0.700E-01  0.700E-01
  -2.516  0.699E-01  0.699E-01
  -2.506  0.699E-01  0.699E-01
  -2.496  0.698E-01  0.698E-01
  -2.486  0.698E-01  0.698E-01
  -2.476  0.698E-01  0.698E-01
  -2.466  0.699E-01  0.699E-01
  -2.456  0.699E-01  0.699E-01
  -2.446  0.700E-01  0.700E-01
  -2.436  0.700E-01  0.700E-01
  -2.426  0.701E-01  0.701E-01
  -2.416  0.702E-01  0.702E-01
  -2.406  0.704E-01  0.704E-01
  -2.396  0.705E-01  0.705E-01
  -2.386  0.707E-01  0.707E-01
  -2.376  0.709E-01  0.709E-01
  -2.366  0.712E-01  0.712E-01
  -2.356  0.714E-01  0.714E-01
  -2.346  0.717E-01  0.717E-01
  -2.336  0.720E-01  0.720E-01
  -2.326  0.723E-01  0.723E-01
  -2.316  0.726E-01  0.726E-01
  -2.306  0.730E-01  0.730E-01
  -2.296  0.734E-01  0.734E-01
  -2.286  0.738E-01  0.738E-01
  -2.276  0.743E-01  0.743E-01
  -2.266  0.747E-01  0.747E-01
  -2.256  0.752E-01  0.752E-01
  -2.246  0.757E-01  0.757E-01
  -2.236  0.763E-01  0.763E-01
  -2.226  0.768E-01  0.768E-01
  -2.216  0.774E-01  0.774E-01
  -2.206  0.780E-01  0.780E-01
  -2.196  0.786E-01  0.786E-01
  -2.186  0.793E-01  0.793E-01
  -2.176  0.799E-01  0.799E-01
  -2.166  0.806E-01  0.806E-01
  -2.156  0.813E-01  0.813E-01
  -2.146  0.820E-01  0.820E-01
  -2.136  0.827E-01  0.827E-01
  -2.126  0.834E-01  0.834E-01
  -2.116  0.842E-01  0.842E-01
  -2.106  0.849E-01  0.849E-01
  -2.096  0.857E-01  0.857E-01
  -2.086  0.864E-01  0.864E-01
  -2.076  0.872E-01  0.872E-01
  -2.066  0.880E-01  0.880E-01
  -2.056  0.888E-01  0.888E-01
  -2.046  0.896E-01  0.896E-01
  -2.036  0.904E-01  0.904E-01
  -2.026  0.911E-01  0.911E-01
  -2.016  0.919E-01  0.919E-01
  -2.006  0.927E-01  0.927E-01
  -1.996  0.935E-01  0.935E-01
  -1.986  0.943E-01  0.943E-01
  -1.976  0.950E-01  0.950E-01
  -1.966  0.958E-01  0.958E-01
  -1.956  0.965E-01  0.965E-01
  -1.946  0.972E-01  0.972E-01
  -1.936  0.979E-01  0.979E-01
  -1.926  0.986E-01  0.986E-01
  -1.916  0.993E-01  0.993E-01
  -1.906  0.100E+00  0.100E+00
  -1.896  0.101E+00  0.101E+00
  -1.886  0.101E+00  0.101E+00
  -1.876  0.102E+00  0.102E+00
  -1.866  0.102E+00  0.102E+00
  -1.856  0.103E+00  0.103E+00
  -1.846  0.103E+00  0.103E+00
  -1.836  0.104E+00  0.104E+00
  -1.826  0.104E+00  0.104E+00
  -1.816  0.105E+00  0.105E+00
  -1.806  0.105E+00  0.105E+00
  -1.796  0.106E+00  0.106E+00
  -1.786  0.106E+00  0.106E+00
  -1.776  0.106E+00  0.106E+00
  -1.766  0.107E+00  0.107E+00
  -1.756  0.107E+00  0.107E+00
  -1.746  0.107E+00  0.107E+00
  -1.736  0.107E+00  0.107E+00
  -1.726  0.107E+00  0.107E+00
  -1.716  0.107E+00  0.107E+00
  -1.706  0.108E+00  0.108E+00
  -1.696  0.108E+00  0.108E+00
  -1.686  0.108E+00  0.108E+00
  -1.676  0.108E+00  0.108E+00
  -1.666  0.108E+00  0.108E+00
  -1.656  0.107E+00  0.107E+00
  -1.646  0.107E+00  0.107E+00
  -1.636  0.107E+00  0.107E+00
  -1.626  0.107E+00  0.107E+00
  -1.616  0.107E+00  0.107E+00
  -1.606  0.106E+00  0.106E+00
  -1.596  0.106E+00  0.106E+00
  -1.586  0.106E+00  0.106E+00
  -1.576  0.106E+00  0.106E+00
  -1.566  0.105E+00  0.105E+00
  -1.556  0.105E+00  0.105E+00
  -1.546  0.104E+00  0.104E+00
  -1.536  0.104E+00  0.104E+00
  -1.526  0.103E+00  0.103E+00
  -1.516  0.103E+00  0.103E+00
  -1.506  0.102E+00  0.102E+00
  -1.496  0.102E+00  0.102E+00
  -1.486  0.101E+00  0.101E+00
  -1.476  0.101E+00  0.101E+00
  -1.466  0.100E+00  0.100E+00
  -1.456  0.997E-01  0.997E-01
  -1.446  0.992E-01  0.992E-01
  -1.436  0.986E-01  0.986E-01
  -1.426  0.980E-01  0.980E-01
  -1.416  0.973E-01  0.973E-01
  -1.406  0.967E-01  0.967E-01
  -1.396  0.961E-01  0.961E-01
  -1.386  0.955E-01  0.955E-01
  -1.376  0.949E-01  0.949E-01
  -1.366  0.943E-01  0.943E-01
  -1.356  0.937E-01  0.937E-01
  -1.346  0.931E-01  0.931E-01
  -1.336  0.925E-01  0.925E-01
  -1.326  0.919E-01  0.919E-01
  -1.316  0.913E-01  0.913E-01
  -1.306  0.907E-01  0.907E-01
  -1.296  0.902E-01  0.902E-01
  -1.286  0.896E-01  0.896E-01
  -1.276  0.891E-01  0.891E-01
  -1.266  0.886E-01  0.886E-01
  -1.256  0.881E-01  0.881E-01
  -1.246  0.876E-01  0.876E-01
  -1.236  0.871E-01  0.871E-01
  -1.226  0.867E-01  0.867E-01
  -1.216  0.863E-01  0.863E-01
  -1.206  0.858E-01  0.858E-01
  -1.196  0.855E-01  0.855E-01
  -1.186  0.851E-01  0.851E-01
  -1.176  0.848E-01  0.848E-01
  -1.166  0.845E-01  0.845E-01
  -1.156  0.842E-01  0.842E-01
  -1.146  0.839E-01  0.839E-01
  -1.136  0.836E-01  0.836E-01
  -1.126  0.834E-01  0.834E-01
  -1.116  0.832E-01  0.832E-01
  -1.106  0.830E-01  0.830E-01
  -1.096  0.829E-01  0.829E-01
  -1.086  0.828E-01  0.828E-01
  -1.076  0.827E-01  0.827E-01
  -1.066  0.826E-01  0.826E-01
  -1.056  0.825E-01  0.825E-01
  -1.046  0.824E-01  0.824E-01
  -1.036  0.824E-01  0.824E-01
  -1.026  0.824E-01  0.824E-01
  -1.016  0.824E-01  0.824E-01
  -1.006  0.824E-01  0.824E-01
  -0.996  0.825E-01  0.825E-01
  -0.986  0.825E-01  0.825E-01
  -0.976  0.826E-01  0.826E-01
  -0.966  0.827E-01  0.827E-01
  -0.956  0.828E-01  0.828E-01
  -0.946  0.829E-01  0.829E-01
  -0.936  0.830E-01  0.830E-01
  -0.926  0.831E-01  0.831E-01
  -0.916  0.833E-01  0.833E-01
  -0.906  0.834E-01  0.834E-01
  -0.896  0.836E-01  0.836E-01
  -0.886  0.837E-01  0.837E-01
  -0.876  0.838E-01  0.838E-01
  -0.866  0.840E-01  0.840E-01
  -0.856  0.841E-01  0.841E-01
  -0.846  0.843E-01  0.843E-01
  -0.836  0.844E-01  0.844E-01
  -0.826  0.845E-01  0.845E-01
  -0.816  0.847E-01  0.847E-01
  -0.806  0.848E-01  0.848E-01
  -0.796  0.849E-01  0.849E-01
  -0.786  0.850E-01  0.850E-01
  -0.776  0.851E-01  0.851E-01
  -0.766  0.852E-01  0.852E-01
  -0.756  0.852E-01  0.852E-01
  -0.746  0.853E-01  0.853E-01
  -0.736  0.853E-01  0.853E-01
  -0.726  0.854E-01  0.854E-01
  -0.716  0.854E-01  0.854E-01
  -0.706  0.854E-01  0.854E-01
  -0.696  0.853E-01  0.853E-01
  -0.686  0.853E-01  0.853E-01
  -0.676  0.852E-01  0.852E-01
  -0.666  0.852E-01  0.852E-01
  -0.656  0.851E-01  0.851E-01
  -0.646  0.849E-01  0.849E-01
  -0.636  0.848E-01  0.848E-01
  -0.626  0.847E-01  0.847E-01
  -0.616  0.845E-01  0.845E-01
  -0.606  0.843E-01  0.843E-01
  -0.596  0.841E-01  0.841E-01
  -0.586  0.838E-01  0.838E-01
  -0.576  0.836E-01  0.836E-01
  -0.566  0.833E-01  0.833E-01
  -0.556  0.830E-01  0.830E-01
  -0.546  0.828E-01  0.828E-01
  -0.536  0.824E-01  0.824E-01
  -0.526  0.821E-01  0.821E-01
  -0.516  0.818E-01  0.818E-01
  -0.506  0.814E-01  0.814E-01
  -0.496  0.810E-01  0.810E-01
  -0.486  0.806E-01  0.806E-01
  -0.476  0.802E-01  0.802E-01
  -0.466  0.798E-01  0.798E-01
  -0.456  0.794E-01  0.794E-01
  -0.446  0.790E-01  0.790E-01
  -0.436  0.786E-01  0.786E-01
  -0.426  0.781E-01  0.781E-01
  -0.416  0.777E-01  0.777E-01
  -0.406  0.772E-01  0.772E-01
  -0.396  0.768E-01  0.768E-01
  -0.386  0.763E-01  0.763E-01
  -0.376  0.759E-01  0.759E-01
  -0.366  0.754E-01  0.754E-01
  -0.356  0.750E-01  0.750E-01
  -0.346  0.745E-01  0.745E-01
  -0.336  0.741E-01  0.741E-01
  -0.326  0.736E-01  0.736E-01
  -0.316  0.732E-01  0.732E-01
  -0.306  0.728E-01  0.728E-01
  -0.296  0.724E-01  0.724E-01
  -0.286  0.719E-01  0.719E-01
  -0.276  0.715E-01  0.715E-01
  -0.266  0.711E-01  0.711E-01
  -0.256  0.707E-01  0.707E-01
  -0.246  0.704E-01  0.704E-01
  -0.236  0.700E-01  0.700E-01
  -0.226  0.697E-01  0.697E-01
  -0.216  0.693E-01  0.693E-01
  -0.206  0.690E-01  0.690E-01
  -0.196  0.687E-01  0.687E-01
  -0.186  0.684E-01  0.684E-01
  -0.176  0.681E-01  0.681E-01
  -0.166  0.678E-01  0.678E-01
  -0.156  0.676E-01  0.676E-01
  -0.146  0.673E-01  0.673E-01
  -0.136  0.671E-01  0.671E-01
  -0.126  0.669E-01  0.669E-01
  -0.116  0.667E-01  0.667E-01
  -0.106  0.665E-01  0.665E-01
  -0.096  0.663E-01  0.663E-01
  -0.086  0.662E-01  0.662E-01
  -0.076  0.660E-01  0.660E-01
  -0.066  0.659E-01  0.659E-01
  -0.056  0.658E-01  0.658E-01
  -0.046  0.656E-01  0.656E-01
  -0.036  0.656E-01  0.656E-01
  -0.026  0.655E-01  0.655E-01
  -0.016  0.654E-01  0.654E-01
  -0.006  0.653E-01  0.653E-01
   0.004  0.653E-01  0.653E-01
   0.014  0.652E-01  0.652E-01
   0.024  0.652E-01  0.652E-01
   0.034  0.651E-01  0.651E-01
   0.044  0.651E-01  0.651E-01
   0.054  0.651E-01  0.651E-01
   0.064  0.651E-01  0.651E-01
   0.074  0.650E-01  0.650E-01
   0.084  0.650E-01  0.650E-01
   0.094  0.650E-01  0.650E-01
   0.104  0.650E-01  0.650E-01
   0.114  0.650E-01  0.650E-01
   0.124  0.650E-01  0.650E-01
   0.134  0.650E-01  0.650E-01
   0.144  0.650E-01  0.650E-01
   0.154  0.650E-01  0.650E-01
   0.164  0.649E-01  0.649E-01
   0.174  0.649E-01  0.649E-01
   0.184  0.649E-01  0.649E-01
   0.194  0.649E-01  0.649E-01
   0.204  0.649E-01  0.649E-01
   0.214  0.648E-01  0.648E-01
   0.224  0.648E-01  0.648E-01
   0.234  0.648E-01  0.648E-01
   0.244  0.647E-01  0.647E-01
   0.254  0.647E-01  0.647E-01
   0.264  0.646E-01  0.646E-01
   0.274  0.646E-01  0.646E-01
   0.284  0.645E-01  0.645E-01
   0.294  0.645E-01  0.645E-01
   0.304  0.644E-01  0.644E-01
   0.314  0.643E-01  0.643E-01
   0.324  0.642E-01  0.642E-01
   0.334  0.642E-01  0.642E-01
   0.344  0.641E-01  0.641E-01
   0.354  0.640E-01  0.640E-01
   0.364  0.639E-01  0.639E-01
   0.374  0.639E-01  0.639E-01
   0.384  0.638E-01  0.638E-01
   0.394  0.637E-01  0.637E-01
   0.404  0.636E-01  0.636E-01
   0.414  0.636E-01  0.636E-01
   0.424  0.635E-01  0.635E-01
   0.434  0.634E-01  0.634E-01
   0.444  0.634E-01  0.634E-01
   0.454  0.633E-01  0.633E-01
   0.464  0.633E-01  0.633E-01
   0.474  0.633E-01  0.633E-01
   0.484  0.633E-01  0.633E-01
   0.494  0.633E-01  0.633E-01
   0.504  0.633E-01  0.633E-01
   0.514  0.633E-01  0.633E-01
   0.524  0.633E-01  0.633E-01
   0.534  0.634E-01  0.634E-01
   0.544  0.635E-01  0.635E-01
   0.554  0.636E-01  0.636E-01
   0.564  0.637E-01  0.637E-01
   0.574  0.638E-01  0.638E-01
   0.584  0.640E-01  0.640E-01
   0.594  0.641E-01  0.641E-01
   0.604  0.644E-01  0.644E-01
   0.614  0.646E-01  0.646E-01
   0.624  0.649E-01  0.649E-01
   0.634  0.651E-01  0.651E-01
   0.644  0.655E-01  0.655E-01
   0.654  0.658E-01  0.658E-01
   0.664  0.662E-01  0.662E-01
   0.674  0.666E-01  0.666E-01
   0.684  0.671E-01  0.671E-01
   0.694  0.675E-01  0.675E-01
   0.704  0.681E-01  0.681E-01
   0.714  0.686E-01  0.686E-01
   0.724  0.692E-01  0.692E-01
   0.734  0.698E-01  0.698E-01
   0.744  0.705E-01  0.705E-01
   0.754  0.711E-01  0.711E-01
   0.764  0.719E-01  0.719E-01
   0.774  0.726E-01  0.726E-01
   0.784  0.734E-01  0.734E-01
   0.794  0.743E-01  0.743E-01
   0.804  0.751E-01  0.751E-01
   0.814  0.760E-01  0.760E-01
   0.824  0.770E-01  0.770E-01
   0.834  0.779E-01  0.779E-01
   0.844  0.789E-01  0.789E-01
   0.854  0.800E-01  0.800E-01
   0.864  0.810E-01  0.810E-01
   0.874  0.821E-01  0.821E-01
   0.884  0.833E-01  0.833E-01
   0.894  0.844E-01  0.844E-01
   0.904  0.856E-01  0.856E-01
   0.914  0.868E-01  0.868E-01
   0.924  0.881E-01  0.881E-01
   0.934  0.893E-01  0.893E-01
   0.944  0.906E-01  0.906E-01
   0.954  0.919E-01  0.919E-01
   0.964  0.932E-01  0.932E-01
   0.974  0.946E-01  0.946E-01
   0.984  0.960E-01  0.960E-01
   0.994  0.973E-01  0.973E-01
   1.004  0.987E-01  0.987E-01
   1.014  0.100E+00  0.100E+00
   1.024  0.102E+00  0.102E+00
   1.034  0.103E+00  0.103E+00
   1.044  0.104E+00  0.104E+00
   1.054  0.106E+00  0.106E+00
   1.064  0.107E+00  0.107E+00
   1.074  0.109E+00  0.109E+00
   1.084  0.110E+00  0.110E+00
   1.094  0.111E+00  0.111E+00
   1.104  0.113E+00  0.113E+00
   1.114  0.114E+00  0.114E+00
   1.124  0.116E+00  0.116E+00
   1.134  0.117E+00  0.117E+00
   1.144  0.118E+00  0.118E+00
   1.154  0.120E+00  0.120E+00
   1.164  0.121E+00  0.121E+00
   1.174  0.122E+00  0.122E+00
   1.184  0.123E+00  0.123E+00
   1.194  0.125E+00  0.125E+00
   1.204  0.126E+00  0.126E+00
   1.214  0.127E+00  0.127E+00
   1.224  0.128E+00  0.128E+00
   1.234  0.129E+00  0.129E+00
   1.244  0.130E+00  0.130E+00
   1.254  0.131E+00  0.131E+00
   1.264  0.132E+00  0.132E+00
   1.274  0.133E+00  0.133E+00
   1.284  0.134E+00  0.134E+00
   1.294  0.135E+00  0.135E+00
   1.304  0.136E+00  0.136E+00
   1.314  0.137E+00  0.137E+00
   1.324  0.137E+00  0.137E+00
   1.334  0.138E+00  0.138E+00
   1.344  0.139E+00  0.139E+00
   1.354  0.139E+00  0.139E+00
   1.364  0.140E+00  0.140E+00
   1.374  0.140E+00  0.140E+00
   1.384  0.141E+00  0.141E+00
   1.394  0.141E+00  0.141E+00
   1.404  0.141E+00  0.141E+00
   1.414  0.141E+00  0.141E+00
   1.424  0.142E+00  0.142E+00
   1.434  0.142E+00  0.142E+00
   1.444  0.142E+00  0.142E+00
   1.454  0.142E+00  0.142E+00
   1.464  0.142E+00  0.142E+00
   1.474  0.142E+00  0.142E+00
   1.484  0.142E+00  0.142E+00
   1.494  0.141E+00  0.141E+00
   1.504  0.141E+00  0.141E+00
   1.514  0.141E+00  0.141E+00
   1.524  0.140E+00  0.140E+00
   1.534  0.140E+00  0.140E+00
   1.544  0.140E+00  0.140E+00
   1.554  0.139E+00  0.139E+00
   1.564  0.138E+00  0.138E+00
   1.574  0.138E+00  0.138E+00
   1.584  0.137E+00  0.137E+00
   1.594  0.136E+00  0.136E+00
   1.604  0.136E+00  0.136E+00
   1.614  0.135E+00  0.135E+00
   1.624  0.134E+00  0.134E+00
   1.634  0.133E+00  0.133E+00
   1.644  0.132E+00  0.132E+00
   1.654  0.131E+00  0.131E+00
   1.664  0.130E+00  0.130E+00
   1.674  0.129E+00  0.129E+00
   1.684  0.128E+00  0.128E+00
   1.694  0.127E+00  0.127E+00
   1.704  0.126E+00  0.126E+00
   1.714  0.125E+00  0.125E+00
   1.724  0.124E+00  0.124E+00
   1.734  0.122E+00  0.122E+00
   1.744  0.121E+00  0.121E+00
   1.754  0.120E+00  0.120E+00
   1.764  0.119E+00  0.119E+00
   1.774  0.118E+00  0.118E+00
   1.784  0.116E+00  0.116E+00
   1.794  0.115E+00  0.115E+00
   1.804  0.114E+00  0.114E+00
   1.814  0.113E+00  0.113E+00
   1.824  0.111E+00  0.111E+00
   1.834  0.110E+00  0.110E+00
   1.844  0.109E+00  0.109E+00
   1.854  0.107E+00  0.107E+00
   1.864  0.106E+00  0.106E+00
   1.874  0.105E+00  0.105E+00
   1.884  0.104E+00  0.104E+00
   1.894  0.102E+00  0.102E+00
   1.904  0.101E+00  0.101E+00
   1.914  0.100E+00  0.100E+00
   1.924  0.989E-01  0.989E-01
   1.934  0.977E-01  0.977E-01
   1.944  0.966E-01  0.966E-01
   1.954  0.955E-01  0.955E-01
   1.964  0.944E-01  0.944E-01
   1.974  0.934E-01  0.934E-01
   1.984  0.924E-01  0.924E-01
   1.994  0.914E-01  0.914E-01
   2.004  0.904E-01  0.904E-01
   2.014  0.895E-01  0.895E-01
   2.024  0.886E-01  0.886E-01
   2.034  0.878E-01  0.878E-01
   2.044  0.870E-01  0.870E-01
   2.054  0.862E-01  0.862E-01
   2.064  0.855E-01  0.855E-01
   2.074  0.848E-01  0.848E-01
   2.084  0.842E-01  0.842E-01
   2.094  0.836E-01  0.836E-01
   2.104  0.830E-01  0.830E-01
   2.114  0.825E-01  0.825E-01
   2.124  0.821E-01  0.821E-01
   2.134  0.816E-01  0.816E-01
   2.144  0.813E-01  0.813E-01
   2.154  0.810E-01  0.810E-01
   2.164  0.807E-01  0.807E-01
   2.174  0.805E-01  0.805E-01
   2.184  0.803E-01  0.803E-01
   2.194  0.802E-01  0.802E-01
   2.204  0.801E-01  0.801E-01
   2.214  0.801E-01  0.801E-01
   2.224  0.801E-01  0.801E-01
   2.234  0.802E-01  0.802E-01
   2.244  0.803E-01  0.803E-01
   2.254  0.805E-01  0.805E-01
   2.264  0.807E-01  0.807E-01
   2.274  0.809E-01  0.809E-01
   2.284  0.812E-01  0.812E-01
   2.294  0.816E-01  0.816E-01
   2.304  0.819E-01  0.819E-01
   2.314  0.824E-01  0.824E-01
   2.324  0.828E-01  0.828E-01
   2.334  0.833E-01  0.833E-01
   2.344  0.839E-01  0.839E-01
   2.354  0.845E-01  0.845E-01
   2.364  0.851E-01  0.851E-01
   2.374  0.857E-01  0.857E-01
   2.384  0.864E-01  0.864E-01
   2.394  0.871E-01  0.871E-01
   2.404  0.879E-01  0.879E-01
   2.414  0.886E-01  0.886E-01
   2.424  0.894E-01  0.894E-01
   2.434  0.902E-01  0.902E-01
   2.444  0.911E-01  0.911E-01
   2.454  0.919E-01  0.919E-01
   2.464  0.928E-01  0.928E-01
   2.474  0.937E-01  0.937E-01
   2.484  0.946E-01  0.946E-01
   2.494  0.955E-01  0.955E-01
   2.504  0.964E-01  0.964E-01
   2.514  0.974E-01  0.974E-01
   2.524  0.983E-01  0.983E-01
   2.534  0.992E-01  0.992E-01
   2.544  0.100E+00  0.100E+00
   2.554  0.101E+00  0.101E+00
   2.564  0.102E+00  0.102E+00
   2.574  0.103E+00  0.103E+00
   2.584  0.104E+00  0.104E+00
   2.594  0.105E+00  0.105E+00
   2.604  0.106E+00  0.106E+00
   2.614  0.107E+00  0.107E+00
   2.624  0.107E+00  0.107E+00
   2.634  0.108E+00  0.108E+00
   2.644  0.109E+00  0.109E+00
   2.654  0.110E+00  0.110E+00
   2.664  0.111E+00  0.111E+00
   2.674  0.112E+00  0.112E+00
   2.684  0.112E+00  0.112E+00
   2.694  0.113E+00  0.113E+00
   2.704  0.114E+00  0.114E+00
   2.714  0.114E+00  0.114E+00
   2.724  0.115E+00  0.115E+00
   2.734  0.115E+00  0.115E+00
   2.744  0.116E+00  0.116E+00
   2.754  0.116E+00  0.116E+00
   2.764  0.117E+00  0.117E+00
   2.774  0.117E+00  0.117E+00
   2.784  0.118E+00  0.118E+00
   2.794  0.118E+00  0.118E+00
   2.804  0.118E+00  0.118E+00
   2.814  0.118E+00  0.118E+00
   2.824  0.119E+00  0.119E+00
   2.834  0.119E+00  0.119E+00
   2.844  0.119E+00  0.119E+00
   2.854  0.119E+00  0.119E+00
   2.864  0.119E+00  0.119E+00
   2.874  0.119E+00  0.119E+00
   2.884  0.119E+00  0.119E+00
   2.894  0.118E+00  0.118E+00
   2.904  0.118E+00  0.118E+00
   2.914  0.118E+00  0.118E+00
   2.924  0.117E+00  0.117E+00
   2.934  0.117E+00  0.117E+00
   2.944  0.117E+00  0.117E+00
   2.954  0.116E+00  0.116E+00
   2.964  0.115E+00  0.115E+00
   2.974  0.115E+00  0.115E+00
   2.984  0.114E+00  0.114E+00
   2.994  0.113E+00  0.113E+00
   3.004  0.113E+00  0.113E+00
   3.014  0.112E+00  0.112E+00
   3.024  0.111E+00  0.111E+00
   3.034  0.110E+00  0.110E+00
   3.044  0.109E+00  0.109E+00
   3.054  0.108E+00  0.108E+00
   3.064  0.107E+00  0.107E+00
   3.074  0.106E+00  0.106E+00
   3.084  0.105E+00  0.105E+00
   3.094  0.104E+00  0.104E+00
   3.104  0.102E+00  0.102E+00
   3.114  0.101E+00  0.101E+00
   3.124  0.997E-01  0.997E-01
   3.134  0.984E-01  0.984E-01
   3.144  0.970E-01  0.970E-01
   3.154  0.956E-01  0.956E-01
   3.164  0.941E-01  0.941E-01
   3.174  0.926E-01  0.926E-01
   3.184  0.911E-01  0.911E-01
   3.194  0.895E-01  0.895E-01
   3.204  0.880E-01  0.880E-01
   3.214  0.864E-01  0.864E-01
   3.224  0.847E-01  0.847E-01
   3.234  0.831E-01  0.831E-01
   3.244  0.814E-01  0.814E-01
   3.254  0.798E-01  0.798E-01
   3.264  0.781E-01  0.781E-01
   3.274  0.764E-01  0.764E-01
   3.284  0.746E-01  0.746E-01
   3.294  0.729E-01  0.729E-01
   3.304  0.712E-01  0.712E-01
   3.314  0.694E-01  0.694E-01
   3.324  0.677E-01  0.677E-01
   3.334  0.659E-01  0.659E-01
   3.344  0.641E-01  0.641E-01
   3.354  0.624E-01  0.624E-01
   3.364  0.606E-01  0.606E-01
   3.374  0.589E-01  0.589E-01
   3.384  0.571E-01  0.571E-01
   3.394  0.554E-01  0.554E-01
   3.404  0.537E-01  0.537E-01
   3.414  0.519E-01  0.519E-01
   3.424  0.502E-01  0.502E-01
   3.434  0.485E-01  0.485E-01
   3.444  0.468E-01  0.468E-01
   3.454  0.452E-01  0.452E-01
   3.464  0.435E-01  0.435E-01
   3.474  0.419E-01  0.419E-01
   3.484  0.403E-01  0.403E-01
   3.494  0.387E-01  0.387E-01
   3.504  0.371E-01  0.371E-01
   3.514  0.356E-01  0.356E-01
   3.524  0.340E-01  0.340E-01
   3.534  0.325E-01  0.325E-01
   3.544  0.311E-01  0.311E-01
   3.554  0.296E-01  0.296E-01
   3.564  0.282E-01  0.282E-01
   3.574  0.268E-01  0.268E-01
   3.584  0.254E-01  0.254E-01
   3.594  0.241E-01  0.241E-01
   3.604  0.228E-01  0.228E-01
   3.614  0.215E-01  0.215E-01
   3.624  0.203E-01  0.203E-01
   3.634  0.191E-01  0.191E-01
   3.644  0.179E-01  0.179E-01
   3.654  0.168E-01  0.168E-01
   3.664  0.157E-01  0.157E-01
   3.674  0.146E-01  0.146E-01
   3.684  0.135E-01  0.135E-01
   3.694  0.125E-01  0.125E-01
   3.704  0.115E-01  0.115E-01
   3.714  0.106E-01  0.106E-01
   3.724  0.966E-02  0.966E-02
   3.734  0.878E-02  0.878E-02
   3.744  0.792E-02  0.792E-02
   3.754  0.710E-02  0.710E-02
   3.764  0.632E-02  0.632E-02
   3.774  0.556E-02  0.556E-02
   3.784  0.483E-02  0.483E-02
   3.794  0.414E-02  0.414E-02
   3.804  0.348E-02  0.348E-02
   3.814  0.284E-02  0.284E-02
   3.824  0.224E-02  0.224E-02
   3.834  0.167E-02  0.167E-02
   3.844  0.112E-02  0.112E-02
   3.854  0.604E-03  0.604E-03
   3.864  0.115E-03  0.115E-03
   3.874 -0.347E-03 -0.347E-03
   3.884 -0.783E-03 -0.783E-03
   3.894 -0.119E-02 -0.119E-02
   3.904 -0.158E-02 -0.158E-02
   3.914 -0.194E-02 -0.194E-02
   3.924 -0.227E-02 -0.227E-02
   3.934 -0.259E-02 -0.259E-02
   3.944 -0.288E-02 -0.288E-02
   3.954 -0.314E-02 -0.314E-02
   3.964 -0.339E-02 -0.339E-02
   3.974 -0.362E-02 -0.362E-02
   3.984 -0.382E-02 -0.382E-02
   3.994 -0.401E-02 -0.401E-02
   4.004 -0.418E-02 -0.418E-02
   4.014 -0.433E-02 -0.433E-02
   4.024 -0.447E-02 -0.447E-02
   4.034 -0.459E-02 -0.459E-02
   4.044 -0.469E-02 -0.469E-02
   4.054 -0.478E-02 -0.478E-02
   4.064 -0.485E-02 -0.485E-02
   4.074 -0.491E-02 -0.491E-02
   4.084 -0.496E-02 -0.496E-02
   4.094 -0.500E-02 -0.500E-02
   4.104 -0.502E-02 -0.502E-02
   4.114 -0.503E-02 -0.503E-02
   4.124 -0.504E-02 -0.504E-02
   4.134 -0.503E-02 -0.503E-02
   4.144 -0.501E-02 -0.501E-02
   4.154 -0.499E-02 -0.499E-02
   4.164 -0.496E-02 -0.496E-02
   4.174 -0.492E-02 -0.492E-02
   4.184 -0.487E-02 -0.487E-02
   4.194 -0.482E-02 -0.482E-02
   4.204 -0.476E-02 -0.476E-02
   4.214 -0.469E-02 -0.469E-02
   4.224 -0.462E-02 -0.462E-02
   4.234 -0.455E-02 -0.455E-02
   4.244 -0.447E-02 -0.447E-02
   4.254 -0.439E-02 -0.439E-02
   4.264 -0.431E-02 -0.431E-02
   4.274 -0.422E-02 -0.422E-02
   4.284 -0.413E-02 -0.413E-02
   4.294 -0.404E-02 -0.404E-02
   4.304 -0.395E-02 -0.395E-02
   4.314 -0.385E-02 -0.385E-02
   4.324 -0.375E-02 -0.375E-02
   4.334 -0.366E-02 -0.366E-02
   4.344 -0.356E-02 -0.356E-02
   4.354 -0.346E-02 -0.346E-02
   4.364 -0.336E-02 -0.336E-02
   4.374 -0.327E-02 -0.327E-02
   4.384 -0.317E-02 -0.317E-02
   4.394 -0.307E-02 -0.307E-02
   4.404 -0.297E-02 -0.297E-02
   4.414 -0.288E-02 -0.288E-02
   4.424 -0.278E-02 -0.278E-02
   4.434 -0.269E-02 -0.269E-02
   4.444 -0.260E-02 -0.260E-02
   4.454 -0.251E-02 -0.251E-02
   4.464 -0.242E-02 -0.242E-02
   4.474 -0.233E-02 -0.233E-02
   4.484 -0.224E-02 -0.224E-02
   4.494 -0.216E-02 -0.216E-02
   4.504 -0.208E-02 -0.208E-02
   4.514 -0.199E-02 -0.199E-02
   4.524 -0.192E-02 -0.192E-02
   4.534 -0.184E-02 -0.184E-02
   4.544 -0.176E-02 -0.176E-02
   4.554 -0.169E-02 -0.169E-02
   4.564 -0.162E-02 -0.162E-02
   4.574 -0.155E-02 -0.155E-02
   4.584 -0.148E-02 -0.148E-02
   4.594 -0.142E-02 -0.142E-02
   4.604 -0.135E-02 -0.135E-02
   4.614 -0.129E-02 -0.129E-02
   4.624 -0.123E-02 -0.123E-02
   4.634 -0.118E-02 -0.118E-02
   4.644 -0.112E-02 -0.112E-02
   4.654 -0.107E-02 -0.107E-02
   4.664 -0.102E-02 -0.102E-02
   4.674 -0.968E-03 -0.968E-03
   4.684 -0.920E-03 -0.920E-03
   4.694 -0.875E-03 -0.875E-03
   4.704 -0.831E-03 -0.831E-03
   4.714 -0.789E-03 -0.789E-03
   4.724 -0.748E-03 -0.748E-03
   4.734 -0.710E-03 -0.710E-03
   4.744 -0.672E-03 -0.672E-03
   4.754 -0.637E-03 -0.637E-03
   4.764 -0.603E-03 -0.603E-03
   4.774 -0.570E-03 -0.570E-03
   4.784 -0.539E-03 -0.539E-03
   4.794 -0.510E-03 -0.510E-03
   4.804 -0.482E-03 -0.482E-03
   4.814 -0.455E-03 -0.455E-03
   4.824 -0.429E-03 -0.429E-03
   4.834 -0.405E-03 -0.405E-03
   4.844 -0.381E-03 -0.381E-03
   4.854 -0.359E-03 -0.359E-03
   4.864 -0.338E-03 -0.338E-03
   4.874 -0.318E-03 -0.318E-03
   4.884 -0.299E-03 -0.299E-03
   4.894 -0.281E-03 -0.281E-03
   4.904 -0.264E-03 -0.264E-03
   4.914 -0.248E-03 -0.248E-03
   4.924 -0.233E-03 -0.233E-03
   4.934 -0.219E-03 -0.219E-03
   4.944 -0.205E-03 -0.205E-03
   4.954 -0.192E-03 -0.192E-03
   4.964 -0.180E-03 -0.180E-03
   4.974 -0.168E-03 -0.168E-03
   4.984 -0.158E-03 -0.158E-03
   4.994 -0.147E-03 -0.147E-03
   5.004 -0.138E-03 -0.138E-03
   5.014 -0.129E-03 -0.129E-03
   5.024 -0.120E-03 -0.120E-03
   5.034 -0.112E-03 -0.112E-03
   5.044 -0.105E-03 -0.105E-03
   5.054 -0.975E-04 -0.975E-04
   5.064 -0.909E-04 -0.909E-04
   5.074 -0.846E-04 -0.846E-04
   5.084 -0.788E-04 -0.788E-04
   5.094 -0.733E-04 -0.733E-04
   5.104 -0.682E-04 -0.682E-04
   5.114 -0.634E-04 -0.634E-04
   5.124 -0.589E-04 -0.589E-04
   5.134 -0.547E-04 -0.547E-04
   5.144 -0.508E-04 -0.508E-04
   5.154 -0.471E-04 -0.471E-04
   5.164 -0.437E-04 -0.437E-04
   5.174 -0.405E-04 -0.405E-04
   5.184 -0.375E-04 -0.375E-04
   5.194 -0.347E-04 -0.347E-04
   5.204 -0.321E-04 -0.321E-04
   5.214 -0.297E-04 -0.297E-04
   5.224 -0.275E-04 -0.275E-04
   5.234 -0.254E-04 -0.254E-04
   5.244 -0.235E-04 -0.235E-04
   5.254 -0.217E-04 -0.217E-04
   5.264 -0.200E-04 -0.200E-04
   5.274 -0.184E-04 -0.184E-04
   5.284 -0.170E-04 -0.170E-04
   5.294 -0.157E-04 -0.157E-04
