# E (eV)   ldos(E)   pdos(E)   
 -27.116 -0.102E-08 -0.102E-08
 -27.106 -0.111E-08 -0.111E-08
 -27.096 -0.119E-08 -0.119E-08
 -27.086 -0.129E-08 -0.129E-08
 -27.076 -0.139E-08 -0.139E-08
 -27.066 -0.149E-08 -0.149E-08
 -27.056 -0.161E-08 -0.161E-08
 -27.046 -0.173E-08 -0.173E-08
 -27.036 -0.186E-08 -0.186E-08
 -27.026 -0.200E-08 -0.200E-08
 -27.016 -0.215E-08 -0.215E-08
 -27.006 -0.231E-08 -0.231E-08
 -26.996 -0.248E-08 -0.248E-08
 -26.986 -0.266E-08 -0.266E-08
 -26.976 -0.285E-08 -0.285E-08
 -26.966 -0.305E-08 -0.305E-08
 -26.956 -0.327E-08 -0.327E-08
 -26.946 -0.350E-08 -0.350E-08
 -26.936 -0.374E-08 -0.374E-08
 -26.926 -0.400E-08 -0.400E-08
 -26.916 -0.427E-08 -0.427E-08
 -26.906 -0.457E-08 -0.457E-08
 -26.896 -0.487E-08 -0.487E-08
 -26.886 -0.520E-08 -0.520E-08
 -26.876 -0.554E-08 -0.554E-08
 -26.866 -0.591E-08 -0.591E-08
 -26.856 -0.629E-08 -0.629E-08
 -26.846 -0.670E-08 -0.670E-08
 -26.836 -0.713E-08 -0.713E-08
 -26.826 -0.758E-08 -0.758E-08
 -26.816 -0.806E-08 -0.806E-08
 -26.806 -0.856E-08 -0.856E-08
 -26.796 -0.908E-08 -0.908E-08
 -26.786 -0.964E-08 -0.964E-08
 -26.776 -0.102E-07 -0.102E-07
 -26.766 -0.108E-07 -0.108E-07
 -26.756 -0.115E-07 -0.115E-07
 -26.746 -0.121E-07 -0.121E-07
 -26.736 -0.128E-07 -0.128E-07
 -26.726 -0.136E-07 -0.136E-07
 -26.716 -0.143E-07 -0.143E-07
 -26.706 -0.151E-07 -0.151E-07
 -26.696 -0.160E-07 -0.160E-07
 -26.686 -0.169E-07 -0.169E-07
 -26.676 -0.178E-07 -0.178E-07
 -26.666 -0.187E-07 -0.187E-07
 -26.656 -0.197E-07 -0.197E-07
 -26.646 -0.207E-07 -0.207E-07
 -26.636 -0.218E-07 -0.218E-07
 -26.626 -0.229E-07 -0.229E-07
 -26.616 -0.241E-07 -0.241E-07
 -26.606 -0.252E-07 -0.252E-07
 -26.596 -0.265E-07 -0.265E-07
 -26.586 -0.277E-07 -0.277E-07
 -26.576 -0.291E-07 -0.291E-07
 -26.566 -0.304E-07 -0.304E-07
 -26.556 -0.318E-07 -0.318E-07
 -26.546 -0.332E-07 -0.332E-07
 -26.536 -0.347E-07 -0.347E-07
 -26.526 -0.362E-07 -0.362E-07
 -26.516 -0.378E-07 -0.378E-07
 -26.506 -0.394E-07 -0.394E-07
 -26.496 -0.410E-07 -0.410E-07
 -26.486 -0.427E-07 -0.427E-07
 -26.476 -0.444E-07 -0.444E-07
 -26.466 -0.461E-07 -0.461E-07
 -26.456 -0.479E-07 -0.479E-07
 -26.446 -0.497E-07 -0.497E-07
 -26.436 -0.515E-07 -0.515E-07
 -26.426 -0.534E-07 -0.534E-07
 -26.416 -0.553E-07 -0.553E-07
 -26.406 -0.572E-07 -0.572E-07
 -26.396 -0.591E-07 -0.591E-07
 -26.386 -0.610E-07 -0.610E-07
 -26.376 -0.629E-07 -0.629E-07
 -26.366 -0.648E-07 -0.648E-07
 -26.356 -0.667E-07 -0.667E-07
 -26.346 -0.686E-07 -0.686E-07
 -26.336 -0.705E-07 -0.705E-07
 -26.326 -0.724E-07 -0.724E-07
 -26.316 -0.743E-07 -0.743E-07
 -26.306 -0.761E-07 -0.761E-07
 -26.296 -0.779E-07 -0.779E-07
 -26.286 -0.796E-07 -0.796E-07
 -26.276 -0.813E-07 -0.813E-07
 -26.266 -0.829E-07 -0.829E-07
 -26.256 -0.845E-07 -0.845E-07
 -26.246 -0.859E-07 -0.859E-07
 -26.236 -0.873E-07 -0.873E-07
 -26.226 -0.886E-07 -0.886E-07
 -26.216 -0.898E-07 -0.898E-07
 -26.206 -0.908E-07 -0.908E-07
 -26.196 -0.917E-07 -0.917E-07
 -26.186 -0.925E-07 -0.925E-07
 -26.176 -0.931E-07 -0.931E-07
 -26.166 -0.936E-07 -0.936E-07
 -26.156 -0.939E-07 -0.939E-07
 -26.146 -0.940E-07 -0.940E-07
 -26.136 -0.939E-07 -0.939E-07
 -26.126 -0.936E-07 -0.936E-07
 -26.116 -0.930E-07 -0.930E-07
 -26.106 -0.922E-07 -0.922E-07
 -26.096 -0.911E-07 -0.911E-07
 -26.086 -0.898E-07 -0.898E-07
 -26.076 -0.882E-07 -0.882E-07
 -26.066 -0.863E-07 -0.863E-07
 -26.056 -0.840E-07 -0.840E-07
 -26.046 -0.814E-07 -0.814E-07
 -26.036 -0.785E-07 -0.785E-07
 -26.026 -0.752E-07 -0.752E-07
 -26.016 -0.716E-07 -0.716E-07
 -26.006 -0.675E-07 -0.675E-07
 -25.996 -0.631E-07 -0.631E-07
 -25.986 -0.582E-07 -0.582E-07
 -25.976 -0.528E-07 -0.528E-07
 -25.966 -0.470E-07 -0.470E-07
 -25.956 -0.408E-07 -0.408E-07
 -25.946 -0.341E-07 -0.341E-07
 -25.936 -0.268E-07 -0.268E-07
 -25.926 -0.191E-07 -0.191E-07
 -25.916 -0.108E-07 -0.108E-07
 -25.906 -0.201E-08 -0.201E-08
 -25.896  0.735E-08  0.735E-08
 -25.886  0.173E-07  0.173E-07
 -25.876  0.278E-07  0.278E-07
 -25.866  0.388E-07  0.388E-07
 -25.856  0.505E-07  0.505E-07
 -25.846  0.628E-07  0.628E-07
 -25.836  0.756E-07  0.756E-07
 -25.826  0.891E-07  0.891E-07
 -25.816  0.103E-06  0.103E-06
 -25.806  0.118E-06  0.118E-06
 -25.796  0.133E-06  0.133E-06
 -25.786  0.149E-06  0.149E-06
 -25.776  0.166E-06  0.166E-06
 -25.766  0.183E-06  0.183E-06
 -25.756  0.201E-06  0.201E-06
 -25.746  0.220E-06  0.220E-06
 -25.736  0.239E-06  0.239E-06
 -25.726  0.259E-06  0.259E-06
 -25.716  0.279E-06  0.279E-06
 -25.706  0.300E-06  0.300E-06
 -25.696  0.322E-06  0.322E-06
 -25.686  0.344E-06  0.344E-06
 -25.676  0.367E-06  0.367E-06
 -25.666  0.391E-06  0.391E-06
 -25.656  0.415E-06  0.415E-06
 -25.646  0.439E-06  0.439E-06
 -25.636  0.464E-06  0.464E-06
 -25.626  0.490E-06  0.490E-06
 -25.616  0.516E-06  0.516E-06
 -25.606  0.543E-06  0.543E-06
 -25.596  0.570E-06  0.570E-06
 -25.586  0.597E-06  0.597E-06
 -25.576  0.625E-06  0.625E-06
 -25.566  0.653E-06  0.653E-06
 -25.556  0.682E-06  0.682E-06
 -25.546  0.711E-06  0.711E-06
 -25.536  0.740E-06  0.740E-06
 -25.526  0.769E-06  0.769E-06
 -25.516  0.799E-06  0.799E-06
 -25.506  0.829E-06  0.829E-06
 -25.496  0.859E-06  0.859E-06
 -25.486  0.889E-06  0.889E-06
 -25.476  0.919E-06  0.919E-06
 -25.466  0.949E-06  0.949E-06
 -25.456  0.979E-06  0.979E-06
 -25.446  0.101E-05  0.101E-05
 -25.436  0.104E-05  0.104E-05
 -25.426  0.107E-05  0.107E-05
 -25.416  0.110E-05  0.110E-05
 -25.406  0.113E-05  0.113E-05
 -25.396  0.116E-05  0.116E-05
 -25.386  0.119E-05  0.119E-05
 -25.376  0.122E-05  0.122E-05
 -25.366  0.124E-05  0.124E-05
 -25.356  0.127E-05  0.127E-05
 -25.346  0.130E-05  0.130E-05
 -25.336  0.133E-05  0.133E-05
 -25.326  0.135E-05  0.135E-05
 -25.316  0.138E-05  0.138E-05
 -25.306  0.140E-05  0.140E-05
 -25.296  0.143E-05  0.143E-05
 -25.286  0.145E-05  0.145E-05
 -25.276  0.147E-05  0.147E-05
 -25.266  0.149E-05  0.149E-05
 -25.256  0.152E-05  0.152E-05
 -25.246  0.154E-05  0.154E-05
 -25.236  0.156E-05  0.156E-05
 -25.226  0.157E-05  0.157E-05
 -25.216  0.159E-05  0.159E-05
 -25.206  0.161E-05  0.161E-05
 -25.196  0.162E-05  0.162E-05
 -25.186  0.164E-05  0.164E-05
 -25.176  0.165E-05  0.165E-05
 -25.166  0.166E-05  0.166E-05
 -25.156  0.167E-05  0.167E-05
 -25.146  0.168E-05  0.168E-05
 -25.136  0.169E-05  0.169E-05
 -25.126  0.170E-05  0.170E-05
 -25.116  0.170E-05  0.170E-05
 -25.106  0.171E-05  0.171E-05
 -25.096  0.171E-05  0.171E-05
 -25.086  0.172E-05  0.172E-05
 -25.076  0.172E-05  0.172E-05
 -25.066  0.172E-05  0.172E-05
 -25.056  0.172E-05  0.172E-05
 -25.046  0.171E-05  0.171E-05
 -25.036  0.171E-05  0.171E-05
 -25.026  0.171E-05  0.171E-05
 -25.016  0.170E-05  0.170E-05
 -25.006  0.169E-05  0.169E-05
 -24.996  0.168E-05  0.168E-05
 -24.986  0.167E-05  0.167E-05
 -24.976  0.166E-05  0.166E-05
 -24.966  0.165E-05  0.165E-05
 -24.956  0.164E-05  0.164E-05
 -24.946  0.162E-05  0.162E-05
 -24.936  0.161E-05  0.161E-05
 -24.926  0.159E-05  0.159E-05
 -24.916  0.157E-05  0.157E-05
 -24.906  0.156E-05  0.156E-05
 -24.896  0.154E-05  0.154E-05
 -24.886  0.152E-05  0.152E-05
 -24.876  0.150E-05  0.150E-05
 -24.866  0.147E-05  0.147E-05
 -24.856  0.145E-05  0.145E-05
 -24.846  0.143E-05  0.143E-05
 -24.836  0.140E-05  0.140E-05
 -24.826  0.138E-05  0.138E-05
 -24.816  0.135E-05  0.135E-05
 -24.806  0.133E-05  0.133E-05
 -24.796  0.130E-05  0.130E-05
 -24.786  0.127E-05  0.127E-05
 -24.776  0.125E-05  0.125E-05
 -24.766  0.122E-05  0.122E-05
 -24.756  0.119E-05  0.119E-05
 -24.746  0.116E-05  0.116E-05
 -24.736  0.113E-05  0.113E-05
 -24.726  0.110E-05  0.110E-05
 -24.716  0.107E-05  0.107E-05
 -24.706  0.104E-05  0.104E-05
 -24.696  0.101E-05  0.101E-05
 -24.686  0.982E-06  0.982E-06
 -24.676  0.952E-06  0.952E-06
 -24.666  0.921E-06  0.921E-06
 -24.656  0.891E-06  0.891E-06
 -24.646  0.861E-06  0.861E-06
 -24.636  0.831E-06  0.831E-06
 -24.626  0.801E-06  0.801E-06
 -24.616  0.772E-06  0.772E-06
 -24.606  0.742E-06  0.742E-06
 -24.596  0.713E-06  0.713E-06
 -24.586  0.684E-06  0.684E-06
 -24.576  0.656E-06  0.656E-06
 -24.566  0.627E-06  0.627E-06
 -24.556  0.599E-06  0.599E-06
 -24.546  0.572E-06  0.572E-06
 -24.536  0.545E-06  0.545E-06
 -24.526  0.518E-06  0.518E-06
 -24.516  0.492E-06  0.492E-06
 -24.506  0.466E-06  0.466E-06
 -24.496  0.441E-06  0.441E-06
 -24.486  0.417E-06  0.417E-06
 -24.476  0.393E-06  0.393E-06
 -24.466  0.369E-06  0.369E-06
 -24.456  0.346E-06  0.346E-06
 -24.446  0.324E-06  0.324E-06
 -24.436  0.302E-06  0.302E-06
 -24.426  0.281E-06  0.281E-06
 -24.416  0.260E-06  0.260E-06
 -24.406  0.241E-06  0.241E-06
 -24.396  0.221E-06  0.221E-06
 -24.386  0.203E-06  0.203E-06
 -24.376  0.185E-06  0.185E-06
 -24.366  0.167E-06  0.167E-06
 -24.356  0.151E-06  0.151E-06
 -24.346  0.135E-06  0.135E-06
 -24.336  0.119E-06  0.119E-06
 -24.326  0.104E-06  0.104E-06
 -24.316  0.902E-07  0.902E-07
 -24.306  0.766E-07  0.766E-07
 -24.296  0.637E-07  0.637E-07
 -24.286  0.514E-07  0.514E-07
 -24.276  0.397E-07  0.397E-07
 -24.266  0.286E-07  0.286E-07
 -24.256  0.180E-07  0.180E-07
 -24.246  0.808E-08  0.808E-08
 -24.236 -0.131E-08 -0.131E-08
 -24.226 -0.102E-07 -0.102E-07
 -24.216 -0.185E-07 -0.185E-07
 -24.206 -0.263E-07 -0.263E-07
 -24.196 -0.335E-07 -0.335E-07
 -24.186 -0.403E-07 -0.403E-07
 -24.176 -0.466E-07 -0.466E-07
 -24.166 -0.524E-07 -0.524E-07
 -24.156 -0.578E-07 -0.578E-07
 -24.146 -0.627E-07 -0.627E-07
 -24.136 -0.672E-07 -0.672E-07
 -24.126 -0.713E-07 -0.713E-07
 -24.116 -0.750E-07 -0.750E-07
 -24.106 -0.783E-07 -0.783E-07
 -24.096 -0.812E-07 -0.812E-07
 -24.086 -0.838E-07 -0.838E-07
 -24.076 -0.861E-07 -0.861E-07
 -24.066 -0.880E-07 -0.880E-07
 -24.056 -0.897E-07 -0.897E-07
 -24.046 -0.910E-07 -0.910E-07
 -24.036 -0.921E-07 -0.921E-07
 -24.026 -0.929E-07 -0.929E-07
 -24.016 -0.935E-07 -0.935E-07
 -24.006 -0.939E-07 -0.939E-07
 -23.996 -0.940E-07 -0.940E-07
 -23.986 -0.939E-07 -0.939E-07
 -23.976 -0.936E-07 -0.936E-07
 -23.966 -0.932E-07 -0.932E-07
 -23.956 -0.926E-07 -0.926E-07
 -23.946 -0.918E-07 -0.918E-07
 -23.936 -0.909E-07 -0.909E-07
 -23.926 -0.898E-07 -0.898E-07
 -23.916 -0.887E-07 -0.887E-07
 -23.906 -0.874E-07 -0.874E-07
 -23.896 -0.860E-07 -0.860E-07
 -23.886 -0.846E-07 -0.846E-07
 -23.876 -0.830E-07 -0.830E-07
 -23.866 -0.814E-07 -0.814E-07
 -23.856 -0.797E-07 -0.797E-07
 -23.846 -0.780E-07 -0.780E-07
 -23.836 -0.762E-07 -0.762E-07
 -23.826 -0.744E-07 -0.744E-07
 -23.816 -0.726E-07 -0.726E-07
 -23.806 -0.707E-07 -0.707E-07
 -23.796 -0.688E-07 -0.688E-07
 -23.786 -0.669E-07 -0.669E-07
 -23.776 -0.650E-07 -0.650E-07
 -23.766 -0.630E-07 -0.630E-07
 -23.756 -0.611E-07 -0.611E-07
 -23.746 -0.592E-07 -0.592E-07
 -23.736 -0.573E-07 -0.573E-07
 -23.726 -0.554E-07 -0.554E-07
 -23.716 -0.535E-07 -0.535E-07
 -23.706 -0.517E-07 -0.517E-07
 -23.696 -0.499E-07 -0.499E-07
 -23.686 -0.481E-07 -0.481E-07
 -23.676 -0.463E-07 -0.463E-07
 -23.666 -0.445E-07 -0.445E-07
 -23.656 -0.428E-07 -0.428E-07
 -23.646 -0.412E-07 -0.412E-07
 -23.636 -0.395E-07 -0.395E-07
 -23.626 -0.379E-07 -0.379E-07
 -23.616 -0.364E-07 -0.364E-07
 -23.606 -0.348E-07 -0.348E-07
 -23.596 -0.334E-07 -0.334E-07
 -23.586 -0.319E-07 -0.319E-07
 -23.576 -0.305E-07 -0.305E-07
 -23.566 -0.292E-07 -0.292E-07
 -23.556 -0.278E-07 -0.278E-07
 -23.546 -0.266E-07 -0.266E-07
 -23.536 -0.253E-07 -0.253E-07
 -23.526 -0.241E-07 -0.241E-07
 -23.516 -0.230E-07 -0.230E-07
 -23.506 -0.219E-07 -0.219E-07
 -23.496 -0.208E-07 -0.208E-07
 -23.486 -0.198E-07 -0.198E-07
 -23.476 -0.188E-07 -0.188E-07
 -23.466 -0.178E-07 -0.178E-07
 -23.456 -0.169E-07 -0.169E-07
 -23.446 -0.161E-07 -0.161E-07
 -23.436 -0.152E-07 -0.152E-07
 -23.426 -0.144E-07 -0.144E-07
 -23.416 -0.136E-07 -0.136E-07
 -23.406 -0.129E-07 -0.129E-07
 -23.396 -0.122E-07 -0.122E-07
 -23.386 -0.115E-07 -0.115E-07
 -23.376 -0.109E-07 -0.109E-07
 -23.366 -0.103E-07 -0.103E-07
 -23.356 -0.968E-08 -0.968E-08
 -23.346 -0.913E-08 -0.913E-08
 -23.336 -0.860E-08 -0.860E-08
 -23.326 -0.809E-08 -0.809E-08
 -23.316 -0.762E-08 -0.762E-08
 -23.306 -0.716E-08 -0.716E-08
 -23.296 -0.673E-08 -0.673E-08
 -23.286 -0.632E-08 -0.632E-08
 -23.276 -0.594E-08 -0.594E-08
 -23.266 -0.557E-08 -0.557E-08
 -23.256 -0.523E-08 -0.523E-08
 -23.246 -0.490E-08 -0.490E-08
 -23.236 -0.459E-08 -0.459E-08
 -23.226 -0.430E-08 -0.430E-08
 -23.216 -0.402E-08 -0.402E-08
 -23.206 -0.376E-08 -0.376E-08
 -23.196 -0.352E-08 -0.352E-08
 -23.186 -0.329E-08 -0.329E-08
 -23.176 -0.307E-08 -0.307E-08
 -23.166 -0.286E-08 -0.286E-08
 -23.156 -0.267E-08 -0.267E-08
 -23.146 -0.249E-08 -0.249E-08
 -23.136 -0.232E-08 -0.232E-08
 -23.126 -0.216E-08 -0.216E-08
 -23.116 -0.201E-08 -0.201E-08
 -23.106 -0.188E-08 -0.188E-08
 -23.096 -0.174E-08 -0.174E-08
 -23.086 -0.162E-08 -0.162E-08
 -23.076 -0.151E-08 -0.151E-08
 -23.066 -0.140E-08 -0.140E-08
 -23.056 -0.130E-08 -0.130E-08
 -23.046 -0.121E-08 -0.121E-08
 -23.036 -0.112E-08 -0.112E-08
 -23.026 -0.104E-08 -0.104E-08
 -23.016 -0.968E-09 -0.968E-09
 -23.006 -0.899E-09 -0.899E-09
 -22.996 -0.835E-09 -0.835E-09
 -22.986 -0.775E-09 -0.775E-09
 -22.976 -0.720E-09 -0.720E-09
 -22.966 -0.669E-09 -0.669E-09
 -22.956 -0.623E-09 -0.623E-09
 -22.946 -0.580E-09 -0.580E-09
 -22.936 -0.541E-09 -0.541E-09
 -22.926 -0.505E-09 -0.505E-09
 -22.916 -0.473E-09 -0.473E-09
 -22.906 -0.443E-09 -0.443E-09
 -22.896 -0.417E-09 -0.417E-09
 -22.886 -0.394E-09 -0.394E-09
 -22.876 -0.373E-09 -0.373E-09
 -22.866 -0.355E-09 -0.355E-09
 -22.856 -0.340E-09 -0.340E-09
 -22.846 -0.327E-09 -0.327E-09
 -22.836 -0.317E-09 -0.317E-09
 -22.826 -0.309E-09 -0.309E-09
 -22.816 -0.304E-09 -0.304E-09
 -22.806 -0.301E-09 -0.301E-09
 -22.796 -0.301E-09 -0.301E-09
 -22.786 -0.303E-09 -0.303E-09
 -22.776 -0.308E-09 -0.308E-09
 -22.766 -0.315E-09 -0.315E-09
 -22.756 -0.325E-09 -0.325E-09
 -22.746 -0.338E-09 -0.338E-09
 -22.736 -0.354E-09 -0.354E-09
 -22.726 -0.373E-09 -0.373E-09
 -22.716 -0.395E-09 -0.395E-09
 -22.706 -0.420E-09 -0.420E-09
 -22.696 -0.449E-09 -0.449E-09
 -22.686 -0.482E-09 -0.482E-09
 -22.676 -0.519E-09 -0.519E-09
 -22.666 -0.560E-09 -0.560E-09
 -22.656 -0.606E-09 -0.606E-09
 -22.646 -0.656E-09 -0.656E-09
 -22.636 -0.712E-09 -0.712E-09
 -22.626 -0.774E-09 -0.774E-09
 -22.616 -0.842E-09 -0.842E-09
 -22.606 -0.916E-09 -0.916E-09
 -22.596 -0.998E-09 -0.998E-09
 -22.586 -0.109E-08 -0.109E-08
 -22.576 -0.118E-08 -0.118E-08
 -22.566 -0.129E-08 -0.129E-08
 -22.556 -0.141E-08 -0.141E-08
 -22.546 -0.153E-08 -0.153E-08
 -22.536 -0.167E-08 -0.167E-08
 -22.526 -0.182E-08 -0.182E-08
 -22.516 -0.198E-08 -0.198E-08
 -22.506 -0.215E-08 -0.215E-08
 -22.496 -0.234E-08 -0.234E-08
 -22.486 -0.255E-08 -0.255E-08
 -22.476 -0.277E-08 -0.277E-08
 -22.466 -0.301E-08 -0.301E-08
 -22.456 -0.327E-08 -0.327E-08
 -22.446 -0.355E-08 -0.355E-08
 -22.436 -0.386E-08 -0.386E-08
 -22.426 -0.419E-08 -0.419E-08
 -22.416 -0.454E-08 -0.454E-08
 -22.406 -0.492E-08 -0.492E-08
 -22.396 -0.533E-08 -0.533E-08
 -22.386 -0.577E-08 -0.577E-08
 -22.376 -0.625E-08 -0.625E-08
 -22.366 -0.676E-08 -0.676E-08
 -22.356 -0.731E-08 -0.731E-08
 -22.346 -0.790E-08 -0.790E-08
 -22.336 -0.854E-08 -0.854E-08
 -22.326 -0.922E-08 -0.922E-08
 -22.316 -0.994E-08 -0.994E-08
 -22.306 -0.107E-07 -0.107E-07
 -22.296 -0.116E-07 -0.116E-07
 -22.286 -0.125E-07 -0.125E-07
 -22.276 -0.134E-07 -0.134E-07
 -22.266 -0.144E-07 -0.144E-07
 -22.256 -0.155E-07 -0.155E-07
 -22.246 -0.167E-07 -0.167E-07
 -22.236 -0.180E-07 -0.180E-07
 -22.226 -0.193E-07 -0.193E-07
 -22.216 -0.207E-07 -0.207E-07
 -22.206 -0.222E-07 -0.222E-07
 -22.196 -0.238E-07 -0.238E-07
 -22.186 -0.255E-07 -0.255E-07
 -22.176 -0.274E-07 -0.274E-07
 -22.166 -0.293E-07 -0.293E-07
 -22.156 -0.313E-07 -0.313E-07
 -22.146 -0.335E-07 -0.335E-07
 -22.136 -0.358E-07 -0.358E-07
 -22.126 -0.383E-07 -0.383E-07
 -22.116 -0.409E-07 -0.409E-07
 -22.106 -0.436E-07 -0.436E-07
 -22.096 -0.465E-07 -0.465E-07
 -22.086 -0.496E-07 -0.496E-07
 -22.076 -0.529E-07 -0.529E-07
 -22.066 -0.563E-07 -0.563E-07
 -22.056 -0.599E-07 -0.599E-07
 -22.046 -0.637E-07 -0.637E-07
 -22.036 -0.677E-07 -0.677E-07
 -22.026 -0.720E-07 -0.720E-07
 -22.016 -0.764E-07 -0.764E-07
 -22.006 -0.811E-07 -0.811E-07
 -21.996 -0.860E-07 -0.860E-07
 -21.986 -0.912E-07 -0.912E-07
 -21.976 -0.966E-07 -0.966E-07
 -21.966 -0.102E-06 -0.102E-06
 -21.956 -0.108E-06 -0.108E-06
 -21.946 -0.114E-06 -0.114E-06
 -21.936 -0.121E-06 -0.121E-06
 -21.926 -0.128E-06 -0.128E-06
 -21.916 -0.135E-06 -0.135E-06
 -21.906 -0.142E-06 -0.142E-06
 -21.896 -0.150E-06 -0.150E-06
 -21.886 -0.158E-06 -0.158E-06
 -21.876 -0.167E-06 -0.167E-06
 -21.866 -0.175E-06 -0.175E-06
 -21.856 -0.184E-06 -0.184E-06
 -21.846 -0.194E-06 -0.194E-06
 -21.836 -0.204E-06 -0.204E-06
 -21.826 -0.214E-06 -0.214E-06
 -21.816 -0.224E-06 -0.224E-06
 -21.806 -0.235E-06 -0.235E-06
 -21.796 -0.246E-06 -0.246E-06
 -21.786 -0.258E-06 -0.258E-06
 -21.776 -0.270E-06 -0.270E-06
 -21.766 -0.282E-06 -0.282E-06
 -21.756 -0.295E-06 -0.295E-06
 -21.746 -0.308E-06 -0.308E-06
 -21.736 -0.321E-06 -0.321E-06
 -21.726 -0.335E-06 -0.335E-06
 -21.716 -0.349E-06 -0.349E-06
 -21.706 -0.363E-06 -0.363E-06
 -21.696 -0.378E-06 -0.378E-06
 -21.686 -0.393E-06 -0.393E-06
 -21.676 -0.408E-06 -0.408E-06
 -21.666 -0.424E-06 -0.424E-06
 -21.656 -0.439E-06 -0.439E-06
 -21.646 -0.455E-06 -0.455E-06
 -21.636 -0.471E-06 -0.471E-06
 -21.626 -0.488E-06 -0.488E-06
 -21.616 -0.504E-06 -0.504E-06
 -21.606 -0.521E-06 -0.521E-06
 -21.596 -0.538E-06 -0.538E-06
 -21.586 -0.554E-06 -0.554E-06
 -21.576 -0.571E-06 -0.571E-06
 -21.566 -0.588E-06 -0.588E-06
 -21.556 -0.604E-06 -0.604E-06
 -21.546 -0.621E-06 -0.621E-06
 -21.536 -0.637E-06 -0.637E-06
 -21.526 -0.653E-06 -0.653E-06
 -21.516 -0.668E-06 -0.668E-06
 -21.506 -0.684E-06 -0.684E-06
 -21.496 -0.699E-06 -0.699E-06
 -21.486 -0.713E-06 -0.713E-06
 -21.476 -0.727E-06 -0.727E-06
 -21.466 -0.740E-06 -0.740E-06
 -21.456 -0.752E-06 -0.752E-06
 -21.446 -0.764E-06 -0.764E-06
 -21.436 -0.775E-06 -0.775E-06
 -21.426 -0.784E-06 -0.784E-06
 -21.416 -0.793E-06 -0.793E-06
 -21.406 -0.801E-06 -0.801E-06
 -21.396 -0.807E-06 -0.807E-06
 -21.386 -0.812E-06 -0.812E-06
 -21.376 -0.815E-06 -0.815E-06
 -21.366 -0.817E-06 -0.817E-06
 -21.356 -0.817E-06 -0.817E-06
 -21.346 -0.815E-06 -0.815E-06
 -21.336 -0.811E-06 -0.811E-06
 -21.326 -0.805E-06 -0.805E-06
 -21.316 -0.797E-06 -0.797E-06
 -21.306 -0.787E-06 -0.787E-06
 -21.296 -0.774E-06 -0.774E-06
 -21.286 -0.759E-06 -0.759E-06
 -21.276 -0.741E-06 -0.741E-06
 -21.266 -0.721E-06 -0.721E-06
 -21.256 -0.697E-06 -0.697E-06
 -21.246 -0.670E-06 -0.670E-06
 -21.236 -0.640E-06 -0.640E-06
 -21.226 -0.607E-06 -0.607E-06
 -21.216 -0.570E-06 -0.570E-06
 -21.206 -0.529E-06 -0.529E-06
 -21.196 -0.485E-06 -0.485E-06
 -21.186 -0.437E-06 -0.437E-06
 -21.176 -0.385E-06 -0.385E-06
 -21.166 -0.329E-06 -0.329E-06
 -21.156 -0.268E-06 -0.268E-06
 -21.146 -0.203E-06 -0.203E-06
 -21.136 -0.134E-06 -0.134E-06
 -21.126 -0.602E-07 -0.602E-07
 -21.116  0.185E-07  0.185E-07
 -21.106  0.102E-06  0.102E-06
 -21.096  0.190E-06  0.190E-06
 -21.086  0.284E-06  0.284E-06
 -21.076  0.382E-06  0.382E-06
 -21.066  0.486E-06  0.486E-06
 -21.056  0.595E-06  0.595E-06
 -21.046  0.709E-06  0.709E-06
 -21.036  0.829E-06  0.829E-06
 -21.026  0.954E-06  0.954E-06
 -21.016  0.108E-05  0.108E-05
 -21.006  0.122E-05  0.122E-05
 -20.996  0.136E-05  0.136E-05
 -20.986  0.151E-05  0.151E-05
 -20.976  0.166E-05  0.166E-05
 -20.966  0.182E-05  0.182E-05
 -20.956  0.198E-05  0.198E-05
 -20.946  0.215E-05  0.215E-05
 -20.936  0.233E-05  0.233E-05
 -20.926  0.251E-05  0.251E-05
 -20.916  0.269E-05  0.269E-05
 -20.906  0.288E-05  0.288E-05
 -20.896  0.308E-05  0.308E-05
 -20.886  0.328E-05  0.328E-05
 -20.876  0.349E-05  0.349E-05
 -20.866  0.370E-05  0.370E-05
 -20.856  0.391E-05  0.391E-05
 -20.846  0.413E-05  0.413E-05
 -20.836  0.436E-05  0.436E-05
 -20.826  0.459E-05  0.459E-05
 -20.816  0.482E-05  0.482E-05
 -20.806  0.506E-05  0.506E-05
 -20.796  0.530E-05  0.530E-05
 -20.786  0.554E-05  0.554E-05
 -20.776  0.578E-05  0.578E-05
 -20.766  0.603E-05  0.603E-05
 -20.756  0.629E-05  0.629E-05
 -20.746  0.654E-05  0.654E-05
 -20.736  0.680E-05  0.680E-05
 -20.726  0.705E-05  0.705E-05
 -20.716  0.731E-05  0.731E-05
 -20.706  0.757E-05  0.757E-05
 -20.696  0.783E-05  0.783E-05
 -20.686  0.810E-05  0.810E-05
 -20.676  0.836E-05  0.836E-05
 -20.666  0.862E-05  0.862E-05
 -20.656  0.888E-05  0.888E-05
 -20.646  0.914E-05  0.914E-05
 -20.636  0.940E-05  0.940E-05
 -20.626  0.965E-05  0.965E-05
 -20.616  0.991E-05  0.991E-05
 -20.606  0.102E-04  0.102E-04
 -20.596  0.104E-04  0.104E-04
 -20.586  0.107E-04  0.107E-04
 -20.576  0.109E-04  0.109E-04
 -20.566  0.111E-04  0.111E-04
 -20.556  0.114E-04  0.114E-04
 -20.546  0.116E-04  0.116E-04
 -20.536  0.118E-04  0.118E-04
 -20.526  0.120E-04  0.120E-04
 -20.516  0.123E-04  0.123E-04
 -20.506  0.125E-04  0.125E-04
 -20.496  0.127E-04  0.127E-04
 -20.486  0.129E-04  0.129E-04
 -20.476  0.130E-04  0.130E-04
 -20.466  0.132E-04  0.132E-04
 -20.456  0.134E-04  0.134E-04
 -20.446  0.136E-04  0.136E-04
 -20.436  0.137E-04  0.137E-04
 -20.426  0.139E-04  0.139E-04
 -20.416  0.140E-04  0.140E-04
 -20.406  0.141E-04  0.141E-04
 -20.396  0.142E-04  0.142E-04
 -20.386  0.143E-04  0.143E-04
 -20.376  0.144E-04  0.144E-04
 -20.366  0.145E-04  0.145E-04
 -20.356  0.146E-04  0.146E-04
 -20.346  0.147E-04  0.147E-04
 -20.336  0.147E-04  0.147E-04
 -20.326  0.148E-04  0.148E-04
 -20.316  0.148E-04  0.148E-04
 -20.306  0.148E-04  0.148E-04
 -20.296  0.149E-04  0.149E-04
 -20.286  0.149E-04  0.149E-04
 -20.276  0.149E-04  0.149E-04
 -20.266  0.148E-04  0.148E-04
 -20.256  0.148E-04  0.148E-04
 -20.246  0.148E-04  0.148E-04
 -20.236  0.147E-04  0.147E-04
 -20.226  0.147E-04  0.147E-04
 -20.216  0.146E-04  0.146E-04
 -20.206  0.145E-04  0.145E-04
 -20.196  0.144E-04  0.144E-04
 -20.186  0.143E-04  0.143E-04
 -20.176  0.142E-04  0.142E-04
 -20.166  0.141E-04  0.141E-04
 -20.156  0.140E-04  0.140E-04
 -20.146  0.138E-04  0.138E-04
 -20.136  0.137E-04  0.137E-04
 -20.126  0.135E-04  0.135E-04
 -20.116  0.134E-04  0.134E-04
 -20.106  0.132E-04  0.132E-04
 -20.096  0.130E-04  0.130E-04
 -20.086  0.128E-04  0.128E-04
 -20.076  0.126E-04  0.126E-04
 -20.066  0.124E-04  0.124E-04
 -20.056  0.122E-04  0.122E-04
 -20.046  0.120E-04  0.120E-04
 -20.036  0.118E-04  0.118E-04
 -20.026  0.116E-04  0.116E-04
 -20.016  0.113E-04  0.113E-04
 -20.006  0.111E-04  0.111E-04
 -19.996  0.109E-04  0.109E-04
 -19.986  0.106E-04  0.106E-04
 -19.976  0.104E-04  0.104E-04
 -19.966  0.101E-04  0.101E-04
 -19.956  0.989E-05  0.989E-05
 -19.946  0.964E-05  0.964E-05
 -19.936  0.939E-05  0.939E-05
 -19.926  0.913E-05  0.913E-05
 -19.916  0.888E-05  0.888E-05
 -19.906  0.862E-05  0.862E-05
 -19.896  0.837E-05  0.837E-05
 -19.886  0.811E-05  0.811E-05
 -19.876  0.785E-05  0.785E-05
 -19.866  0.760E-05  0.760E-05
 -19.856  0.735E-05  0.735E-05
 -19.846  0.710E-05  0.710E-05
 -19.836  0.685E-05  0.685E-05
 -19.826  0.660E-05  0.660E-05
 -19.816  0.635E-05  0.635E-05
 -19.806  0.611E-05  0.611E-05
 -19.796  0.587E-05  0.587E-05
 -19.786  0.564E-05  0.564E-05
 -19.776  0.540E-05  0.540E-05
 -19.766  0.518E-05  0.518E-05
 -19.756  0.495E-05  0.495E-05
 -19.746  0.473E-05  0.473E-05
 -19.736  0.452E-05  0.452E-05
 -19.726  0.431E-05  0.431E-05
 -19.716  0.410E-05  0.410E-05
 -19.706  0.390E-05  0.390E-05
 -19.696  0.371E-05  0.371E-05
 -19.686  0.352E-05  0.352E-05
 -19.676  0.334E-05  0.334E-05
 -19.666  0.316E-05  0.316E-05
 -19.656  0.299E-05  0.299E-05
 -19.646  0.282E-05  0.282E-05
 -19.636  0.266E-05  0.266E-05
 -19.626  0.251E-05  0.251E-05
 -19.616  0.236E-05  0.236E-05
 -19.606  0.222E-05  0.222E-05
 -19.596  0.208E-05  0.208E-05
 -19.586  0.195E-05  0.195E-05
 -19.576  0.183E-05  0.183E-05
 -19.566  0.171E-05  0.171E-05
 -19.556  0.160E-05  0.160E-05
 -19.546  0.150E-05  0.150E-05
 -19.536  0.140E-05  0.140E-05
 -19.526  0.130E-05  0.130E-05
 -19.516  0.122E-05  0.122E-05
 -19.506  0.113E-05  0.113E-05
 -19.496  0.106E-05  0.106E-05
 -19.486  0.986E-06  0.986E-06
 -19.476  0.921E-06  0.921E-06
 -19.466  0.861E-06  0.861E-06
 -19.456  0.806E-06  0.806E-06
 -19.446  0.756E-06  0.756E-06
 -19.436  0.712E-06  0.712E-06
 -19.426  0.671E-06  0.671E-06
 -19.416  0.636E-06  0.636E-06
 -19.406  0.605E-06  0.605E-06
 -19.396  0.578E-06  0.578E-06
 -19.386  0.556E-06  0.556E-06
 -19.376  0.537E-06  0.537E-06
 -19.366  0.522E-06  0.522E-06
 -19.356  0.511E-06  0.511E-06
 -19.346  0.503E-06  0.503E-06
 -19.336  0.499E-06  0.499E-06
 -19.326  0.498E-06  0.498E-06
 -19.316  0.499E-06  0.499E-06
 -19.306  0.504E-06  0.504E-06
 -19.296  0.510E-06  0.510E-06
 -19.286  0.520E-06  0.520E-06
 -19.276  0.531E-06  0.531E-06
 -19.266  0.545E-06  0.545E-06
 -19.256  0.560E-06  0.560E-06
 -19.246  0.578E-06  0.578E-06
 -19.236  0.596E-06  0.596E-06
 -19.226  0.617E-06  0.617E-06
 -19.216  0.638E-06  0.638E-06
 -19.206  0.660E-06  0.660E-06
 -19.196  0.684E-06  0.684E-06
 -19.186  0.708E-06  0.708E-06
 -19.176  0.732E-06  0.732E-06
 -19.166  0.758E-06  0.758E-06
 -19.156  0.783E-06  0.783E-06
 -19.146  0.809E-06  0.809E-06
 -19.136  0.835E-06  0.835E-06
 -19.126  0.860E-06  0.860E-06
 -19.116  0.886E-06  0.886E-06
 -19.106  0.911E-06  0.911E-06
 -19.096  0.936E-06  0.936E-06
 -19.086  0.961E-06  0.961E-06
 -19.076  0.985E-06  0.985E-06
 -19.066  0.101E-05  0.101E-05
 -19.056  0.103E-05  0.103E-05
 -19.046  0.105E-05  0.105E-05
 -19.036  0.107E-05  0.107E-05
 -19.026  0.109E-05  0.109E-05
 -19.016  0.111E-05  0.111E-05
 -19.006  0.113E-05  0.113E-05
 -18.996  0.115E-05  0.115E-05
 -18.986  0.116E-05  0.116E-05
 -18.976  0.117E-05  0.117E-05
 -18.966  0.119E-05  0.119E-05
 -18.956  0.120E-05  0.120E-05
 -18.946  0.121E-05  0.121E-05
 -18.936  0.122E-05  0.122E-05
 -18.926  0.123E-05  0.123E-05
 -18.916  0.123E-05  0.123E-05
 -18.906  0.124E-05  0.124E-05
 -18.896  0.124E-05  0.124E-05
 -18.886  0.124E-05  0.124E-05
 -18.876  0.124E-05  0.124E-05
 -18.866  0.124E-05  0.124E-05
 -18.856  0.124E-05  0.124E-05
 -18.846  0.124E-05  0.124E-05
 -18.836  0.123E-05  0.123E-05
 -18.826  0.123E-05  0.123E-05
 -18.816  0.122E-05  0.122E-05
 -18.806  0.121E-05  0.121E-05
 -18.796  0.120E-05  0.120E-05
 -18.786  0.119E-05  0.119E-05
 -18.776  0.118E-05  0.118E-05
 -18.766  0.116E-05  0.116E-05
 -18.756  0.115E-05  0.115E-05
 -18.746  0.113E-05  0.113E-05
 -18.736  0.112E-05  0.112E-05
 -18.726  0.110E-05  0.110E-05
 -18.716  0.108E-05  0.108E-05
 -18.706  0.106E-05  0.106E-05
 -18.696  0.104E-05  0.104E-05
 -18.686  0.102E-05  0.102E-05
 -18.676  0.100E-05  0.100E-05
 -18.666  0.982E-06  0.982E-06
 -18.656  0.959E-06  0.959E-06
 -18.646  0.937E-06  0.937E-06
 -18.636  0.913E-06  0.913E-06
 -18.626  0.890E-06  0.890E-06
 -18.616  0.865E-06  0.865E-06
 -18.606  0.841E-06  0.841E-06
 -18.596  0.816E-06  0.816E-06
 -18.586  0.791E-06  0.791E-06
 -18.576  0.766E-06  0.766E-06
 -18.566  0.741E-06  0.741E-06
 -18.556  0.715E-06  0.715E-06
 -18.546  0.690E-06  0.690E-06
 -18.536  0.664E-06  0.664E-06
 -18.526  0.638E-06  0.638E-06
 -18.516  0.613E-06  0.613E-06
 -18.506  0.587E-06  0.587E-06
 -18.496  0.562E-06  0.562E-06
 -18.486  0.537E-06  0.537E-06
 -18.476  0.512E-06  0.512E-06
 -18.466  0.488E-06  0.488E-06
 -18.456  0.463E-06  0.463E-06
 -18.446  0.439E-06  0.439E-06
 -18.436  0.415E-06  0.415E-06
 -18.426  0.392E-06  0.392E-06
 -18.416  0.369E-06  0.369E-06
 -18.406  0.346E-06  0.346E-06
 -18.396  0.324E-06  0.324E-06
 -18.386  0.302E-06  0.302E-06
 -18.376  0.281E-06  0.281E-06
 -18.366  0.260E-06  0.260E-06
 -18.356  0.240E-06  0.240E-06
 -18.346  0.220E-06  0.220E-06
 -18.336  0.201E-06  0.201E-06
 -18.326  0.182E-06  0.182E-06
 -18.316  0.164E-06  0.164E-06
 -18.306  0.146E-06  0.146E-06
 -18.296  0.129E-06  0.129E-06
 -18.286  0.112E-06  0.112E-06
 -18.276  0.959E-07  0.959E-07
 -18.266  0.804E-07  0.804E-07
 -18.256  0.654E-07  0.654E-07
 -18.246  0.510E-07  0.510E-07
 -18.236  0.372E-07  0.372E-07
 -18.226  0.239E-07  0.239E-07
 -18.216  0.111E-07  0.111E-07
 -18.206 -0.108E-08 -0.108E-08
 -18.196 -0.127E-07 -0.127E-07
 -18.186 -0.239E-07 -0.239E-07
 -18.176 -0.344E-07 -0.344E-07
 -18.166 -0.445E-07 -0.445E-07
 -18.156 -0.541E-07 -0.541E-07
 -18.146 -0.631E-07 -0.631E-07
 -18.136 -0.716E-07 -0.716E-07
 -18.126 -0.797E-07 -0.797E-07
 -18.116 -0.873E-07 -0.873E-07
 -18.106 -0.944E-07 -0.944E-07
 -18.096 -0.101E-06 -0.101E-06
 -18.086 -0.107E-06 -0.107E-06
 -18.076 -0.113E-06 -0.113E-06
 -18.066 -0.118E-06 -0.118E-06
 -18.056 -0.123E-06 -0.123E-06
 -18.046 -0.128E-06 -0.128E-06
 -18.036 -0.132E-06 -0.132E-06
 -18.026 -0.135E-06 -0.135E-06
 -18.016 -0.139E-06 -0.139E-06
 -18.006 -0.141E-06 -0.141E-06
 -17.996 -0.144E-06 -0.144E-06
 -17.986 -0.146E-06 -0.146E-06
 -17.976 -0.148E-06 -0.148E-06
 -17.966 -0.149E-06 -0.149E-06
 -17.956 -0.151E-06 -0.151E-06
 -17.946 -0.151E-06 -0.151E-06
 -17.936 -0.152E-06 -0.152E-06
 -17.926 -0.152E-06 -0.152E-06
 -17.916 -0.152E-06 -0.152E-06
 -17.906 -0.152E-06 -0.152E-06
 -17.896 -0.151E-06 -0.151E-06
 -17.886 -0.150E-06 -0.150E-06
 -17.876 -0.149E-06 -0.149E-06
 -17.866 -0.147E-06 -0.147E-06
 -17.856 -0.145E-06 -0.145E-06
 -17.846 -0.143E-06 -0.143E-06
 -17.836 -0.141E-06 -0.141E-06
 -17.826 -0.138E-06 -0.138E-06
 -17.816 -0.135E-06 -0.135E-06
 -17.806 -0.132E-06 -0.132E-06
 -17.796 -0.128E-06 -0.128E-06
 -17.786 -0.125E-06 -0.125E-06
 -17.776 -0.121E-06 -0.121E-06
 -17.766 -0.117E-06 -0.117E-06
 -17.756 -0.112E-06 -0.112E-06
 -17.746 -0.107E-06 -0.107E-06
 -17.736 -0.102E-06 -0.102E-06
 -17.726 -0.970E-07 -0.970E-07
 -17.716 -0.914E-07 -0.914E-07
 -17.706 -0.856E-07 -0.856E-07
 -17.696 -0.795E-07 -0.795E-07
 -17.686 -0.732E-07 -0.732E-07
 -17.676 -0.666E-07 -0.666E-07
 -17.666 -0.597E-07 -0.597E-07
 -17.656 -0.525E-07 -0.525E-07
 -17.646 -0.451E-07 -0.451E-07
 -17.636 -0.374E-07 -0.374E-07
 -17.626 -0.294E-07 -0.294E-07
 -17.616 -0.212E-07 -0.212E-07
 -17.606 -0.127E-07 -0.127E-07
 -17.596 -0.393E-08 -0.393E-08
 -17.586  0.512E-08  0.512E-08
 -17.576  0.144E-07  0.144E-07
 -17.566  0.240E-07  0.240E-07
 -17.556  0.339E-07  0.339E-07
 -17.546  0.440E-07  0.440E-07
 -17.536  0.545E-07  0.545E-07
 -17.526  0.651E-07  0.651E-07
 -17.516  0.761E-07  0.761E-07
 -17.506  0.873E-07  0.873E-07
 -17.496  0.987E-07  0.987E-07
 -17.486  0.110E-06  0.110E-06
 -17.476  0.122E-06  0.122E-06
 -17.466  0.135E-06  0.135E-06
 -17.456  0.147E-06  0.147E-06
 -17.446  0.160E-06  0.160E-06
 -17.436  0.173E-06  0.173E-06
 -17.426  0.186E-06  0.186E-06
 -17.416  0.199E-06  0.199E-06
 -17.406  0.213E-06  0.213E-06
 -17.396  0.227E-06  0.227E-06
 -17.386  0.241E-06  0.241E-06
 -17.376  0.255E-06  0.255E-06
 -17.366  0.269E-06  0.269E-06
 -17.356  0.284E-06  0.284E-06
 -17.346  0.299E-06  0.299E-06
 -17.336  0.313E-06  0.313E-06
 -17.326  0.328E-06  0.328E-06
 -17.316  0.344E-06  0.344E-06
 -17.306  0.359E-06  0.359E-06
 -17.296  0.374E-06  0.374E-06
 -17.286  0.390E-06  0.390E-06
 -17.276  0.405E-06  0.405E-06
 -17.266  0.421E-06  0.421E-06
 -17.256  0.437E-06  0.437E-06
 -17.246  0.453E-06  0.453E-06
 -17.236  0.469E-06  0.469E-06
 -17.226  0.485E-06  0.485E-06
 -17.216  0.501E-06  0.501E-06
 -17.206  0.517E-06  0.517E-06
 -17.196  0.533E-06  0.533E-06
 -17.186  0.549E-06  0.549E-06
 -17.176  0.565E-06  0.565E-06
 -17.166  0.581E-06  0.581E-06
 -17.156  0.597E-06  0.597E-06
 -17.146  0.613E-06  0.613E-06
 -17.136  0.629E-06  0.629E-06
 -17.126  0.645E-06  0.645E-06
 -17.116  0.661E-06  0.661E-06
 -17.106  0.677E-06  0.677E-06
 -17.096  0.693E-06  0.693E-06
 -17.086  0.708E-06  0.708E-06
 -17.076  0.724E-06  0.724E-06
 -17.066  0.740E-06  0.740E-06
 -17.056  0.755E-06  0.755E-06
 -17.046  0.771E-06  0.771E-06
 -17.036  0.786E-06  0.786E-06
 -17.026  0.802E-06  0.802E-06
 -17.016  0.817E-06  0.817E-06
 -17.006  0.832E-06  0.832E-06
 -16.996  0.847E-06  0.847E-06
 -16.986  0.862E-06  0.862E-06
 -16.976  0.877E-06  0.877E-06
 -16.966  0.892E-06  0.892E-06
 -16.956  0.907E-06  0.907E-06
 -16.946  0.922E-06  0.922E-06
 -16.936  0.937E-06  0.937E-06
 -16.926  0.951E-06  0.951E-06
 -16.916  0.966E-06  0.966E-06
 -16.906  0.981E-06  0.981E-06
 -16.896  0.995E-06  0.995E-06
 -16.886  0.101E-05  0.101E-05
 -16.876  0.102E-05  0.102E-05
 -16.866  0.104E-05  0.104E-05
 -16.856  0.105E-05  0.105E-05
 -16.846  0.107E-05  0.107E-05
 -16.836  0.108E-05  0.108E-05
 -16.826  0.110E-05  0.110E-05
 -16.816  0.111E-05  0.111E-05
 -16.806  0.113E-05  0.113E-05
 -16.796  0.114E-05  0.114E-05
 -16.786  0.116E-05  0.116E-05
 -16.776  0.117E-05  0.117E-05
 -16.766  0.119E-05  0.119E-05
 -16.756  0.120E-05  0.120E-05
 -16.746  0.122E-05  0.122E-05
 -16.736  0.123E-05  0.123E-05
 -16.726  0.125E-05  0.125E-05
 -16.716  0.127E-05  0.127E-05
 -16.706  0.128E-05  0.128E-05
 -16.696  0.130E-05  0.130E-05
 -16.686  0.131E-05  0.131E-05
 -16.676  0.133E-05  0.133E-05
 -16.666  0.135E-05  0.135E-05
 -16.656  0.136E-05  0.136E-05
 -16.646  0.138E-05  0.138E-05
 -16.636  0.140E-05  0.140E-05
 -16.626  0.141E-05  0.141E-05
 -16.616  0.143E-05  0.143E-05
 -16.606  0.145E-05  0.145E-05
 -16.596  0.146E-05  0.146E-05
 -16.586  0.148E-05  0.148E-05
 -16.576  0.150E-05  0.150E-05
 -16.566  0.152E-05  0.152E-05
 -16.556  0.153E-05  0.153E-05
 -16.546  0.155E-05  0.155E-05
 -16.536  0.157E-05  0.157E-05
 -16.526  0.159E-05  0.159E-05
 -16.516  0.160E-05  0.160E-05
 -16.506  0.162E-05  0.162E-05
 -16.496  0.164E-05  0.164E-05
 -16.486  0.166E-05  0.166E-05
 -16.476  0.167E-05  0.167E-05
 -16.466  0.169E-05  0.169E-05
 -16.456  0.171E-05  0.171E-05
 -16.446  0.173E-05  0.173E-05
 -16.436  0.174E-05  0.174E-05
 -16.426  0.176E-05  0.176E-05
 -16.416  0.178E-05  0.178E-05
 -16.406  0.179E-05  0.179E-05
 -16.396  0.181E-05  0.181E-05
 -16.386  0.182E-05  0.182E-05
 -16.376  0.184E-05  0.184E-05
 -16.366  0.185E-05  0.185E-05
 -16.356  0.187E-05  0.187E-05
 -16.346  0.188E-05  0.188E-05
 -16.336  0.189E-05  0.189E-05
 -16.326  0.191E-05  0.191E-05
 -16.316  0.192E-05  0.192E-05
 -16.306  0.193E-05  0.193E-05
 -16.296  0.194E-05  0.194E-05
 -16.286  0.195E-05  0.195E-05
 -16.276  0.196E-05  0.196E-05
 -16.266  0.197E-05  0.197E-05
 -16.256  0.198E-05  0.198E-05
 -16.246  0.198E-05  0.198E-05
 -16.236  0.199E-05  0.199E-05
 -16.226  0.200E-05  0.200E-05
 -16.216  0.200E-05  0.200E-05
 -16.206  0.201E-05  0.201E-05
 -16.196  0.201E-05  0.201E-05
 -16.186  0.201E-05  0.201E-05
 -16.176  0.201E-05  0.201E-05
 -16.166  0.201E-05  0.201E-05
 -16.156  0.201E-05  0.201E-05
 -16.146  0.201E-05  0.201E-05
 -16.136  0.201E-05  0.201E-05
 -16.126  0.200E-05  0.200E-05
 -16.116  0.200E-05  0.200E-05
 -16.106  0.199E-05  0.199E-05
 -16.096  0.198E-05  0.198E-05
 -16.086  0.197E-05  0.197E-05
 -16.076  0.196E-05  0.196E-05
 -16.066  0.195E-05  0.195E-05
 -16.056  0.194E-05  0.194E-05
 -16.046  0.193E-05  0.193E-05
 -16.036  0.192E-05  0.192E-05
 -16.026  0.190E-05  0.190E-05
 -16.016  0.189E-05  0.189E-05
 -16.006  0.187E-05  0.187E-05
 -15.996  0.185E-05  0.185E-05
 -15.986  0.183E-05  0.183E-05
 -15.976  0.181E-05  0.181E-05
 -15.966  0.179E-05  0.179E-05
 -15.956  0.177E-05  0.177E-05
 -15.946  0.175E-05  0.175E-05
 -15.936  0.172E-05  0.172E-05
 -15.926  0.170E-05  0.170E-05
 -15.916  0.167E-05  0.167E-05
 -15.906  0.165E-05  0.165E-05
 -15.896  0.162E-05  0.162E-05
 -15.886  0.159E-05  0.159E-05
 -15.876  0.157E-05  0.157E-05
 -15.866  0.154E-05  0.154E-05
 -15.856  0.151E-05  0.151E-05
 -15.846  0.148E-05  0.148E-05
 -15.836  0.145E-05  0.145E-05
 -15.826  0.141E-05  0.141E-05
 -15.816  0.138E-05  0.138E-05
 -15.806  0.135E-05  0.135E-05
 -15.796  0.132E-05  0.132E-05
 -15.786  0.128E-05  0.128E-05
 -15.776  0.125E-05  0.125E-05
 -15.766  0.122E-05  0.122E-05
 -15.756  0.118E-05  0.118E-05
 -15.746  0.115E-05  0.115E-05
 -15.736  0.111E-05  0.111E-05
 -15.726  0.108E-05  0.108E-05
 -15.716  0.104E-05  0.104E-05
 -15.706  0.101E-05  0.101E-05
 -15.696  0.974E-06  0.974E-06
 -15.686  0.939E-06  0.939E-06
 -15.676  0.904E-06  0.904E-06
 -15.666  0.869E-06  0.869E-06
 -15.656  0.834E-06  0.834E-06
 -15.646  0.799E-06  0.799E-06
 -15.636  0.764E-06  0.764E-06
 -15.626  0.730E-06  0.730E-06
 -15.616  0.695E-06  0.695E-06
 -15.606  0.661E-06  0.661E-06
 -15.596  0.627E-06  0.627E-06
 -15.586  0.593E-06  0.593E-06
 -15.576  0.560E-06  0.560E-06
 -15.566  0.527E-06  0.527E-06
 -15.556  0.494E-06  0.494E-06
 -15.546  0.461E-06  0.461E-06
 -15.536  0.429E-06  0.429E-06
 -15.526  0.397E-06  0.397E-06
 -15.516  0.366E-06  0.366E-06
 -15.506  0.334E-06  0.334E-06
 -15.496  0.303E-06  0.303E-06
 -15.486  0.273E-06  0.273E-06
 -15.476  0.242E-06  0.242E-06
 -15.466  0.212E-06  0.212E-06
 -15.456  0.183E-06  0.183E-06
 -15.446  0.153E-06  0.153E-06
 -15.436  0.124E-06  0.124E-06
 -15.426  0.957E-07  0.957E-07
 -15.416  0.672E-07  0.672E-07
 -15.406  0.391E-07  0.391E-07
 -15.396  0.111E-07  0.111E-07
 -15.386 -0.166E-07 -0.166E-07
 -15.376 -0.441E-07 -0.441E-07
 -15.366 -0.714E-07 -0.714E-07
 -15.356 -0.986E-07 -0.986E-07
 -15.346 -0.126E-06 -0.126E-06
 -15.336 -0.152E-06 -0.152E-06
 -15.326 -0.179E-06 -0.179E-06
 -15.316 -0.206E-06 -0.206E-06
 -15.306 -0.233E-06 -0.233E-06
 -15.296 -0.260E-06 -0.260E-06
 -15.286 -0.286E-06 -0.286E-06
 -15.276 -0.313E-06 -0.313E-06
 -15.266 -0.340E-06 -0.340E-06
 -15.256 -0.367E-06 -0.367E-06
 -15.246 -0.394E-06 -0.394E-06
 -15.236 -0.422E-06 -0.422E-06
 -15.226 -0.450E-06 -0.450E-06
 -15.216 -0.478E-06 -0.478E-06
 -15.206 -0.506E-06 -0.506E-06
 -15.196 -0.535E-06 -0.535E-06
 -15.186 -0.564E-06 -0.564E-06
 -15.176 -0.593E-06 -0.593E-06
 -15.166 -0.623E-06 -0.623E-06
 -15.156 -0.653E-06 -0.653E-06
 -15.146 -0.684E-06 -0.684E-06
 -15.136 -0.716E-06 -0.716E-06
 -15.126 -0.748E-06 -0.748E-06
 -15.116 -0.780E-06 -0.780E-06
 -15.106 -0.813E-06 -0.813E-06
 -15.096 -0.847E-06 -0.847E-06
 -15.086 -0.882E-06 -0.882E-06
 -15.076 -0.917E-06 -0.917E-06
 -15.066 -0.953E-06 -0.953E-06
 -15.056 -0.989E-06 -0.989E-06
 -15.046 -0.103E-05 -0.103E-05
 -15.036 -0.106E-05 -0.106E-05
 -15.026 -0.110E-05 -0.110E-05
 -15.016 -0.114E-05 -0.114E-05
 -15.006 -0.118E-05 -0.118E-05
 -14.996 -0.122E-05 -0.122E-05
 -14.986 -0.127E-05 -0.127E-05
 -14.976 -0.131E-05 -0.131E-05
 -14.966 -0.135E-05 -0.135E-05
 -14.956 -0.140E-05 -0.140E-05
 -14.946 -0.144E-05 -0.144E-05
 -14.936 -0.149E-05 -0.149E-05
 -14.926 -0.153E-05 -0.153E-05
 -14.916 -0.158E-05 -0.158E-05
 -14.906 -0.162E-05 -0.162E-05
 -14.896 -0.167E-05 -0.167E-05
 -14.886 -0.172E-05 -0.172E-05
 -14.876 -0.177E-05 -0.177E-05
 -14.866 -0.181E-05 -0.181E-05
 -14.856 -0.186E-05 -0.186E-05
 -14.846 -0.191E-05 -0.191E-05
 -14.836 -0.196E-05 -0.196E-05
 -14.826 -0.201E-05 -0.201E-05
 -14.816 -0.205E-05 -0.205E-05
 -14.806 -0.210E-05 -0.210E-05
 -14.796 -0.215E-05 -0.215E-05
 -14.786 -0.219E-05 -0.219E-05
 -14.776 -0.224E-05 -0.224E-05
 -14.766 -0.228E-05 -0.228E-05
 -14.756 -0.233E-05 -0.233E-05
 -14.746 -0.237E-05 -0.237E-05
 -14.736 -0.241E-05 -0.241E-05
 -14.726 -0.245E-05 -0.245E-05
 -14.716 -0.248E-05 -0.248E-05
 -14.706 -0.252E-05 -0.252E-05
 -14.696 -0.255E-05 -0.255E-05
 -14.686 -0.258E-05 -0.258E-05
 -14.676 -0.261E-05 -0.261E-05
 -14.666 -0.263E-05 -0.263E-05
 -14.656 -0.265E-05 -0.265E-05
 -14.646 -0.267E-05 -0.267E-05
 -14.636 -0.268E-05 -0.268E-05
 -14.626 -0.269E-05 -0.269E-05
 -14.616 -0.269E-05 -0.269E-05
 -14.606 -0.269E-05 -0.269E-05
 -14.596 -0.269E-05 -0.269E-05
 -14.586 -0.267E-05 -0.267E-05
 -14.576 -0.266E-05 -0.266E-05
 -14.566 -0.263E-05 -0.263E-05
 -14.556 -0.260E-05 -0.260E-05
 -14.546 -0.257E-05 -0.257E-05
 -14.536 -0.252E-05 -0.252E-05
 -14.526 -0.247E-05 -0.247E-05
 -14.516 -0.241E-05 -0.241E-05
 -14.506 -0.234E-05 -0.234E-05
 -14.496 -0.226E-05 -0.226E-05
 -14.486 -0.218E-05 -0.218E-05
 -14.476 -0.208E-05 -0.208E-05
 -14.466 -0.198E-05 -0.198E-05
 -14.456 -0.186E-05 -0.186E-05
 -14.446 -0.173E-05 -0.173E-05
 -14.436 -0.159E-05 -0.159E-05
 -14.426 -0.144E-05 -0.144E-05
 -14.416 -0.128E-05 -0.128E-05
 -14.406 -0.110E-05 -0.110E-05
 -14.396 -0.915E-06 -0.915E-06
 -14.386 -0.712E-06 -0.712E-06
 -14.376 -0.496E-06 -0.496E-06
 -14.366 -0.266E-06 -0.266E-06
 -14.356 -0.204E-07 -0.204E-07
 -14.346  0.240E-06  0.240E-06
 -14.336  0.516E-06  0.516E-06
 -14.326  0.808E-06  0.808E-06
 -14.316  0.112E-05  0.112E-05
 -14.306  0.144E-05  0.144E-05
 -14.296  0.178E-05  0.178E-05
 -14.286  0.214E-05  0.214E-05
 -14.276  0.252E-05  0.252E-05
 -14.266  0.292E-05  0.292E-05
 -14.256  0.333E-05  0.333E-05
 -14.246  0.376E-05  0.376E-05
 -14.236  0.421E-05  0.421E-05
 -14.226  0.469E-05  0.469E-05
 -14.216  0.518E-05  0.518E-05
 -14.206  0.569E-05  0.569E-05
 -14.196  0.622E-05  0.622E-05
 -14.186  0.676E-05  0.676E-05
 -14.176  0.733E-05  0.733E-05
 -14.166  0.792E-05  0.792E-05
 -14.156  0.853E-05  0.853E-05
 -14.146  0.917E-05  0.917E-05
 -14.136  0.982E-05  0.982E-05
 -14.126  0.105E-04  0.105E-04
 -14.116  0.112E-04  0.112E-04
 -14.106  0.119E-04  0.119E-04
 -14.096  0.126E-04  0.126E-04
 -14.086  0.134E-04  0.134E-04
 -14.076  0.141E-04  0.141E-04
 -14.066  0.149E-04  0.149E-04
 -14.056  0.157E-04  0.157E-04
 -14.046  0.166E-04  0.166E-04
 -14.036  0.174E-04  0.174E-04
 -14.026  0.183E-04  0.183E-04
 -14.016  0.192E-04  0.192E-04
 -14.006  0.201E-04  0.201E-04
 -13.996  0.210E-04  0.210E-04
 -13.986  0.219E-04  0.219E-04
 -13.976  0.229E-04  0.229E-04
 -13.966  0.238E-04  0.238E-04
 -13.956  0.248E-04  0.248E-04
 -13.946  0.258E-04  0.258E-04
 -13.936  0.268E-04  0.268E-04
 -13.926  0.278E-04  0.278E-04
 -13.916  0.288E-04  0.288E-04
 -13.906  0.299E-04  0.299E-04
 -13.896  0.309E-04  0.309E-04
 -13.886  0.320E-04  0.320E-04
 -13.876  0.330E-04  0.330E-04
 -13.866  0.341E-04  0.341E-04
 -13.856  0.351E-04  0.351E-04
 -13.846  0.362E-04  0.362E-04
 -13.836  0.373E-04  0.373E-04
 -13.826  0.384E-04  0.384E-04
 -13.816  0.395E-04  0.395E-04
 -13.806  0.405E-04  0.405E-04
 -13.796  0.416E-04  0.416E-04
 -13.786  0.427E-04  0.427E-04
 -13.776  0.438E-04  0.438E-04
 -13.766  0.448E-04  0.448E-04
 -13.756  0.459E-04  0.459E-04
 -13.746  0.469E-04  0.469E-04
 -13.736  0.480E-04  0.480E-04
 -13.726  0.490E-04  0.490E-04
 -13.716  0.500E-04  0.500E-04
 -13.706  0.510E-04  0.510E-04
 -13.696  0.520E-04  0.520E-04
 -13.686  0.530E-04  0.530E-04
 -13.676  0.539E-04  0.539E-04
 -13.666  0.549E-04  0.549E-04
 -13.656  0.558E-04  0.558E-04
 -13.646  0.567E-04  0.567E-04
 -13.636  0.576E-04  0.576E-04
 -13.626  0.584E-04  0.584E-04
 -13.616  0.592E-04  0.592E-04
 -13.606  0.600E-04  0.600E-04
 -13.596  0.608E-04  0.608E-04
 -13.586  0.615E-04  0.615E-04
 -13.576  0.623E-04  0.623E-04
 -13.566  0.629E-04  0.629E-04
 -13.556  0.636E-04  0.636E-04
 -13.546  0.642E-04  0.642E-04
 -13.536  0.648E-04  0.648E-04
 -13.526  0.654E-04  0.654E-04
 -13.516  0.659E-04  0.659E-04
 -13.506  0.664E-04  0.664E-04
 -13.496  0.668E-04  0.668E-04
 -13.486  0.672E-04  0.672E-04
 -13.476  0.676E-04  0.676E-04
 -13.466  0.679E-04  0.679E-04
 -13.456  0.682E-04  0.682E-04
 -13.446  0.685E-04  0.685E-04
 -13.436  0.687E-04  0.687E-04
 -13.426  0.689E-04  0.689E-04
 -13.416  0.690E-04  0.690E-04
 -13.406  0.691E-04  0.691E-04
 -13.396  0.692E-04  0.692E-04
 -13.386  0.692E-04  0.692E-04
 -13.376  0.691E-04  0.691E-04
 -13.366  0.691E-04  0.691E-04
 -13.356  0.690E-04  0.690E-04
 -13.346  0.688E-04  0.688E-04
 -13.336  0.687E-04  0.687E-04
 -13.326  0.684E-04  0.684E-04
 -13.316  0.682E-04  0.682E-04
 -13.306  0.679E-04  0.679E-04
 -13.296  0.675E-04  0.675E-04
 -13.286  0.672E-04  0.672E-04
 -13.276  0.667E-04  0.667E-04
 -13.266  0.663E-04  0.663E-04
 -13.256  0.658E-04  0.658E-04
 -13.246  0.653E-04  0.653E-04
 -13.236  0.647E-04  0.647E-04
 -13.226  0.641E-04  0.641E-04
 -13.216  0.635E-04  0.635E-04
 -13.206  0.629E-04  0.629E-04
 -13.196  0.622E-04  0.622E-04
 -13.186  0.615E-04  0.615E-04
 -13.176  0.607E-04  0.607E-04
 -13.166  0.600E-04  0.600E-04
 -13.156  0.592E-04  0.592E-04
 -13.146  0.584E-04  0.584E-04
 -13.136  0.575E-04  0.575E-04
 -13.126  0.567E-04  0.567E-04
 -13.116  0.558E-04  0.558E-04
 -13.106  0.549E-04  0.549E-04
 -13.096  0.540E-04  0.540E-04
 -13.086  0.530E-04  0.530E-04
 -13.076  0.521E-04  0.521E-04
 -13.066  0.511E-04  0.511E-04
 -13.056  0.501E-04  0.501E-04
 -13.046  0.491E-04  0.491E-04
 -13.036  0.481E-04  0.481E-04
 -13.026  0.471E-04  0.471E-04
 -13.016  0.460E-04  0.460E-04
 -13.006  0.450E-04  0.450E-04
 -12.996  0.439E-04  0.439E-04
 -12.986  0.429E-04  0.429E-04
 -12.976  0.418E-04  0.418E-04
 -12.966  0.408E-04  0.408E-04
 -12.956  0.397E-04  0.397E-04
 -12.946  0.387E-04  0.387E-04
 -12.936  0.376E-04  0.376E-04
 -12.926  0.365E-04  0.365E-04
 -12.916  0.355E-04  0.355E-04
 -12.906  0.344E-04  0.344E-04
 -12.896  0.334E-04  0.334E-04
 -12.886  0.323E-04  0.323E-04
 -12.876  0.313E-04  0.313E-04
 -12.866  0.303E-04  0.303E-04
 -12.856  0.292E-04  0.292E-04
 -12.846  0.282E-04  0.282E-04
 -12.836  0.272E-04  0.272E-04
 -12.826  0.262E-04  0.262E-04
 -12.816  0.252E-04  0.252E-04
 -12.806  0.243E-04  0.243E-04
 -12.796  0.233E-04  0.233E-04
 -12.786  0.224E-04  0.224E-04
 -12.776  0.214E-04  0.214E-04
 -12.766  0.205E-04  0.205E-04
 -12.756  0.196E-04  0.196E-04
 -12.746  0.187E-04  0.187E-04
 -12.736  0.179E-04  0.179E-04
 -12.726  0.170E-04  0.170E-04
 -12.716  0.162E-04  0.162E-04
 -12.706  0.153E-04  0.153E-04
 -12.696  0.145E-04  0.145E-04
 -12.686  0.137E-04  0.137E-04
 -12.676  0.130E-04  0.130E-04
 -12.666  0.122E-04  0.122E-04
 -12.656  0.115E-04  0.115E-04
 -12.646  0.108E-04  0.108E-04
 -12.636  0.101E-04  0.101E-04
 -12.626  0.938E-05  0.938E-05
 -12.616  0.871E-05  0.871E-05
 -12.606  0.806E-05  0.806E-05
 -12.596  0.743E-05  0.743E-05
 -12.586  0.682E-05  0.682E-05
 -12.576  0.623E-05  0.623E-05
 -12.566  0.565E-05  0.565E-05
 -12.556  0.509E-05  0.509E-05
 -12.546  0.455E-05  0.455E-05
 -12.536  0.403E-05  0.403E-05
 -12.526  0.352E-05  0.352E-05
 -12.516  0.303E-05  0.303E-05
 -12.506  0.256E-05  0.256E-05
 -12.496  0.210E-05  0.210E-05
 -12.486  0.166E-05  0.166E-05
 -12.476  0.124E-05  0.124E-05
 -12.466  0.834E-06  0.834E-06
 -12.456  0.444E-06  0.444E-06
 -12.446  0.693E-07  0.693E-07
 -12.436 -0.289E-06 -0.289E-06
 -12.426 -0.633E-06 -0.633E-06
 -12.416 -0.961E-06 -0.961E-06
 -12.406 -0.127E-05 -0.127E-05
 -12.396 -0.157E-05 -0.157E-05
 -12.386 -0.186E-05 -0.186E-05
 -12.376 -0.212E-05 -0.212E-05
 -12.366 -0.238E-05 -0.238E-05
 -12.356 -0.262E-05 -0.262E-05
 -12.346 -0.284E-05 -0.284E-05
 -12.336 -0.306E-05 -0.306E-05
 -12.326 -0.325E-05 -0.325E-05
 -12.316 -0.344E-05 -0.344E-05
 -12.306 -0.361E-05 -0.361E-05
 -12.296 -0.377E-05 -0.377E-05
 -12.286 -0.391E-05 -0.391E-05
 -12.276 -0.404E-05 -0.404E-05
 -12.266 -0.416E-05 -0.416E-05
 -12.256 -0.427E-05 -0.427E-05
 -12.246 -0.436E-05 -0.436E-05
 -12.236 -0.444E-05 -0.444E-05
 -12.226 -0.450E-05 -0.450E-05
 -12.216 -0.455E-05 -0.455E-05
 -12.206 -0.459E-05 -0.459E-05
 -12.196 -0.462E-05 -0.462E-05
 -12.186 -0.463E-05 -0.463E-05
 -12.176 -0.463E-05 -0.463E-05
 -12.166 -0.462E-05 -0.462E-05
 -12.156 -0.459E-05 -0.459E-05
 -12.146 -0.455E-05 -0.455E-05
 -12.136 -0.449E-05 -0.449E-05
 -12.126 -0.442E-05 -0.442E-05
 -12.116 -0.434E-05 -0.434E-05
 -12.106 -0.425E-05 -0.425E-05
 -12.096 -0.414E-05 -0.414E-05
 -12.086 -0.401E-05 -0.401E-05
 -12.076 -0.387E-05 -0.387E-05
 -12.066 -0.372E-05 -0.372E-05
 -12.056 -0.355E-05 -0.355E-05
 -12.046 -0.337E-05 -0.337E-05
 -12.036 -0.317E-05 -0.317E-05
 -12.026 -0.295E-05 -0.295E-05
 -12.016 -0.272E-05 -0.272E-05
 -12.006 -0.248E-05 -0.248E-05
 -11.996 -0.222E-05 -0.222E-05
 -11.986 -0.194E-05 -0.194E-05
 -11.976 -0.165E-05 -0.165E-05
 -11.966 -0.134E-05 -0.134E-05
 -11.956 -0.101E-05 -0.101E-05
 -11.946 -0.670E-06 -0.670E-06
 -11.936 -0.311E-06 -0.311E-06
 -11.926  0.642E-07  0.642E-07
 -11.916  0.456E-06  0.456E-06
 -11.906  0.865E-06  0.865E-06
 -11.896  0.129E-05  0.129E-05
 -11.886  0.173E-05  0.173E-05
 -11.876  0.219E-05  0.219E-05
 -11.866  0.267E-05  0.267E-05
 -11.856  0.316E-05  0.316E-05
 -11.846  0.367E-05  0.367E-05
 -11.836  0.419E-05  0.419E-05
 -11.826  0.474E-05  0.474E-05
 -11.816  0.529E-05  0.529E-05
 -11.806  0.587E-05  0.587E-05
 -11.796  0.646E-05  0.646E-05
 -11.786  0.706E-05  0.706E-05
 -11.776  0.768E-05  0.768E-05
 -11.766  0.832E-05  0.832E-05
 -11.756  0.897E-05  0.897E-05
 -11.746  0.963E-05  0.963E-05
 -11.736  0.103E-04  0.103E-04
 -11.726  0.110E-04  0.110E-04
 -11.716  0.117E-04  0.117E-04
 -11.706  0.124E-04  0.124E-04
 -11.696  0.131E-04  0.131E-04
 -11.686  0.139E-04  0.139E-04
 -11.676  0.146E-04  0.146E-04
 -11.666  0.154E-04  0.154E-04
 -11.656  0.161E-04  0.161E-04
 -11.646  0.169E-04  0.169E-04
 -11.636  0.177E-04  0.177E-04
 -11.626  0.185E-04  0.185E-04
 -11.616  0.193E-04  0.193E-04
 -11.606  0.201E-04  0.201E-04
 -11.596  0.209E-04  0.209E-04
 -11.586  0.217E-04  0.217E-04
 -11.576  0.225E-04  0.225E-04
 -11.566  0.233E-04  0.233E-04
 -11.556  0.240E-04  0.240E-04
 -11.546  0.248E-04  0.248E-04
 -11.536  0.256E-04  0.256E-04
 -11.526  0.264E-04  0.264E-04
 -11.516  0.272E-04  0.272E-04
 -11.506  0.280E-04  0.280E-04
 -11.496  0.287E-04  0.287E-04
 -11.486  0.295E-04  0.295E-04
 -11.476  0.302E-04  0.302E-04
 -11.466  0.310E-04  0.310E-04
 -11.456  0.317E-04  0.317E-04
 -11.446  0.324E-04  0.324E-04
 -11.436  0.330E-04  0.330E-04
 -11.426  0.337E-04  0.337E-04
 -11.416  0.343E-04  0.343E-04
 -11.406  0.350E-04  0.350E-04
 -11.396  0.356E-04  0.356E-04
 -11.386  0.361E-04  0.361E-04
 -11.376  0.367E-04  0.367E-04
 -11.366  0.372E-04  0.372E-04
 -11.356  0.377E-04  0.377E-04
 -11.346  0.381E-04  0.381E-04
 -11.336  0.385E-04  0.385E-04
 -11.326  0.389E-04  0.389E-04
 -11.316  0.393E-04  0.393E-04
 -11.306  0.396E-04  0.396E-04
 -11.296  0.398E-04  0.398E-04
 -11.286  0.400E-04  0.400E-04
 -11.276  0.402E-04  0.402E-04
 -11.266  0.403E-04  0.403E-04
 -11.256  0.404E-04  0.404E-04
 -11.246  0.404E-04  0.404E-04
 -11.236  0.404E-04  0.404E-04
 -11.226  0.403E-04  0.403E-04
 -11.216  0.402E-04  0.402E-04
 -11.206  0.400E-04  0.400E-04
 -11.196  0.397E-04  0.397E-04
 -11.186  0.394E-04  0.394E-04
 -11.176  0.390E-04  0.390E-04
 -11.166  0.385E-04  0.385E-04
 -11.156  0.380E-04  0.380E-04
 -11.146  0.373E-04  0.373E-04
 -11.136  0.366E-04  0.366E-04
 -11.126  0.358E-04  0.358E-04
 -11.116  0.350E-04  0.350E-04
 -11.106  0.340E-04  0.340E-04
 -11.096  0.329E-04  0.329E-04
 -11.086  0.318E-04  0.318E-04
 -11.076  0.305E-04  0.305E-04
 -11.066  0.292E-04  0.292E-04
 -11.056  0.277E-04  0.277E-04
 -11.046  0.261E-04  0.261E-04
 -11.036  0.244E-04  0.244E-04
 -11.026  0.225E-04  0.225E-04
 -11.016  0.205E-04  0.205E-04
 -11.006  0.184E-04  0.184E-04
 -10.996  0.162E-04  0.162E-04
 -10.986  0.138E-04  0.138E-04
 -10.976  0.112E-04  0.112E-04
 -10.966  0.847E-05  0.847E-05
 -10.956  0.557E-05  0.557E-05
 -10.946  0.248E-05  0.248E-05
 -10.936 -0.792E-06 -0.792E-06
 -10.926 -0.426E-05 -0.426E-05
 -10.916 -0.794E-05 -0.794E-05
 -10.906 -0.118E-04 -0.118E-04
 -10.896 -0.160E-04 -0.160E-04
 -10.886 -0.203E-04 -0.203E-04
 -10.876 -0.249E-04 -0.249E-04
 -10.866 -0.298E-04 -0.298E-04
 -10.856 -0.349E-04 -0.349E-04
 -10.846 -0.403E-04 -0.403E-04
 -10.836 -0.461E-04 -0.461E-04
 -10.826 -0.521E-04 -0.521E-04
 -10.816 -0.584E-04 -0.584E-04
 -10.806 -0.651E-04 -0.651E-04
 -10.796 -0.722E-04 -0.722E-04
 -10.786 -0.796E-04 -0.796E-04
 -10.776 -0.874E-04 -0.874E-04
 -10.766 -0.956E-04 -0.956E-04
 -10.756 -0.104E-03 -0.104E-03
 -10.746 -0.113E-03 -0.113E-03
 -10.736 -0.123E-03 -0.123E-03
 -10.726 -0.133E-03 -0.133E-03
 -10.716 -0.143E-03 -0.143E-03
 -10.706 -0.154E-03 -0.154E-03
 -10.696 -0.166E-03 -0.166E-03
 -10.686 -0.178E-03 -0.178E-03
 -10.676 -0.190E-03 -0.190E-03
 -10.666 -0.204E-03 -0.204E-03
 -10.656 -0.217E-03 -0.217E-03
 -10.646 -0.232E-03 -0.232E-03
 -10.636 -0.247E-03 -0.247E-03
 -10.626 -0.263E-03 -0.263E-03
 -10.616 -0.279E-03 -0.279E-03
 -10.606 -0.296E-03 -0.296E-03
 -10.596 -0.314E-03 -0.314E-03
 -10.586 -0.333E-03 -0.333E-03
 -10.576 -0.353E-03 -0.353E-03
 -10.566 -0.373E-03 -0.373E-03
 -10.556 -0.394E-03 -0.394E-03
 -10.546 -0.416E-03 -0.416E-03
 -10.536 -0.439E-03 -0.439E-03
 -10.526 -0.462E-03 -0.462E-03
 -10.516 -0.487E-03 -0.487E-03
 -10.506 -0.512E-03 -0.512E-03
 -10.496 -0.539E-03 -0.539E-03
 -10.486 -0.566E-03 -0.566E-03
 -10.476 -0.594E-03 -0.594E-03
 -10.466 -0.623E-03 -0.623E-03
 -10.456 -0.654E-03 -0.654E-03
 -10.446 -0.685E-03 -0.685E-03
 -10.436 -0.717E-03 -0.717E-03
 -10.426 -0.750E-03 -0.750E-03
 -10.416 -0.784E-03 -0.784E-03
 -10.406 -0.819E-03 -0.819E-03
 -10.396 -0.855E-03 -0.855E-03
 -10.386 -0.892E-03 -0.892E-03
 -10.376 -0.930E-03 -0.930E-03
 -10.366 -0.968E-03 -0.968E-03
 -10.356 -0.101E-02 -0.101E-02
 -10.346 -0.105E-02 -0.105E-02
 -10.336 -0.109E-02 -0.109E-02
 -10.326 -0.113E-02 -0.113E-02
 -10.316 -0.118E-02 -0.118E-02
 -10.306 -0.122E-02 -0.122E-02
 -10.296 -0.126E-02 -0.126E-02
 -10.286 -0.131E-02 -0.131E-02
 -10.276 -0.135E-02 -0.135E-02
 -10.266 -0.140E-02 -0.140E-02
 -10.256 -0.145E-02 -0.145E-02
 -10.246 -0.149E-02 -0.149E-02
 -10.236 -0.154E-02 -0.154E-02
 -10.226 -0.159E-02 -0.159E-02
 -10.216 -0.163E-02 -0.163E-02
 -10.206 -0.168E-02 -0.168E-02
 -10.196 -0.173E-02 -0.173E-02
 -10.186 -0.178E-02 -0.178E-02
 -10.176 -0.182E-02 -0.182E-02
 -10.166 -0.187E-02 -0.187E-02
 -10.156 -0.191E-02 -0.191E-02
 -10.146 -0.196E-02 -0.196E-02
 -10.136 -0.200E-02 -0.200E-02
 -10.126 -0.204E-02 -0.204E-02
 -10.116 -0.208E-02 -0.208E-02
 -10.106 -0.212E-02 -0.212E-02
 -10.096 -0.216E-02 -0.216E-02
 -10.086 -0.220E-02 -0.220E-02
 -10.076 -0.223E-02 -0.223E-02
 -10.066 -0.226E-02 -0.226E-02
 -10.056 -0.229E-02 -0.229E-02
 -10.046 -0.231E-02 -0.231E-02
 -10.036 -0.234E-02 -0.234E-02
 -10.026 -0.236E-02 -0.236E-02
 -10.016 -0.237E-02 -0.237E-02
 -10.006 -0.238E-02 -0.238E-02
  -9.996 -0.239E-02 -0.239E-02
  -9.986 -0.239E-02 -0.239E-02
  -9.976 -0.239E-02 -0.239E-02
  -9.966 -0.239E-02 -0.239E-02
  -9.956 -0.237E-02 -0.237E-02
  -9.946 -0.236E-02 -0.236E-02
  -9.936 -0.233E-02 -0.233E-02
  -9.926 -0.230E-02 -0.230E-02
  -9.916 -0.227E-02 -0.227E-02
  -9.906 -0.222E-02 -0.222E-02
  -9.896 -0.217E-02 -0.217E-02
  -9.886 -0.212E-02 -0.212E-02
  -9.876 -0.205E-02 -0.205E-02
  -9.866 -0.198E-02 -0.198E-02
  -9.856 -0.189E-02 -0.189E-02
  -9.846 -0.180E-02 -0.180E-02
  -9.836 -0.170E-02 -0.170E-02
  -9.826 -0.159E-02 -0.159E-02
  -9.816 -0.147E-02 -0.147E-02
  -9.806 -0.134E-02 -0.134E-02
  -9.796 -0.120E-02 -0.120E-02
  -9.786 -0.104E-02 -0.104E-02
  -9.776 -0.881E-03 -0.881E-03
  -9.766 -0.706E-03 -0.706E-03
  -9.756 -0.519E-03 -0.519E-03
  -9.746 -0.320E-03 -0.320E-03
  -9.736 -0.109E-03 -0.109E-03
  -9.726  0.115E-03  0.115E-03
  -9.716  0.352E-03  0.352E-03
  -9.706  0.602E-03  0.602E-03
  -9.696  0.865E-03  0.865E-03
  -9.686  0.114E-02  0.114E-02
  -9.676  0.143E-02  0.143E-02
  -9.666  0.174E-02  0.174E-02
  -9.656  0.206E-02  0.206E-02
  -9.646  0.239E-02  0.239E-02
  -9.636  0.274E-02  0.274E-02
  -9.626  0.310E-02  0.310E-02
  -9.616  0.347E-02  0.347E-02
  -9.606  0.386E-02  0.386E-02
  -9.596  0.427E-02  0.427E-02
  -9.586  0.469E-02  0.469E-02
  -9.576  0.512E-02  0.512E-02
  -9.566  0.557E-02  0.557E-02
  -9.556  0.604E-02  0.604E-02
  -9.546  0.651E-02  0.651E-02
  -9.536  0.701E-02  0.701E-02
  -9.526  0.751E-02  0.751E-02
  -9.516  0.803E-02  0.803E-02
  -9.506  0.857E-02  0.857E-02
  -9.496  0.912E-02  0.912E-02
  -9.486  0.968E-02  0.968E-02
  -9.476  0.103E-01  0.103E-01
  -9.466  0.108E-01  0.108E-01
  -9.456  0.114E-01  0.114E-01
  -9.446  0.120E-01  0.120E-01
  -9.436  0.127E-01  0.127E-01
  -9.426  0.133E-01  0.133E-01
  -9.416  0.140E-01  0.140E-01
  -9.406  0.146E-01  0.146E-01
  -9.396  0.153E-01  0.153E-01
  -9.386  0.160E-01  0.160E-01
  -9.376  0.166E-01  0.166E-01
  -9.366  0.173E-01  0.173E-01
  -9.356  0.180E-01  0.180E-01
  -9.346  0.187E-01  0.187E-01
  -9.336  0.195E-01  0.195E-01
  -9.326  0.202E-01  0.202E-01
  -9.316  0.209E-01  0.209E-01
  -9.306  0.216E-01  0.216E-01
  -9.296  0.224E-01  0.224E-01
  -9.286  0.231E-01  0.231E-01
  -9.276  0.238E-01  0.238E-01
  -9.266  0.246E-01  0.246E-01
  -9.256  0.253E-01  0.253E-01
  -9.246  0.261E-01  0.261E-01
  -9.236  0.268E-01  0.268E-01
  -9.226  0.276E-01  0.276E-01
  -9.216  0.283E-01  0.283E-01
  -9.206  0.291E-01  0.291E-01
  -9.196  0.298E-01  0.298E-01
  -9.186  0.305E-01  0.305E-01
  -9.176  0.313E-01  0.313E-01
  -9.166  0.320E-01  0.320E-01
  -9.156  0.327E-01  0.327E-01
  -9.146  0.334E-01  0.334E-01
  -9.136  0.341E-01  0.341E-01
  -9.126  0.348E-01  0.348E-01
  -9.116  0.355E-01  0.355E-01
  -9.106  0.362E-01  0.362E-01
  -9.096  0.369E-01  0.369E-01
  -9.086  0.375E-01  0.375E-01
  -9.076  0.382E-01  0.382E-01
  -9.066  0.388E-01  0.388E-01
  -9.056  0.395E-01  0.395E-01
  -9.046  0.401E-01  0.401E-01
  -9.036  0.407E-01  0.407E-01
  -9.026  0.413E-01  0.413E-01
  -9.016  0.419E-01  0.419E-01
  -9.006  0.424E-01  0.424E-01
  -8.996  0.430E-01  0.430E-01
  -8.986  0.435E-01  0.435E-01
  -8.976  0.441E-01  0.441E-01
  -8.966  0.446E-01  0.446E-01
  -8.956  0.451E-01  0.451E-01
  -8.946  0.455E-01  0.455E-01
  -8.936  0.460E-01  0.460E-01
  -8.926  0.464E-01  0.464E-01
  -8.916  0.469E-01  0.469E-01
  -8.906  0.473E-01  0.473E-01
  -8.896  0.477E-01  0.477E-01
  -8.886  0.481E-01  0.481E-01
  -8.876  0.484E-01  0.484E-01
  -8.866  0.488E-01  0.488E-01
  -8.856  0.491E-01  0.491E-01
  -8.846  0.494E-01  0.494E-01
  -8.836  0.498E-01  0.498E-01
  -8.826  0.500E-01  0.500E-01
  -8.816  0.503E-01  0.503E-01
  -8.806  0.506E-01  0.506E-01
  -8.796  0.508E-01  0.508E-01
  -8.786  0.510E-01  0.510E-01
  -8.776  0.512E-01  0.512E-01
  -8.766  0.514E-01  0.514E-01
  -8.756  0.516E-01  0.516E-01
  -8.746  0.518E-01  0.518E-01
  -8.736  0.519E-01  0.519E-01
  -8.726  0.521E-01  0.521E-01
  -8.716  0.522E-01  0.522E-01
  -8.706  0.523E-01  0.523E-01
  -8.696  0.524E-01  0.524E-01
  -8.686  0.525E-01  0.525E-01
  -8.676  0.526E-01  0.526E-01
  -8.666  0.526E-01  0.526E-01
  -8.656  0.527E-01  0.527E-01
  -8.646  0.527E-01  0.527E-01
  -8.636  0.528E-01  0.528E-01
  -8.626  0.528E-01  0.528E-01
  -8.616  0.528E-01  0.528E-01
  -8.606  0.528E-01  0.528E-01
  -8.596  0.528E-01  0.528E-01
  -8.586  0.528E-01  0.528E-01
  -8.576  0.528E-01  0.528E-01
  -8.566  0.527E-01  0.527E-01
  -8.556  0.527E-01  0.527E-01
  -8.546  0.526E-01  0.526E-01
  -8.536  0.526E-01  0.526E-01
  -8.526  0.525E-01  0.525E-01
  -8.516  0.525E-01  0.525E-01
  -8.506  0.524E-01  0.524E-01
  -8.496  0.523E-01  0.523E-01
  -8.486  0.523E-01  0.523E-01
  -8.476  0.522E-01  0.522E-01
  -8.466  0.521E-01  0.521E-01
  -8.456  0.521E-01  0.521E-01
  -8.446  0.520E-01  0.520E-01
  -8.436  0.519E-01  0.519E-01
  -8.426  0.518E-01  0.518E-01
  -8.416  0.517E-01  0.517E-01
  -8.406  0.517E-01  0.517E-01
  -8.396  0.516E-01  0.516E-01
  -8.386  0.515E-01  0.515E-01
  -8.376  0.515E-01  0.515E-01
  -8.366  0.514E-01  0.514E-01
  -8.356  0.514E-01  0.514E-01
  -8.346  0.513E-01  0.513E-01
  -8.336  0.513E-01  0.513E-01
  -8.326  0.512E-01  0.512E-01
  -8.316  0.512E-01  0.512E-01
  -8.306  0.512E-01  0.512E-01
  -8.296  0.512E-01  0.512E-01
  -8.286  0.512E-01  0.512E-01
  -8.276  0.512E-01  0.512E-01
  -8.266  0.513E-01  0.513E-01
  -8.256  0.513E-01  0.513E-01
  -8.246  0.514E-01  0.514E-01
  -8.236  0.515E-01  0.515E-01
  -8.226  0.516E-01  0.516E-01
  -8.216  0.517E-01  0.517E-01
  -8.206  0.518E-01  0.518E-01
  -8.196  0.520E-01  0.520E-01
  -8.186  0.522E-01  0.522E-01
  -8.176  0.524E-01  0.524E-01
  -8.166  0.526E-01  0.526E-01
  -8.156  0.529E-01  0.529E-01
  -8.146  0.532E-01  0.532E-01
  -8.136  0.535E-01  0.535E-01
  -8.126  0.538E-01  0.538E-01
  -8.116  0.542E-01  0.542E-01
  -8.106  0.546E-01  0.546E-01
  -8.096  0.550E-01  0.550E-01
  -8.086  0.555E-01  0.555E-01
  -8.076  0.560E-01  0.560E-01
  -8.066  0.565E-01  0.565E-01
  -8.056  0.571E-01  0.571E-01
  -8.046  0.577E-01  0.577E-01
  -8.036  0.584E-01  0.584E-01
  -8.026  0.591E-01  0.591E-01
  -8.016  0.598E-01  0.598E-01
  -8.006  0.606E-01  0.606E-01
  -7.996  0.615E-01  0.615E-01
  -7.986  0.623E-01  0.623E-01
  -7.976  0.633E-01  0.633E-01
  -7.966  0.642E-01  0.642E-01
  -7.956  0.652E-01  0.652E-01
  -7.946  0.663E-01  0.663E-01
  -7.936  0.674E-01  0.674E-01
  -7.926  0.686E-01  0.686E-01
  -7.916  0.698E-01  0.698E-01
  -7.906  0.710E-01  0.710E-01
  -7.896  0.724E-01  0.724E-01
  -7.886  0.737E-01  0.737E-01
  -7.876  0.751E-01  0.751E-01
  -7.866  0.766E-01  0.766E-01
  -7.856  0.781E-01  0.781E-01
  -7.846  0.797E-01  0.797E-01
  -7.836  0.813E-01  0.813E-01
  -7.826  0.830E-01  0.830E-01
  -7.816  0.848E-01  0.848E-01
  -7.806  0.865E-01  0.865E-01
  -7.796  0.884E-01  0.884E-01
  -7.786  0.903E-01  0.903E-01
  -7.776  0.922E-01  0.922E-01
  -7.766  0.942E-01  0.942E-01
  -7.756  0.962E-01  0.962E-01
  -7.746  0.983E-01  0.983E-01
  -7.736  0.100E+00  0.100E+00
  -7.726  0.103E+00  0.103E+00
  -7.716  0.105E+00  0.105E+00
  -7.706  0.107E+00  0.107E+00
  -7.696  0.109E+00  0.109E+00
  -7.686  0.112E+00  0.112E+00
  -7.676  0.114E+00  0.114E+00
  -7.666  0.116E+00  0.116E+00
  -7.656  0.119E+00  0.119E+00
  -7.646  0.121E+00  0.121E+00
  -7.636  0.124E+00  0.124E+00
  -7.626  0.126E+00  0.126E+00
  -7.616  0.129E+00  0.129E+00
  -7.606  0.131E+00  0.131E+00
  -7.596  0.134E+00  0.134E+00
  -7.586  0.136E+00  0.136E+00
  -7.576  0.139E+00  0.139E+00
  -7.566  0.142E+00  0.142E+00
  -7.556  0.144E+00  0.144E+00
  -7.546  0.147E+00  0.147E+00
  -7.536  0.149E+00  0.149E+00
  -7.526  0.152E+00  0.152E+00
  -7.516  0.155E+00  0.155E+00
  -7.506  0.157E+00  0.157E+00
  -7.496  0.160E+00  0.160E+00
  -7.486  0.162E+00  0.162E+00
  -7.476  0.165E+00  0.165E+00
  -7.466  0.167E+00  0.167E+00
  -7.456  0.170E+00  0.170E+00
  -7.446  0.172E+00  0.172E+00
  -7.436  0.174E+00  0.174E+00
  -7.426  0.177E+00  0.177E+00
  -7.416  0.179E+00  0.179E+00
  -7.406  0.181E+00  0.181E+00
  -7.396  0.183E+00  0.183E+00
  -7.386  0.186E+00  0.186E+00
  -7.376  0.188E+00  0.188E+00
  -7.366  0.190E+00  0.190E+00
  -7.356  0.192E+00  0.192E+00
  -7.346  0.193E+00  0.193E+00
  -7.336  0.195E+00  0.195E+00
  -7.326  0.197E+00  0.197E+00
  -7.316  0.199E+00  0.199E+00
  -7.306  0.200E+00  0.200E+00
  -7.296  0.202E+00  0.202E+00
  -7.286  0.203E+00  0.203E+00
  -7.276  0.204E+00  0.204E+00
  -7.266  0.205E+00  0.205E+00
  -7.256  0.206E+00  0.206E+00
  -7.246  0.207E+00  0.207E+00
  -7.236  0.208E+00  0.208E+00
  -7.226  0.209E+00  0.209E+00
  -7.216  0.210E+00  0.210E+00
  -7.206  0.210E+00  0.210E+00
  -7.196  0.211E+00  0.211E+00
  -7.186  0.211E+00  0.211E+00
  -7.176  0.211E+00  0.211E+00
  -7.166  0.211E+00  0.211E+00
  -7.156  0.211E+00  0.211E+00
  -7.146  0.211E+00  0.211E+00
  -7.136  0.211E+00  0.211E+00
  -7.126  0.211E+00  0.211E+00
  -7.116  0.210E+00  0.210E+00
  -7.106  0.210E+00  0.210E+00
  -7.096  0.209E+00  0.209E+00
  -7.086  0.208E+00  0.208E+00
  -7.076  0.207E+00  0.207E+00
  -7.066  0.206E+00  0.206E+00
  -7.056  0.205E+00  0.205E+00
  -7.046  0.204E+00  0.204E+00
  -7.036  0.202E+00  0.202E+00
  -7.026  0.201E+00  0.201E+00
  -7.016  0.199E+00  0.199E+00
  -7.006  0.197E+00  0.197E+00
  -6.996  0.195E+00  0.195E+00
  -6.986  0.193E+00  0.193E+00
  -6.976  0.191E+00  0.191E+00
  -6.966  0.189E+00  0.189E+00
  -6.956  0.187E+00  0.187E+00
  -6.946  0.185E+00  0.185E+00
  -6.936  0.182E+00  0.182E+00
  -6.926  0.180E+00  0.180E+00
  -6.916  0.177E+00  0.177E+00
  -6.906  0.174E+00  0.174E+00
  -6.896  0.172E+00  0.172E+00
  -6.886  0.169E+00  0.169E+00
  -6.876  0.166E+00  0.166E+00
  -6.866  0.163E+00  0.163E+00
  -6.856  0.160E+00  0.160E+00
  -6.846  0.157E+00  0.157E+00
  -6.836  0.154E+00  0.154E+00
  -6.826  0.150E+00  0.150E+00
  -6.816  0.147E+00  0.147E+00
  -6.806  0.144E+00  0.144E+00
  -6.796  0.141E+00  0.141E+00
  -6.786  0.137E+00  0.137E+00
  -6.776  0.134E+00  0.134E+00
  -6.766  0.130E+00  0.130E+00
  -6.756  0.127E+00  0.127E+00
  -6.746  0.124E+00  0.124E+00
  -6.736  0.120E+00  0.120E+00
  -6.726  0.117E+00  0.117E+00
  -6.716  0.113E+00  0.113E+00
  -6.706  0.110E+00  0.110E+00
  -6.696  0.106E+00  0.106E+00
  -6.686  0.103E+00  0.103E+00
  -6.676  0.994E-01  0.994E-01
  -6.666  0.961E-01  0.961E-01
  -6.656  0.927E-01  0.927E-01
  -6.646  0.894E-01  0.894E-01
  -6.636  0.861E-01  0.861E-01
  -6.626  0.828E-01  0.828E-01
  -6.616  0.796E-01  0.796E-01
  -6.606  0.765E-01  0.765E-01
  -6.596  0.734E-01  0.734E-01
  -6.586  0.703E-01  0.703E-01
  -6.576  0.673E-01  0.673E-01
  -6.566  0.644E-01  0.644E-01
  -6.556  0.616E-01  0.616E-01
  -6.546  0.588E-01  0.588E-01
  -6.536  0.561E-01  0.561E-01
  -6.526  0.535E-01  0.535E-01
  -6.516  0.510E-01  0.510E-01
  -6.506  0.486E-01  0.486E-01
  -6.496  0.462E-01  0.462E-01
  -6.486  0.440E-01  0.440E-01
  -6.476  0.418E-01  0.418E-01
  -6.466  0.398E-01  0.398E-01
  -6.456  0.379E-01  0.379E-01
  -6.446  0.360E-01  0.360E-01
  -6.436  0.343E-01  0.343E-01
  -6.426  0.327E-01  0.327E-01
  -6.416  0.312E-01  0.312E-01
  -6.406  0.298E-01  0.298E-01
  -6.396  0.286E-01  0.286E-01
  -6.386  0.275E-01  0.275E-01
  -6.376  0.264E-01  0.264E-01
  -6.366  0.256E-01  0.256E-01
  -6.356  0.248E-01  0.248E-01
  -6.346  0.242E-01  0.242E-01
  -6.336  0.237E-01  0.237E-01
  -6.326  0.233E-01  0.233E-01
  -6.316  0.231E-01  0.231E-01
  -6.306  0.230E-01  0.230E-01
  -6.296  0.230E-01  0.230E-01
  -6.286  0.232E-01  0.232E-01
  -6.276  0.235E-01  0.235E-01
  -6.266  0.240E-01  0.240E-01
  -6.256  0.246E-01  0.246E-01
  -6.246  0.253E-01  0.253E-01
  -6.236  0.262E-01  0.262E-01
  -6.226  0.272E-01  0.272E-01
  -6.216  0.283E-01  0.283E-01
  -6.206  0.296E-01  0.296E-01
  -6.196  0.310E-01  0.310E-01
  -6.186  0.325E-01  0.325E-01
  -6.176  0.342E-01  0.342E-01
  -6.166  0.360E-01  0.360E-01
  -6.156  0.379E-01  0.379E-01
  -6.146  0.400E-01  0.400E-01
  -6.136  0.422E-01  0.422E-01
  -6.126  0.445E-01  0.445E-01
  -6.116  0.470E-01  0.470E-01
  -6.106  0.496E-01  0.496E-01
  -6.096  0.523E-01  0.523E-01
  -6.086  0.551E-01  0.551E-01
  -6.076  0.580E-01  0.580E-01
  -6.066  0.611E-01  0.611E-01
  -6.056  0.642E-01  0.642E-01
  -6.046  0.675E-01  0.675E-01
  -6.036  0.709E-01  0.709E-01
  -6.026  0.743E-01  0.743E-01
  -6.016  0.779E-01  0.779E-01
  -6.006  0.816E-01  0.816E-01
  -5.996  0.853E-01  0.853E-01
  -5.986  0.892E-01  0.892E-01
  -5.976  0.931E-01  0.931E-01
  -5.966  0.971E-01  0.971E-01
  -5.956  0.101E+00  0.101E+00
  -5.946  0.105E+00  0.105E+00
  -5.936  0.110E+00  0.110E+00
  -5.926  0.114E+00  0.114E+00
  -5.916  0.118E+00  0.118E+00
  -5.906  0.123E+00  0.123E+00
  -5.896  0.127E+00  0.127E+00
  -5.886  0.131E+00  0.131E+00
  -5.876  0.136E+00  0.136E+00
  -5.866  0.140E+00  0.140E+00
  -5.856  0.145E+00  0.145E+00
  -5.846  0.150E+00  0.150E+00
  -5.836  0.154E+00  0.154E+00
  -5.826  0.159E+00  0.159E+00
  -5.816  0.163E+00  0.163E+00
  -5.806  0.168E+00  0.168E+00
  -5.796  0.172E+00  0.172E+00
  -5.786  0.177E+00  0.177E+00
  -5.776  0.182E+00  0.182E+00
  -5.766  0.186E+00  0.186E+00
  -5.756  0.191E+00  0.191E+00
  -5.746  0.195E+00  0.195E+00
  -5.736  0.199E+00  0.199E+00
  -5.726  0.204E+00  0.204E+00
  -5.716  0.208E+00  0.208E+00
  -5.706  0.212E+00  0.212E+00
  -5.696  0.216E+00  0.216E+00
  -5.686  0.221E+00  0.221E+00
  -5.676  0.225E+00  0.225E+00
  -5.666  0.228E+00  0.228E+00
  -5.656  0.232E+00  0.232E+00
  -5.646  0.236E+00  0.236E+00
  -5.636  0.240E+00  0.240E+00
  -5.626  0.243E+00  0.243E+00
  -5.616  0.246E+00  0.246E+00
  -5.606  0.250E+00  0.250E+00
  -5.596  0.253E+00  0.253E+00
  -5.586  0.256E+00  0.256E+00
  -5.576  0.259E+00  0.259E+00
  -5.566  0.262E+00  0.262E+00
  -5.556  0.264E+00  0.264E+00
  -5.546  0.267E+00  0.267E+00
  -5.536  0.269E+00  0.269E+00
  -5.526  0.271E+00  0.271E+00
  -5.516  0.273E+00  0.273E+00
  -5.506  0.275E+00  0.275E+00
  -5.496  0.277E+00  0.277E+00
  -5.486  0.278E+00  0.278E+00
  -5.476  0.280E+00  0.280E+00
  -5.466  0.281E+00  0.281E+00
  -5.456  0.282E+00  0.282E+00
  -5.446  0.283E+00  0.283E+00
  -5.436  0.284E+00  0.284E+00
  -5.426  0.284E+00  0.284E+00
  -5.416  0.284E+00  0.284E+00
  -5.406  0.285E+00  0.285E+00
  -5.396  0.285E+00  0.285E+00
  -5.386  0.285E+00  0.285E+00
  -5.376  0.284E+00  0.284E+00
  -5.366  0.284E+00  0.284E+00
  -5.356  0.283E+00  0.283E+00
  -5.346  0.282E+00  0.282E+00
  -5.336  0.281E+00  0.281E+00
  -5.326  0.280E+00  0.280E+00
  -5.316  0.279E+00  0.279E+00
  -5.306  0.277E+00  0.277E+00
  -5.296  0.276E+00  0.276E+00
  -5.286  0.274E+00  0.274E+00
  -5.276  0.272E+00  0.272E+00
  -5.266  0.270E+00  0.270E+00
  -5.256  0.268E+00  0.268E+00
  -5.246  0.265E+00  0.265E+00
  -5.236  0.263E+00  0.263E+00
  -5.226  0.260E+00  0.260E+00
  -5.216  0.257E+00  0.257E+00
  -5.206  0.254E+00  0.254E+00
  -5.196  0.251E+00  0.251E+00
  -5.186  0.248E+00  0.248E+00
  -5.176  0.245E+00  0.245E+00
  -5.166  0.241E+00  0.241E+00
  -5.156  0.238E+00  0.238E+00
  -5.146  0.234E+00  0.234E+00
  -5.136  0.231E+00  0.231E+00
  -5.126  0.227E+00  0.227E+00
  -5.116  0.223E+00  0.223E+00
  -5.106  0.219E+00  0.219E+00
  -5.096  0.216E+00  0.216E+00
  -5.086  0.212E+00  0.212E+00
  -5.076  0.207E+00  0.207E+00
  -5.066  0.203E+00  0.203E+00
  -5.056  0.199E+00  0.199E+00
  -5.046  0.195E+00  0.195E+00
  -5.036  0.191E+00  0.191E+00
  -5.026  0.187E+00  0.187E+00
  -5.016  0.182E+00  0.182E+00
  -5.006  0.178E+00  0.178E+00
  -4.996  0.174E+00  0.174E+00
  -4.986  0.170E+00  0.170E+00
  -4.976  0.165E+00  0.165E+00
  -4.966  0.161E+00  0.161E+00
  -4.956  0.157E+00  0.157E+00
  -4.946  0.153E+00  0.153E+00
  -4.936  0.148E+00  0.148E+00
  -4.926  0.144E+00  0.144E+00
  -4.916  0.140E+00  0.140E+00
  -4.906  0.136E+00  0.136E+00
  -4.896  0.132E+00  0.132E+00
  -4.886  0.128E+00  0.128E+00
  -4.876  0.124E+00  0.124E+00
  -4.866  0.120E+00  0.120E+00
  -4.856  0.116E+00  0.116E+00
  -4.846  0.113E+00  0.113E+00
  -4.836  0.109E+00  0.109E+00
  -4.826  0.105E+00  0.105E+00
  -4.816  0.102E+00  0.102E+00
  -4.806  0.981E-01  0.981E-01
  -4.796  0.947E-01  0.947E-01
  -4.786  0.914E-01  0.914E-01
  -4.776  0.881E-01  0.881E-01
  -4.766  0.850E-01  0.850E-01
  -4.756  0.819E-01  0.819E-01
  -4.746  0.789E-01  0.789E-01
  -4.736  0.760E-01  0.760E-01
  -4.726  0.732E-01  0.732E-01
  -4.716  0.705E-01  0.705E-01
  -4.706  0.678E-01  0.678E-01
  -4.696  0.653E-01  0.653E-01
  -4.686  0.629E-01  0.629E-01
  -4.676  0.605E-01  0.605E-01
  -4.666  0.583E-01  0.583E-01
  -4.656  0.561E-01  0.561E-01
  -4.646  0.540E-01  0.540E-01
  -4.636  0.521E-01  0.521E-01
  -4.626  0.502E-01  0.502E-01
  -4.616  0.484E-01  0.484E-01
  -4.606  0.467E-01  0.467E-01
  -4.596  0.452E-01  0.452E-01
  -4.586  0.437E-01  0.437E-01
  -4.576  0.422E-01  0.422E-01
  -4.566  0.409E-01  0.409E-01
  -4.556  0.397E-01  0.397E-01
  -4.546  0.386E-01  0.386E-01
  -4.536  0.375E-01  0.375E-01
  -4.526  0.365E-01  0.365E-01
  -4.516  0.357E-01  0.357E-01
  -4.506  0.349E-01  0.349E-01
  -4.496  0.341E-01  0.341E-01
  -4.486  0.335E-01  0.335E-01
  -4.476  0.329E-01  0.329E-01
  -4.466  0.325E-01  0.325E-01
  -4.456  0.320E-01  0.320E-01
  -4.446  0.317E-01  0.317E-01
  -4.436  0.314E-01  0.314E-01
  -4.426  0.312E-01  0.312E-01
  -4.416  0.311E-01  0.311E-01
  -4.406  0.310E-01  0.310E-01
  -4.396  0.310E-01  0.310E-01
  -4.386  0.311E-01  0.311E-01
  -4.376  0.312E-01  0.312E-01
  -4.366  0.314E-01  0.314E-01
  -4.356  0.317E-01  0.317E-01
  -4.346  0.319E-01  0.319E-01
  -4.336  0.323E-01  0.323E-01
  -4.326  0.327E-01  0.327E-01
  -4.316  0.331E-01  0.331E-01
  -4.306  0.336E-01  0.336E-01
  -4.296  0.342E-01  0.342E-01
  -4.286  0.348E-01  0.348E-01
  -4.276  0.354E-01  0.354E-01
  -4.266  0.361E-01  0.361E-01
  -4.256  0.368E-01  0.368E-01
  -4.246  0.376E-01  0.376E-01
  -4.236  0.384E-01  0.384E-01
  -4.226  0.392E-01  0.392E-01
  -4.216  0.401E-01  0.401E-01
  -4.206  0.410E-01  0.410E-01
  -4.196  0.419E-01  0.419E-01
  -4.186  0.429E-01  0.429E-01
  -4.176  0.438E-01  0.438E-01
  -4.166  0.449E-01  0.449E-01
  -4.156  0.459E-01  0.459E-01
  -4.146  0.470E-01  0.470E-01
  -4.136  0.481E-01  0.481E-01
  -4.126  0.492E-01  0.492E-01
  -4.116  0.504E-01  0.504E-01
  -4.106  0.515E-01  0.515E-01
  -4.096  0.527E-01  0.527E-01
  -4.086  0.539E-01  0.539E-01
  -4.076  0.552E-01  0.552E-01
  -4.066  0.564E-01  0.564E-01
  -4.056  0.577E-01  0.577E-01
  -4.046  0.590E-01  0.590E-01
  -4.036  0.603E-01  0.603E-01
  -4.026  0.616E-01  0.616E-01
  -4.016  0.629E-01  0.629E-01
  -4.006  0.642E-01  0.642E-01
  -3.996  0.656E-01  0.656E-01
  -3.986  0.669E-01  0.669E-01
  -3.976  0.683E-01  0.683E-01
  -3.966  0.696E-01  0.696E-01
  -3.956  0.710E-01  0.710E-01
  -3.946  0.724E-01  0.724E-01
  -3.936  0.738E-01  0.738E-01
  -3.926  0.752E-01  0.752E-01
  -3.916  0.766E-01  0.766E-01
  -3.906  0.780E-01  0.780E-01
  -3.896  0.793E-01  0.793E-01
  -3.886  0.807E-01  0.807E-01
  -3.876  0.821E-01  0.821E-01
  -3.866  0.835E-01  0.835E-01
  -3.856  0.849E-01  0.849E-01
  -3.846  0.863E-01  0.863E-01
  -3.836  0.876E-01  0.876E-01
  -3.826  0.890E-01  0.890E-01
  -3.816  0.904E-01  0.904E-01
  -3.806  0.917E-01  0.917E-01
  -3.796  0.930E-01  0.930E-01
  -3.786  0.943E-01  0.943E-01
  -3.776  0.956E-01  0.956E-01
  -3.766  0.969E-01  0.969E-01
  -3.756  0.982E-01  0.982E-01
  -3.746  0.995E-01  0.995E-01
  -3.736  0.101E+00  0.101E+00
  -3.726  0.102E+00  0.102E+00
  -3.716  0.103E+00  0.103E+00
  -3.706  0.104E+00  0.104E+00
  -3.696  0.105E+00  0.105E+00
  -3.686  0.107E+00  0.107E+00
  -3.676  0.108E+00  0.108E+00
  -3.666  0.109E+00  0.109E+00
  -3.656  0.110E+00  0.110E+00
  -3.646  0.111E+00  0.111E+00
  -3.636  0.112E+00  0.112E+00
  -3.626  0.113E+00  0.113E+00
  -3.616  0.114E+00  0.114E+00
  -3.606  0.115E+00  0.115E+00
  -3.596  0.115E+00  0.115E+00
  -3.586  0.116E+00  0.116E+00
  -3.576  0.117E+00  0.117E+00
  -3.566  0.118E+00  0.118E+00
  -3.556  0.118E+00  0.118E+00
  -3.546  0.119E+00  0.119E+00
  -3.536  0.120E+00  0.120E+00
  -3.526  0.120E+00  0.120E+00
  -3.516  0.121E+00  0.121E+00
  -3.506  0.121E+00  0.121E+00
  -3.496  0.122E+00  0.122E+00
  -3.486  0.122E+00  0.122E+00
  -3.476  0.123E+00  0.123E+00
  -3.466  0.123E+00  0.123E+00
  -3.456  0.123E+00  0.123E+00
  -3.446  0.123E+00  0.123E+00
  -3.436  0.124E+00  0.124E+00
  -3.426  0.124E+00  0.124E+00
  -3.416  0.124E+00  0.124E+00
  -3.406  0.124E+00  0.124E+00
  -3.396  0.124E+00  0.124E+00
  -3.386  0.124E+00  0.124E+00
  -3.376  0.124E+00  0.124E+00
  -3.366  0.124E+00  0.124E+00
  -3.356  0.124E+00  0.124E+00
  -3.346  0.123E+00  0.123E+00
  -3.336  0.123E+00  0.123E+00
  -3.326  0.123E+00  0.123E+00
  -3.316  0.122E+00  0.122E+00
  -3.306  0.122E+00  0.122E+00
  -3.296  0.122E+00  0.122E+00
  -3.286  0.121E+00  0.121E+00
  -3.276  0.121E+00  0.121E+00
  -3.266  0.120E+00  0.120E+00
  -3.256  0.119E+00  0.119E+00
  -3.246  0.119E+00  0.119E+00
  -3.236  0.118E+00  0.118E+00
  -3.226  0.117E+00  0.117E+00
  -3.216  0.117E+00  0.117E+00
  -3.206  0.116E+00  0.116E+00
  -3.196  0.115E+00  0.115E+00
  -3.186  0.114E+00  0.114E+00
  -3.176  0.113E+00  0.113E+00
  -3.166  0.113E+00  0.113E+00
  -3.156  0.112E+00  0.112E+00
  -3.146  0.111E+00  0.111E+00
  -3.136  0.110E+00  0.110E+00
  -3.126  0.109E+00  0.109E+00
  -3.116  0.108E+00  0.108E+00
  -3.106  0.107E+00  0.107E+00
  -3.096  0.106E+00  0.106E+00
  -3.086  0.104E+00  0.104E+00
  -3.076  0.103E+00  0.103E+00
  -3.066  0.102E+00  0.102E+00
  -3.056  0.101E+00  0.101E+00
  -3.046  0.100E+00  0.100E+00
  -3.036  0.990E-01  0.990E-01
  -3.026  0.979E-01  0.979E-01
  -3.016  0.968E-01  0.968E-01
  -3.006  0.957E-01  0.957E-01
  -2.996  0.946E-01  0.946E-01
  -2.986  0.935E-01  0.935E-01
  -2.976  0.924E-01  0.924E-01
  -2.966  0.913E-01  0.913E-01
  -2.956  0.903E-01  0.903E-01
  -2.946  0.892E-01  0.892E-01
  -2.936  0.882E-01  0.882E-01
  -2.926  0.872E-01  0.872E-01
  -2.916  0.862E-01  0.862E-01
  -2.906  0.853E-01  0.853E-01
  -2.896  0.844E-01  0.844E-01
  -2.886  0.835E-01  0.835E-01
  -2.876  0.826E-01  0.826E-01
  -2.866  0.818E-01  0.818E-01
  -2.856  0.810E-01  0.810E-01
  -2.846  0.803E-01  0.803E-01
  -2.836  0.796E-01  0.796E-01
  -2.826  0.790E-01  0.790E-01
  -2.816  0.784E-01  0.784E-01
  -2.806  0.778E-01  0.778E-01
  -2.796  0.773E-01  0.773E-01
  -2.786  0.769E-01  0.769E-01
  -2.776  0.765E-01  0.765E-01
  -2.766  0.762E-01  0.762E-01
  -2.756  0.759E-01  0.759E-01
  -2.746  0.757E-01  0.757E-01
  -2.736  0.756E-01  0.756E-01
  -2.726  0.755E-01  0.755E-01
  -2.716  0.755E-01  0.755E-01
  -2.706  0.756E-01  0.756E-01
  -2.696  0.758E-01  0.758E-01
  -2.686  0.760E-01  0.760E-01
  -2.676  0.763E-01  0.763E-01
  -2.666  0.767E-01  0.767E-01
  -2.656  0.771E-01  0.771E-01
  -2.646  0.776E-01  0.776E-01
  -2.636  0.783E-01  0.783E-01
  -2.626  0.789E-01  0.789E-01
  -2.616  0.797E-01  0.797E-01
  -2.606  0.806E-01  0.806E-01
  -2.596  0.815E-01  0.815E-01
  -2.586  0.825E-01  0.825E-01
  -2.576  0.836E-01  0.836E-01
  -2.566  0.848E-01  0.848E-01
  -2.556  0.860E-01  0.860E-01
  -2.546  0.873E-01  0.873E-01
  -2.536  0.888E-01  0.888E-01
  -2.526  0.902E-01  0.902E-01
  -2.516  0.918E-01  0.918E-01
  -2.506  0.935E-01  0.935E-01
  -2.496  0.952E-01  0.952E-01
  -2.486  0.970E-01  0.970E-01
  -2.476  0.988E-01  0.988E-01
  -2.466  0.101E+00  0.101E+00
  -2.456  0.103E+00  0.103E+00
  -2.446  0.105E+00  0.105E+00
  -2.436  0.107E+00  0.107E+00
  -2.426  0.109E+00  0.109E+00
  -2.416  0.111E+00  0.111E+00
  -2.406  0.114E+00  0.114E+00
  -2.396  0.116E+00  0.116E+00
  -2.386  0.119E+00  0.119E+00
  -2.376  0.121E+00  0.121E+00
  -2.366  0.124E+00  0.124E+00
  -2.356  0.126E+00  0.126E+00
  -2.346  0.129E+00  0.129E+00
  -2.336  0.131E+00  0.131E+00
  -2.326  0.134E+00  0.134E+00
  -2.316  0.137E+00  0.137E+00
  -2.306  0.139E+00  0.139E+00
  -2.296  0.142E+00  0.142E+00
  -2.286  0.145E+00  0.145E+00
  -2.276  0.148E+00  0.148E+00
  -2.266  0.150E+00  0.150E+00
  -2.256  0.153E+00  0.153E+00
  -2.246  0.156E+00  0.156E+00
  -2.236  0.159E+00  0.159E+00
  -2.226  0.161E+00  0.161E+00
  -2.216  0.164E+00  0.164E+00
  -2.206  0.167E+00  0.167E+00
  -2.196  0.170E+00  0.170E+00
  -2.186  0.172E+00  0.172E+00
  -2.176  0.175E+00  0.175E+00
  -2.166  0.177E+00  0.177E+00
  -2.156  0.180E+00  0.180E+00
  -2.146  0.182E+00  0.182E+00
  -2.136  0.185E+00  0.185E+00
  -2.126  0.187E+00  0.187E+00
  -2.116  0.189E+00  0.189E+00
  -2.106  0.192E+00  0.192E+00
  -2.096  0.194E+00  0.194E+00
  -2.086  0.196E+00  0.196E+00
  -2.076  0.198E+00  0.198E+00
  -2.066  0.200E+00  0.200E+00
  -2.056  0.202E+00  0.202E+00
  -2.046  0.204E+00  0.204E+00
  -2.036  0.205E+00  0.205E+00
  -2.026  0.207E+00  0.207E+00
  -2.016  0.208E+00  0.208E+00
  -2.006  0.210E+00  0.210E+00
  -1.996  0.211E+00  0.211E+00
  -1.986  0.212E+00  0.212E+00
  -1.976  0.213E+00  0.213E+00
  -1.966  0.214E+00  0.214E+00
  -1.956  0.215E+00  0.215E+00
  -1.946  0.216E+00  0.216E+00
  -1.936  0.216E+00  0.216E+00
  -1.926  0.217E+00  0.217E+00
  -1.916  0.217E+00  0.217E+00
  -1.906  0.217E+00  0.217E+00
  -1.896  0.218E+00  0.218E+00
  -1.886  0.218E+00  0.218E+00
  -1.876  0.217E+00  0.217E+00
  -1.866  0.217E+00  0.217E+00
  -1.856  0.217E+00  0.217E+00
  -1.846  0.216E+00  0.216E+00
  -1.836  0.216E+00  0.216E+00
  -1.826  0.215E+00  0.215E+00
  -1.816  0.214E+00  0.214E+00
  -1.806  0.213E+00  0.213E+00
  -1.796  0.212E+00  0.212E+00
  -1.786  0.211E+00  0.211E+00
  -1.776  0.210E+00  0.210E+00
  -1.766  0.208E+00  0.208E+00
  -1.756  0.207E+00  0.207E+00
  -1.746  0.205E+00  0.205E+00
  -1.736  0.204E+00  0.204E+00
  -1.726  0.202E+00  0.202E+00
  -1.716  0.200E+00  0.200E+00
  -1.706  0.198E+00  0.198E+00
  -1.696  0.196E+00  0.196E+00
  -1.686  0.193E+00  0.193E+00
  -1.676  0.191E+00  0.191E+00
  -1.666  0.189E+00  0.189E+00
  -1.656  0.186E+00  0.186E+00
  -1.646  0.184E+00  0.184E+00
  -1.636  0.181E+00  0.181E+00
  -1.626  0.178E+00  0.178E+00
  -1.616  0.176E+00  0.176E+00
  -1.606  0.173E+00  0.173E+00
  -1.596  0.170E+00  0.170E+00
  -1.586  0.167E+00  0.167E+00
  -1.576  0.164E+00  0.164E+00
  -1.566  0.161E+00  0.161E+00
  -1.556  0.158E+00  0.158E+00
  -1.546  0.155E+00  0.155E+00
  -1.536  0.152E+00  0.152E+00
  -1.526  0.148E+00  0.148E+00
  -1.516  0.145E+00  0.145E+00
  -1.506  0.142E+00  0.142E+00
  -1.496  0.139E+00  0.139E+00
  -1.486  0.135E+00  0.135E+00
  -1.476  0.132E+00  0.132E+00
  -1.466  0.129E+00  0.129E+00
  -1.456  0.126E+00  0.126E+00
  -1.446  0.122E+00  0.122E+00
  -1.436  0.119E+00  0.119E+00
  -1.426  0.116E+00  0.116E+00
  -1.416  0.112E+00  0.112E+00
  -1.406  0.109E+00  0.109E+00
  -1.396  0.106E+00  0.106E+00
  -1.386  0.102E+00  0.102E+00
  -1.376  0.992E-01  0.992E-01
  -1.366  0.960E-01  0.960E-01
  -1.356  0.928E-01  0.928E-01
  -1.346  0.897E-01  0.897E-01
  -1.336  0.865E-01  0.865E-01
  -1.326  0.834E-01  0.834E-01
  -1.316  0.804E-01  0.804E-01
  -1.306  0.773E-01  0.773E-01
  -1.296  0.744E-01  0.744E-01
  -1.286  0.714E-01  0.714E-01
  -1.276  0.685E-01  0.685E-01
  -1.266  0.656E-01  0.656E-01
  -1.256  0.628E-01  0.628E-01
  -1.246  0.601E-01  0.601E-01
  -1.236  0.574E-01  0.574E-01
  -1.226  0.547E-01  0.547E-01
  -1.216  0.521E-01  0.521E-01
  -1.206  0.495E-01  0.495E-01
  -1.196  0.470E-01  0.470E-01
  -1.186  0.446E-01  0.446E-01
  -1.176  0.422E-01  0.422E-01
  -1.166  0.399E-01  0.399E-01
  -1.156  0.376E-01  0.376E-01
  -1.146  0.354E-01  0.354E-01
  -1.136  0.332E-01  0.332E-01
  -1.126  0.311E-01  0.311E-01
  -1.116  0.291E-01  0.291E-01
  -1.106  0.271E-01  0.271E-01
  -1.096  0.252E-01  0.252E-01
  -1.086  0.233E-01  0.233E-01
  -1.076  0.216E-01  0.216E-01
  -1.066  0.198E-01  0.198E-01
  -1.056  0.182E-01  0.182E-01
  -1.046  0.166E-01  0.166E-01
  -1.036  0.151E-01  0.151E-01
  -1.026  0.136E-01  0.136E-01
  -1.016  0.122E-01  0.122E-01
  -1.006  0.108E-01  0.108E-01
  -0.996  0.957E-02  0.957E-02
  -0.986  0.836E-02  0.836E-02
  -0.976  0.721E-02  0.721E-02
  -0.966  0.613E-02  0.613E-02
  -0.956  0.512E-02  0.512E-02
  -0.946  0.417E-02  0.417E-02
  -0.936  0.329E-02  0.329E-02
  -0.926  0.247E-02  0.247E-02
  -0.916  0.172E-02  0.172E-02
  -0.906  0.104E-02  0.104E-02
  -0.896  0.425E-03  0.425E-03
  -0.886 -0.124E-03 -0.124E-03
  -0.876 -0.605E-03 -0.605E-03
  -0.866 -0.102E-02 -0.102E-02
  -0.856 -0.136E-02 -0.136E-02
  -0.846 -0.164E-02 -0.164E-02
  -0.836 -0.185E-02 -0.185E-02
  -0.826 -0.198E-02 -0.198E-02
  -0.816 -0.205E-02 -0.205E-02
  -0.806 -0.205E-02 -0.205E-02
  -0.796 -0.198E-02 -0.198E-02
  -0.786 -0.183E-02 -0.183E-02
  -0.776 -0.162E-02 -0.162E-02
  -0.766 -0.133E-02 -0.133E-02
  -0.756 -0.966E-03 -0.966E-03
  -0.746 -0.531E-03 -0.531E-03
  -0.736 -0.226E-04 -0.226E-04
  -0.726  0.560E-03  0.560E-03
  -0.716  0.122E-02  0.122E-02
  -0.706  0.195E-02  0.195E-02
  -0.696  0.276E-02  0.276E-02
  -0.686  0.364E-02  0.364E-02
  -0.676  0.460E-02  0.460E-02
  -0.666  0.564E-02  0.564E-02
  -0.656  0.675E-02  0.675E-02
  -0.646  0.794E-02  0.794E-02
  -0.636  0.921E-02  0.921E-02
  -0.626  0.106E-01  0.106E-01
  -0.616  0.120E-01  0.120E-01
  -0.606  0.135E-01  0.135E-01
  -0.596  0.151E-01  0.151E-01
  -0.586  0.167E-01  0.167E-01
  -0.576  0.184E-01  0.184E-01
  -0.566  0.203E-01  0.203E-01
  -0.556  0.221E-01  0.221E-01
  -0.546  0.241E-01  0.241E-01
  -0.536  0.261E-01  0.261E-01
  -0.526  0.283E-01  0.283E-01
  -0.516  0.304E-01  0.304E-01
  -0.506  0.327E-01  0.327E-01
  -0.496  0.350E-01  0.350E-01
  -0.486  0.374E-01  0.374E-01
  -0.476  0.399E-01  0.399E-01
  -0.466  0.425E-01  0.425E-01
  -0.456  0.451E-01  0.451E-01
  -0.446  0.477E-01  0.477E-01
  -0.436  0.505E-01  0.505E-01
  -0.426  0.533E-01  0.533E-01
  -0.416  0.561E-01  0.561E-01
  -0.406  0.590E-01  0.590E-01
  -0.396  0.620E-01  0.620E-01
  -0.386  0.650E-01  0.650E-01
  -0.376  0.681E-01  0.681E-01
  -0.366  0.712E-01  0.712E-01
  -0.356  0.744E-01  0.744E-01
  -0.346  0.776E-01  0.776E-01
  -0.336  0.808E-01  0.808E-01
  -0.326  0.841E-01  0.841E-01
  -0.316  0.874E-01  0.874E-01
  -0.306  0.908E-01  0.908E-01
  -0.296  0.941E-01  0.941E-01
  -0.286  0.975E-01  0.975E-01
  -0.276  0.101E+00  0.101E+00
  -0.266  0.104E+00  0.104E+00
  -0.256  0.108E+00  0.108E+00
  -0.246  0.111E+00  0.111E+00
  -0.236  0.115E+00  0.115E+00
  -0.226  0.118E+00  0.118E+00
  -0.216  0.121E+00  0.121E+00
  -0.206  0.125E+00  0.125E+00
  -0.196  0.128E+00  0.128E+00
  -0.186  0.132E+00  0.132E+00
  -0.176  0.135E+00  0.135E+00
  -0.166  0.138E+00  0.138E+00
  -0.156  0.141E+00  0.141E+00
  -0.146  0.145E+00  0.145E+00
  -0.136  0.148E+00  0.148E+00
  -0.126  0.151E+00  0.151E+00
  -0.116  0.154E+00  0.154E+00
  -0.106  0.157E+00  0.157E+00
  -0.096  0.160E+00  0.160E+00
  -0.086  0.163E+00  0.163E+00
  -0.076  0.166E+00  0.166E+00
  -0.066  0.168E+00  0.168E+00
  -0.056  0.171E+00  0.171E+00
  -0.046  0.174E+00  0.174E+00
  -0.036  0.176E+00  0.176E+00
  -0.026  0.178E+00  0.178E+00
  -0.016  0.181E+00  0.181E+00
  -0.006  0.183E+00  0.183E+00
   0.004  0.185E+00  0.185E+00
   0.014  0.187E+00  0.187E+00
   0.024  0.189E+00  0.189E+00
   0.034  0.191E+00  0.191E+00
   0.044  0.192E+00  0.192E+00
   0.054  0.194E+00  0.194E+00
   0.064  0.195E+00  0.195E+00
   0.074  0.197E+00  0.197E+00
   0.084  0.198E+00  0.198E+00
   0.094  0.199E+00  0.199E+00
   0.104  0.200E+00  0.200E+00
   0.114  0.200E+00  0.200E+00
   0.124  0.201E+00  0.201E+00
   0.134  0.202E+00  0.202E+00
   0.144  0.202E+00  0.202E+00
   0.154  0.202E+00  0.202E+00
   0.164  0.202E+00  0.202E+00
   0.174  0.202E+00  0.202E+00
   0.184  0.202E+00  0.202E+00
   0.194  0.202E+00  0.202E+00
   0.204  0.202E+00  0.202E+00
   0.214  0.201E+00  0.201E+00
   0.224  0.200E+00  0.200E+00
   0.234  0.200E+00  0.200E+00
   0.244  0.199E+00  0.199E+00
   0.254  0.198E+00  0.198E+00
   0.264  0.197E+00  0.197E+00
   0.274  0.195E+00  0.195E+00
   0.284  0.194E+00  0.194E+00
   0.294  0.192E+00  0.192E+00
   0.304  0.191E+00  0.191E+00
   0.314  0.189E+00  0.189E+00
   0.324  0.187E+00  0.187E+00
   0.334  0.185E+00  0.185E+00
   0.344  0.183E+00  0.183E+00
   0.354  0.181E+00  0.181E+00
   0.364  0.179E+00  0.179E+00
   0.374  0.177E+00  0.177E+00
   0.384  0.174E+00  0.174E+00
   0.394  0.172E+00  0.172E+00
   0.404  0.169E+00  0.169E+00
   0.414  0.166E+00  0.166E+00
   0.424  0.164E+00  0.164E+00
   0.434  0.161E+00  0.161E+00
   0.444  0.158E+00  0.158E+00
   0.454  0.155E+00  0.155E+00
   0.464  0.152E+00  0.152E+00
   0.474  0.149E+00  0.149E+00
   0.484  0.146E+00  0.146E+00
   0.494  0.143E+00  0.143E+00
   0.504  0.140E+00  0.140E+00
   0.514  0.137E+00  0.137E+00
   0.524  0.134E+00  0.134E+00
   0.534  0.131E+00  0.131E+00
   0.544  0.128E+00  0.128E+00
   0.554  0.125E+00  0.125E+00
   0.564  0.122E+00  0.122E+00
   0.574  0.118E+00  0.118E+00
   0.584  0.115E+00  0.115E+00
   0.594  0.112E+00  0.112E+00
   0.604  0.109E+00  0.109E+00
   0.614  0.106E+00  0.106E+00
   0.624  0.103E+00  0.103E+00
   0.634  0.997E-01  0.997E-01
   0.644  0.967E-01  0.967E-01
   0.654  0.937E-01  0.937E-01
   0.664  0.907E-01  0.907E-01
   0.674  0.877E-01  0.877E-01
   0.684  0.848E-01  0.848E-01
   0.694  0.820E-01  0.820E-01
   0.704  0.792E-01  0.792E-01
   0.714  0.764E-01  0.764E-01
   0.724  0.737E-01  0.737E-01
   0.734  0.710E-01  0.710E-01
   0.744  0.684E-01  0.684E-01
   0.754  0.658E-01  0.658E-01
   0.764  0.633E-01  0.633E-01
   0.774  0.609E-01  0.609E-01
   0.784  0.585E-01  0.585E-01
   0.794  0.562E-01  0.562E-01
   0.804  0.540E-01  0.540E-01
   0.814  0.518E-01  0.518E-01
   0.824  0.497E-01  0.497E-01
   0.834  0.476E-01  0.476E-01
   0.844  0.456E-01  0.456E-01
   0.854  0.437E-01  0.437E-01
   0.864  0.418E-01  0.418E-01
   0.874  0.401E-01  0.401E-01
   0.884  0.383E-01  0.383E-01
   0.894  0.367E-01  0.367E-01
   0.904  0.351E-01  0.351E-01
   0.914  0.336E-01  0.336E-01
   0.924  0.321E-01  0.321E-01
   0.934  0.307E-01  0.307E-01
   0.944  0.294E-01  0.294E-01
   0.954  0.281E-01  0.281E-01
   0.964  0.269E-01  0.269E-01
   0.974  0.258E-01  0.258E-01
   0.984  0.247E-01  0.247E-01
   0.994  0.237E-01  0.237E-01
   1.004  0.227E-01  0.227E-01
   1.014  0.218E-01  0.218E-01
   1.024  0.209E-01  0.209E-01
   1.034  0.201E-01  0.201E-01
   1.044  0.193E-01  0.193E-01
   1.054  0.186E-01  0.186E-01
   1.064  0.180E-01  0.180E-01
   1.074  0.174E-01  0.174E-01
   1.084  0.168E-01  0.168E-01
   1.094  0.163E-01  0.163E-01
   1.104  0.158E-01  0.158E-01
   1.114  0.154E-01  0.154E-01
   1.124  0.150E-01  0.150E-01
   1.134  0.146E-01  0.146E-01
   1.144  0.143E-01  0.143E-01
   1.154  0.140E-01  0.140E-01
   1.164  0.137E-01  0.137E-01
   1.174  0.135E-01  0.135E-01
   1.184  0.133E-01  0.133E-01
   1.194  0.131E-01  0.131E-01
   1.204  0.129E-01  0.129E-01
   1.214  0.128E-01  0.128E-01
   1.224  0.127E-01  0.127E-01
   1.234  0.126E-01  0.126E-01
   1.244  0.125E-01  0.125E-01
   1.254  0.125E-01  0.125E-01
   1.264  0.125E-01  0.125E-01
   1.274  0.124E-01  0.124E-01
   1.284  0.125E-01  0.125E-01
   1.294  0.125E-01  0.125E-01
   1.304  0.125E-01  0.125E-01
   1.314  0.125E-01  0.125E-01
   1.324  0.126E-01  0.126E-01
   1.334  0.126E-01  0.126E-01
   1.344  0.127E-01  0.127E-01
   1.354  0.128E-01  0.128E-01
   1.364  0.129E-01  0.129E-01
   1.374  0.130E-01  0.130E-01
   1.384  0.131E-01  0.131E-01
   1.394  0.132E-01  0.132E-01
   1.404  0.133E-01  0.133E-01
   1.414  0.134E-01  0.134E-01
   1.424  0.136E-01  0.136E-01
   1.434  0.137E-01  0.137E-01
   1.444  0.138E-01  0.138E-01
   1.454  0.140E-01  0.140E-01
   1.464  0.141E-01  0.141E-01
   1.474  0.143E-01  0.143E-01
   1.484  0.144E-01  0.144E-01
   1.494  0.146E-01  0.146E-01
   1.504  0.148E-01  0.148E-01
   1.514  0.150E-01  0.150E-01
   1.524  0.151E-01  0.151E-01
   1.534  0.153E-01  0.153E-01
   1.544  0.155E-01  0.155E-01
   1.554  0.157E-01  0.157E-01
   1.564  0.160E-01  0.160E-01
   1.574  0.162E-01  0.162E-01
   1.584  0.164E-01  0.164E-01
   1.594  0.167E-01  0.167E-01
   1.604  0.170E-01  0.170E-01
   1.614  0.172E-01  0.172E-01
   1.624  0.175E-01  0.175E-01
   1.634  0.178E-01  0.178E-01
   1.644  0.182E-01  0.182E-01
   1.654  0.185E-01  0.185E-01
   1.664  0.189E-01  0.189E-01
   1.674  0.192E-01  0.192E-01
   1.684  0.196E-01  0.196E-01
   1.694  0.201E-01  0.201E-01
   1.704  0.205E-01  0.205E-01
   1.714  0.210E-01  0.210E-01
   1.724  0.214E-01  0.214E-01
   1.734  0.220E-01  0.220E-01
   1.744  0.225E-01  0.225E-01
   1.754  0.231E-01  0.231E-01
   1.764  0.236E-01  0.236E-01
   1.774  0.243E-01  0.243E-01
   1.784  0.249E-01  0.249E-01
   1.794  0.256E-01  0.256E-01
   1.804  0.263E-01  0.263E-01
   1.814  0.271E-01  0.271E-01
   1.824  0.278E-01  0.278E-01
   1.834  0.287E-01  0.287E-01
   1.844  0.295E-01  0.295E-01
   1.854  0.304E-01  0.304E-01
   1.864  0.313E-01  0.313E-01
   1.874  0.323E-01  0.323E-01
   1.884  0.333E-01  0.333E-01
   1.894  0.343E-01  0.343E-01
   1.904  0.354E-01  0.354E-01
   1.914  0.365E-01  0.365E-01
   1.924  0.377E-01  0.377E-01
   1.934  0.388E-01  0.388E-01
   1.944  0.401E-01  0.401E-01
   1.954  0.414E-01  0.414E-01
   1.964  0.427E-01  0.427E-01
   1.974  0.440E-01  0.440E-01
   1.984  0.454E-01  0.454E-01
   1.994  0.469E-01  0.469E-01
   2.004  0.483E-01  0.483E-01
   2.014  0.498E-01  0.498E-01
   2.024  0.514E-01  0.514E-01
   2.034  0.530E-01  0.530E-01
   2.044  0.546E-01  0.546E-01
   2.054  0.563E-01  0.563E-01
   2.064  0.580E-01  0.580E-01
   2.074  0.597E-01  0.597E-01
   2.084  0.615E-01  0.615E-01
   2.094  0.633E-01  0.633E-01
   2.104  0.651E-01  0.651E-01
   2.114  0.670E-01  0.670E-01
   2.124  0.689E-01  0.689E-01
   2.134  0.708E-01  0.708E-01
   2.144  0.728E-01  0.728E-01
   2.154  0.748E-01  0.748E-01
   2.164  0.768E-01  0.768E-01
   2.174  0.788E-01  0.788E-01
   2.184  0.808E-01  0.808E-01
   2.194  0.829E-01  0.829E-01
   2.204  0.850E-01  0.850E-01
   2.214  0.871E-01  0.871E-01
   2.224  0.892E-01  0.892E-01
   2.234  0.913E-01  0.913E-01
   2.244  0.934E-01  0.934E-01
   2.254  0.955E-01  0.955E-01
   2.264  0.976E-01  0.976E-01
   2.274  0.998E-01  0.998E-01
   2.284  0.102E+00  0.102E+00
   2.294  0.104E+00  0.104E+00
   2.304  0.106E+00  0.106E+00
   2.314  0.108E+00  0.108E+00
   2.324  0.110E+00  0.110E+00
   2.334  0.112E+00  0.112E+00
   2.344  0.114E+00  0.114E+00
   2.354  0.116E+00  0.116E+00
   2.364  0.118E+00  0.118E+00
   2.374  0.120E+00  0.120E+00
   2.384  0.122E+00  0.122E+00
   2.394  0.124E+00  0.124E+00
   2.404  0.126E+00  0.126E+00
   2.414  0.128E+00  0.128E+00
   2.424  0.130E+00  0.130E+00
   2.434  0.132E+00  0.132E+00
   2.444  0.133E+00  0.133E+00
   2.454  0.135E+00  0.135E+00
   2.464  0.137E+00  0.137E+00
   2.474  0.138E+00  0.138E+00
   2.484  0.140E+00  0.140E+00
   2.494  0.141E+00  0.141E+00
   2.504  0.143E+00  0.143E+00
   2.514  0.144E+00  0.144E+00
   2.524  0.145E+00  0.145E+00
   2.534  0.146E+00  0.146E+00
   2.544  0.147E+00  0.147E+00
   2.554  0.149E+00  0.149E+00
   2.564  0.150E+00  0.150E+00
   2.574  0.150E+00  0.150E+00
   2.584  0.151E+00  0.151E+00
   2.594  0.152E+00  0.152E+00
   2.604  0.153E+00  0.153E+00
   2.614  0.153E+00  0.153E+00
   2.624  0.154E+00  0.154E+00
   2.634  0.154E+00  0.154E+00
   2.644  0.155E+00  0.155E+00
   2.654  0.155E+00  0.155E+00
   2.664  0.155E+00  0.155E+00
   2.674  0.155E+00  0.155E+00
   2.684  0.155E+00  0.155E+00
   2.694  0.155E+00  0.155E+00
   2.704  0.155E+00  0.155E+00
   2.714  0.155E+00  0.155E+00
   2.724  0.155E+00  0.155E+00
   2.734  0.154E+00  0.154E+00
   2.744  0.154E+00  0.154E+00
   2.754  0.153E+00  0.153E+00
   2.764  0.153E+00  0.153E+00
   2.774  0.152E+00  0.152E+00
   2.784  0.151E+00  0.151E+00
   2.794  0.150E+00  0.150E+00
   2.804  0.149E+00  0.149E+00
   2.814  0.148E+00  0.148E+00
   2.824  0.147E+00  0.147E+00
   2.834  0.146E+00  0.146E+00
   2.844  0.145E+00  0.145E+00
   2.854  0.144E+00  0.144E+00
   2.864  0.142E+00  0.142E+00
   2.874  0.141E+00  0.141E+00
   2.884  0.139E+00  0.139E+00
   2.894  0.138E+00  0.138E+00
   2.904  0.136E+00  0.136E+00
   2.914  0.134E+00  0.134E+00
   2.924  0.133E+00  0.133E+00
   2.934  0.131E+00  0.131E+00
   2.944  0.129E+00  0.129E+00
   2.954  0.127E+00  0.127E+00
   2.964  0.125E+00  0.125E+00
   2.974  0.123E+00  0.123E+00
   2.984  0.121E+00  0.121E+00
   2.994  0.119E+00  0.119E+00
   3.004  0.117E+00  0.117E+00
   3.014  0.115E+00  0.115E+00
   3.024  0.113E+00  0.113E+00
   3.034  0.110E+00  0.110E+00
   3.044  0.108E+00  0.108E+00
   3.054  0.106E+00  0.106E+00
   3.064  0.103E+00  0.103E+00
   3.074  0.101E+00  0.101E+00
   3.084  0.989E-01  0.989E-01
   3.094  0.965E-01  0.965E-01
   3.104  0.942E-01  0.942E-01
   3.114  0.918E-01  0.918E-01
   3.124  0.895E-01  0.895E-01
   3.134  0.871E-01  0.871E-01
   3.144  0.847E-01  0.847E-01
   3.154  0.824E-01  0.824E-01
   3.164  0.800E-01  0.800E-01
   3.174  0.777E-01  0.777E-01
   3.184  0.753E-01  0.753E-01
   3.194  0.730E-01  0.730E-01
   3.204  0.707E-01  0.707E-01
   3.214  0.684E-01  0.684E-01
   3.224  0.661E-01  0.661E-01
   3.234  0.638E-01  0.638E-01
   3.244  0.616E-01  0.616E-01
   3.254  0.594E-01  0.594E-01
   3.264  0.572E-01  0.572E-01
   3.274  0.550E-01  0.550E-01
   3.284  0.529E-01  0.529E-01
   3.294  0.508E-01  0.508E-01
   3.304  0.487E-01  0.487E-01
   3.314  0.466E-01  0.466E-01
   3.324  0.446E-01  0.446E-01
   3.334  0.427E-01  0.427E-01
   3.344  0.407E-01  0.407E-01
   3.354  0.388E-01  0.388E-01
   3.364  0.369E-01  0.369E-01
   3.374  0.351E-01  0.351E-01
   3.384  0.333E-01  0.333E-01
   3.394  0.316E-01  0.316E-01
   3.404  0.299E-01  0.299E-01
   3.414  0.282E-01  0.282E-01
   3.424  0.266E-01  0.266E-01
   3.434  0.250E-01  0.250E-01
   3.444  0.235E-01  0.235E-01
   3.454  0.220E-01  0.220E-01
   3.464  0.206E-01  0.206E-01
   3.474  0.192E-01  0.192E-01
   3.484  0.178E-01  0.178E-01
   3.494  0.165E-01  0.165E-01
   3.504  0.152E-01  0.152E-01
   3.514  0.140E-01  0.140E-01
   3.524  0.128E-01  0.128E-01
   3.534  0.117E-01  0.117E-01
   3.544  0.106E-01  0.106E-01
   3.554  0.955E-02  0.955E-02
   3.564  0.854E-02  0.854E-02
   3.574  0.757E-02  0.757E-02
   3.584  0.664E-02  0.664E-02
   3.594  0.575E-02  0.575E-02
   3.604  0.490E-02  0.490E-02
   3.614  0.409E-02  0.409E-02
   3.624  0.332E-02  0.332E-02
   3.634  0.259E-02  0.259E-02
   3.644  0.189E-02  0.189E-02
   3.654  0.123E-02  0.123E-02
   3.664  0.606E-03  0.606E-03
   3.674  0.159E-04  0.159E-04
   3.684 -0.540E-03 -0.540E-03
   3.694 -0.106E-02 -0.106E-02
   3.704 -0.155E-02 -0.155E-02
   3.714 -0.201E-02 -0.201E-02
   3.724 -0.244E-02 -0.244E-02
   3.734 -0.284E-02 -0.284E-02
   3.744 -0.321E-02 -0.321E-02
   3.754 -0.356E-02 -0.356E-02
   3.764 -0.388E-02 -0.388E-02
   3.774 -0.417E-02 -0.417E-02
   3.784 -0.443E-02 -0.443E-02
   3.794 -0.468E-02 -0.468E-02
   3.804 -0.490E-02 -0.490E-02
   3.814 -0.509E-02 -0.509E-02
   3.824 -0.527E-02 -0.527E-02
   3.834 -0.543E-02 -0.543E-02
   3.844 -0.556E-02 -0.556E-02
   3.854 -0.568E-02 -0.568E-02
   3.864 -0.578E-02 -0.578E-02
   3.874 -0.587E-02 -0.587E-02
   3.884 -0.593E-02 -0.593E-02
   3.894 -0.599E-02 -0.599E-02
   3.904 -0.602E-02 -0.602E-02
   3.914 -0.605E-02 -0.605E-02
   3.924 -0.606E-02 -0.606E-02
   3.934 -0.606E-02 -0.606E-02
   3.944 -0.605E-02 -0.605E-02
   3.954 -0.603E-02 -0.603E-02
   3.964 -0.600E-02 -0.600E-02
   3.974 -0.596E-02 -0.596E-02
   3.984 -0.591E-02 -0.591E-02
   3.994 -0.585E-02 -0.585E-02
   4.004 -0.578E-02 -0.578E-02
   4.014 -0.571E-02 -0.571E-02
   4.024 -0.564E-02 -0.564E-02
   4.034 -0.555E-02 -0.555E-02
   4.044 -0.546E-02 -0.546E-02
   4.054 -0.537E-02 -0.537E-02
   4.064 -0.527E-02 -0.527E-02
   4.074 -0.517E-02 -0.517E-02
   4.084 -0.507E-02 -0.507E-02
   4.094 -0.496E-02 -0.496E-02
   4.104 -0.485E-02 -0.485E-02
   4.114 -0.474E-02 -0.474E-02
   4.124 -0.463E-02 -0.463E-02
   4.134 -0.452E-02 -0.452E-02
   4.144 -0.440E-02 -0.440E-02
   4.154 -0.429E-02 -0.429E-02
   4.164 -0.417E-02 -0.417E-02
   4.174 -0.406E-02 -0.406E-02
   4.184 -0.394E-02 -0.394E-02
   4.194 -0.382E-02 -0.382E-02
   4.204 -0.371E-02 -0.371E-02
   4.214 -0.360E-02 -0.360E-02
   4.224 -0.348E-02 -0.348E-02
   4.234 -0.337E-02 -0.337E-02
   4.244 -0.326E-02 -0.326E-02
   4.254 -0.315E-02 -0.315E-02
   4.264 -0.304E-02 -0.304E-02
   4.274 -0.294E-02 -0.294E-02
   4.284 -0.283E-02 -0.283E-02
   4.294 -0.273E-02 -0.273E-02
   4.304 -0.263E-02 -0.263E-02
   4.314 -0.253E-02 -0.253E-02
   4.324 -0.244E-02 -0.244E-02
   4.334 -0.234E-02 -0.234E-02
   4.344 -0.225E-02 -0.225E-02
   4.354 -0.216E-02 -0.216E-02
   4.364 -0.207E-02 -0.207E-02
   4.374 -0.199E-02 -0.199E-02
   4.384 -0.191E-02 -0.191E-02
   4.394 -0.183E-02 -0.183E-02
   4.404 -0.175E-02 -0.175E-02
   4.414 -0.167E-02 -0.167E-02
   4.424 -0.160E-02 -0.160E-02
   4.434 -0.153E-02 -0.153E-02
   4.444 -0.146E-02 -0.146E-02
   4.454 -0.140E-02 -0.140E-02
   4.464 -0.133E-02 -0.133E-02
   4.474 -0.127E-02 -0.127E-02
   4.484 -0.121E-02 -0.121E-02
   4.494 -0.115E-02 -0.115E-02
   4.504 -0.110E-02 -0.110E-02
   4.514 -0.105E-02 -0.105E-02
   4.524 -0.994E-03 -0.994E-03
   4.534 -0.945E-03 -0.945E-03
   4.544 -0.898E-03 -0.898E-03
   4.554 -0.853E-03 -0.853E-03
   4.564 -0.809E-03 -0.809E-03
   4.574 -0.768E-03 -0.768E-03
   4.584 -0.728E-03 -0.728E-03
   4.594 -0.690E-03 -0.690E-03
   4.604 -0.654E-03 -0.654E-03
   4.614 -0.619E-03 -0.619E-03
   4.624 -0.586E-03 -0.586E-03
   4.634 -0.554E-03 -0.554E-03
   4.644 -0.523E-03 -0.523E-03
   4.654 -0.495E-03 -0.495E-03
   4.664 -0.467E-03 -0.467E-03
   4.674 -0.441E-03 -0.441E-03
   4.684 -0.416E-03 -0.416E-03
   4.694 -0.392E-03 -0.392E-03
   4.704 -0.370E-03 -0.370E-03
   4.714 -0.348E-03 -0.348E-03
   4.724 -0.328E-03 -0.328E-03
   4.734 -0.309E-03 -0.309E-03
   4.744 -0.290E-03 -0.290E-03
   4.754 -0.273E-03 -0.273E-03
   4.764 -0.256E-03 -0.256E-03
   4.774 -0.241E-03 -0.241E-03
   4.784 -0.226E-03 -0.226E-03
   4.794 -0.212E-03 -0.212E-03
   4.804 -0.199E-03 -0.199E-03
   4.814 -0.187E-03 -0.187E-03
   4.824 -0.175E-03 -0.175E-03
   4.834 -0.164E-03 -0.164E-03
   4.844 -0.153E-03 -0.153E-03
   4.854 -0.144E-03 -0.144E-03
   4.864 -0.134E-03 -0.134E-03
   4.874 -0.126E-03 -0.126E-03
   4.884 -0.117E-03 -0.117E-03
   4.894 -0.110E-03 -0.110E-03
   4.904 -0.102E-03 -0.102E-03
   4.914 -0.954E-04 -0.954E-04
   4.924 -0.890E-04 -0.890E-04
   4.934 -0.830E-04 -0.830E-04
   4.944 -0.773E-04 -0.773E-04
   4.954 -0.720E-04 -0.720E-04
   4.964 -0.671E-04 -0.671E-04
   4.974 -0.624E-04 -0.624E-04
   4.984 -0.580E-04 -0.580E-04
   4.994 -0.540E-04 -0.540E-04
   5.004 -0.501E-04 -0.501E-04
   5.014 -0.466E-04 -0.466E-04
   5.024 -0.432E-04 -0.432E-04
   5.034 -0.401E-04 -0.401E-04
   5.044 -0.372E-04 -0.372E-04
   5.054 -0.345E-04 -0.345E-04
   5.064 -0.320E-04 -0.320E-04
   5.074 -0.296E-04 -0.296E-04
   5.084 -0.274E-04 -0.274E-04
   5.094 -0.254E-04 -0.254E-04
   5.104 -0.235E-04 -0.235E-04
   5.114 -0.217E-04 -0.217E-04
   5.124 -0.201E-04 -0.201E-04
   5.134 -0.185E-04 -0.185E-04
   5.144 -0.171E-04 -0.171E-04
   5.154 -0.158E-04 -0.158E-04
   5.164 -0.146E-04 -0.146E-04
   5.174 -0.134E-04 -0.134E-04
   5.184 -0.124E-04 -0.124E-04
   5.194 -0.114E-04 -0.114E-04
   5.204 -0.105E-04 -0.105E-04
   5.214 -0.968E-05 -0.968E-05
   5.224 -0.891E-05 -0.891E-05
   5.234 -0.819E-05 -0.819E-05
   5.244 -0.753E-05 -0.753E-05
   5.254 -0.692E-05 -0.692E-05
   5.264 -0.635E-05 -0.635E-05
   5.274 -0.583E-05 -0.583E-05
   5.284 -0.535E-05 -0.535E-05
   5.294 -0.491E-05 -0.491E-05
