# E (eV)   ldos(E)   pdos(E)   
 -27.116 -0.293E-06 -0.293E-06
 -27.106 -0.317E-06 -0.317E-06
 -27.096 -0.341E-06 -0.341E-06
 -27.086 -0.368E-06 -0.368E-06
 -27.076 -0.397E-06 -0.397E-06
 -27.066 -0.428E-06 -0.428E-06
 -27.056 -0.460E-06 -0.460E-06
 -27.046 -0.495E-06 -0.495E-06
 -27.036 -0.533E-06 -0.533E-06
 -27.026 -0.573E-06 -0.573E-06
 -27.016 -0.615E-06 -0.615E-06
 -27.006 -0.661E-06 -0.661E-06
 -26.996 -0.709E-06 -0.709E-06
 -26.986 -0.761E-06 -0.761E-06
 -26.976 -0.816E-06 -0.816E-06
 -26.966 -0.874E-06 -0.874E-06
 -26.956 -0.936E-06 -0.936E-06
 -26.946 -0.100E-05 -0.100E-05
 -26.936 -0.107E-05 -0.107E-05
 -26.926 -0.115E-05 -0.115E-05
 -26.916 -0.123E-05 -0.123E-05
 -26.906 -0.131E-05 -0.131E-05
 -26.896 -0.140E-05 -0.140E-05
 -26.886 -0.149E-05 -0.149E-05
 -26.876 -0.159E-05 -0.159E-05
 -26.866 -0.169E-05 -0.169E-05
 -26.856 -0.180E-05 -0.180E-05
 -26.846 -0.192E-05 -0.192E-05
 -26.836 -0.204E-05 -0.204E-05
 -26.826 -0.217E-05 -0.217E-05
 -26.816 -0.231E-05 -0.231E-05
 -26.806 -0.245E-05 -0.245E-05
 -26.796 -0.261E-05 -0.261E-05
 -26.786 -0.276E-05 -0.276E-05
 -26.776 -0.293E-05 -0.293E-05
 -26.766 -0.311E-05 -0.311E-05
 -26.756 -0.329E-05 -0.329E-05
 -26.746 -0.348E-05 -0.348E-05
 -26.736 -0.368E-05 -0.368E-05
 -26.726 -0.390E-05 -0.390E-05
 -26.716 -0.412E-05 -0.412E-05
 -26.706 -0.435E-05 -0.435E-05
 -26.696 -0.459E-05 -0.459E-05
 -26.686 -0.484E-05 -0.484E-05
 -26.676 -0.510E-05 -0.510E-05
 -26.666 -0.537E-05 -0.537E-05
 -26.656 -0.566E-05 -0.566E-05
 -26.646 -0.595E-05 -0.595E-05
 -26.636 -0.626E-05 -0.626E-05
 -26.626 -0.658E-05 -0.658E-05
 -26.616 -0.691E-05 -0.691E-05
 -26.606 -0.725E-05 -0.725E-05
 -26.596 -0.760E-05 -0.760E-05
 -26.586 -0.797E-05 -0.797E-05
 -26.576 -0.834E-05 -0.834E-05
 -26.566 -0.873E-05 -0.873E-05
 -26.556 -0.913E-05 -0.913E-05
 -26.546 -0.955E-05 -0.955E-05
 -26.536 -0.997E-05 -0.997E-05
 -26.526 -0.104E-04 -0.104E-04
 -26.516 -0.109E-04 -0.109E-04
 -26.506 -0.113E-04 -0.113E-04
 -26.496 -0.118E-04 -0.118E-04
 -26.486 -0.123E-04 -0.123E-04
 -26.476 -0.128E-04 -0.128E-04
 -26.466 -0.133E-04 -0.133E-04
 -26.456 -0.138E-04 -0.138E-04
 -26.446 -0.143E-04 -0.143E-04
 -26.436 -0.148E-04 -0.148E-04
 -26.426 -0.153E-04 -0.153E-04
 -26.416 -0.159E-04 -0.159E-04
 -26.406 -0.164E-04 -0.164E-04
 -26.396 -0.170E-04 -0.170E-04
 -26.386 -0.175E-04 -0.175E-04
 -26.376 -0.181E-04 -0.181E-04
 -26.366 -0.186E-04 -0.186E-04
 -26.356 -0.192E-04 -0.192E-04
 -26.346 -0.197E-04 -0.197E-04
 -26.336 -0.203E-04 -0.203E-04
 -26.326 -0.208E-04 -0.208E-04
 -26.316 -0.214E-04 -0.214E-04
 -26.306 -0.219E-04 -0.219E-04
 -26.296 -0.224E-04 -0.224E-04
 -26.286 -0.229E-04 -0.229E-04
 -26.276 -0.234E-04 -0.234E-04
 -26.266 -0.239E-04 -0.239E-04
 -26.256 -0.243E-04 -0.243E-04
 -26.246 -0.247E-04 -0.247E-04
 -26.236 -0.251E-04 -0.251E-04
 -26.226 -0.255E-04 -0.255E-04
 -26.216 -0.258E-04 -0.258E-04
 -26.206 -0.262E-04 -0.262E-04
 -26.196 -0.264E-04 -0.264E-04
 -26.186 -0.266E-04 -0.266E-04
 -26.176 -0.268E-04 -0.268E-04
 -26.166 -0.270E-04 -0.270E-04
 -26.156 -0.271E-04 -0.271E-04
 -26.146 -0.271E-04 -0.271E-04
 -26.136 -0.271E-04 -0.271E-04
 -26.126 -0.270E-04 -0.270E-04
 -26.116 -0.268E-04 -0.268E-04
 -26.106 -0.266E-04 -0.266E-04
 -26.096 -0.263E-04 -0.263E-04
 -26.086 -0.259E-04 -0.259E-04
 -26.076 -0.255E-04 -0.255E-04
 -26.066 -0.249E-04 -0.249E-04
 -26.056 -0.243E-04 -0.243E-04
 -26.046 -0.235E-04 -0.235E-04
 -26.036 -0.227E-04 -0.227E-04
 -26.026 -0.218E-04 -0.218E-04
 -26.016 -0.207E-04 -0.207E-04
 -26.006 -0.196E-04 -0.196E-04
 -25.996 -0.183E-04 -0.183E-04
 -25.986 -0.169E-04 -0.169E-04
 -25.976 -0.154E-04 -0.154E-04
 -25.966 -0.137E-04 -0.137E-04
 -25.956 -0.119E-04 -0.119E-04
 -25.946 -0.998E-05 -0.998E-05
 -25.936 -0.791E-05 -0.791E-05
 -25.926 -0.569E-05 -0.569E-05
 -25.916 -0.332E-05 -0.332E-05
 -25.906 -0.791E-06 -0.791E-06
 -25.896  0.189E-05  0.189E-05
 -25.886  0.474E-05  0.474E-05
 -25.876  0.775E-05  0.775E-05
 -25.866  0.109E-04  0.109E-04
 -25.856  0.143E-04  0.143E-04
 -25.846  0.178E-04  0.178E-04
 -25.836  0.215E-04  0.215E-04
 -25.826  0.254E-04  0.254E-04
 -25.816  0.294E-04  0.294E-04
 -25.806  0.336E-04  0.336E-04
 -25.796  0.381E-04  0.381E-04
 -25.786  0.427E-04  0.427E-04
 -25.776  0.475E-04  0.475E-04
 -25.766  0.524E-04  0.524E-04
 -25.756  0.576E-04  0.576E-04
 -25.746  0.629E-04  0.629E-04
 -25.736  0.684E-04  0.684E-04
 -25.726  0.741E-04  0.741E-04
 -25.716  0.800E-04  0.800E-04
 -25.706  0.861E-04  0.861E-04
 -25.696  0.923E-04  0.923E-04
 -25.686  0.987E-04  0.987E-04
 -25.676  0.105E-03  0.105E-03
 -25.666  0.112E-03  0.112E-03
 -25.656  0.119E-03  0.119E-03
 -25.646  0.126E-03  0.126E-03
 -25.636  0.133E-03  0.133E-03
 -25.626  0.141E-03  0.141E-03
 -25.616  0.148E-03  0.148E-03
 -25.606  0.156E-03  0.156E-03
 -25.596  0.164E-03  0.164E-03
 -25.586  0.171E-03  0.171E-03
 -25.576  0.180E-03  0.180E-03
 -25.566  0.188E-03  0.188E-03
 -25.556  0.196E-03  0.196E-03
 -25.546  0.204E-03  0.204E-03
 -25.536  0.213E-03  0.213E-03
 -25.526  0.221E-03  0.221E-03
 -25.516  0.230E-03  0.230E-03
 -25.506  0.238E-03  0.238E-03
 -25.496  0.247E-03  0.247E-03
 -25.486  0.256E-03  0.256E-03
 -25.476  0.264E-03  0.264E-03
 -25.466  0.273E-03  0.273E-03
 -25.456  0.282E-03  0.282E-03
 -25.446  0.290E-03  0.290E-03
 -25.436  0.299E-03  0.299E-03
 -25.426  0.308E-03  0.308E-03
 -25.416  0.316E-03  0.316E-03
 -25.406  0.325E-03  0.325E-03
 -25.396  0.333E-03  0.333E-03
 -25.386  0.341E-03  0.341E-03
 -25.376  0.350E-03  0.350E-03
 -25.366  0.358E-03  0.358E-03
 -25.356  0.366E-03  0.366E-03
 -25.346  0.374E-03  0.374E-03
 -25.336  0.381E-03  0.381E-03
 -25.326  0.389E-03  0.389E-03
 -25.316  0.396E-03  0.396E-03
 -25.306  0.404E-03  0.404E-03
 -25.296  0.411E-03  0.411E-03
 -25.286  0.417E-03  0.417E-03
 -25.276  0.424E-03  0.424E-03
 -25.266  0.430E-03  0.430E-03
 -25.256  0.436E-03  0.436E-03
 -25.246  0.442E-03  0.442E-03
 -25.236  0.448E-03  0.448E-03
 -25.226  0.453E-03  0.453E-03
 -25.216  0.458E-03  0.458E-03
 -25.206  0.463E-03  0.463E-03
 -25.196  0.467E-03  0.467E-03
 -25.186  0.471E-03  0.471E-03
 -25.176  0.475E-03  0.475E-03
 -25.166  0.479E-03  0.479E-03
 -25.156  0.482E-03  0.482E-03
 -25.146  0.485E-03  0.485E-03
 -25.136  0.487E-03  0.487E-03
 -25.126  0.489E-03  0.489E-03
 -25.116  0.491E-03  0.491E-03
 -25.106  0.493E-03  0.493E-03
 -25.096  0.494E-03  0.494E-03
 -25.086  0.495E-03  0.495E-03
 -25.076  0.495E-03  0.495E-03
 -25.066  0.495E-03  0.495E-03
 -25.056  0.495E-03  0.495E-03
 -25.046  0.494E-03  0.494E-03
 -25.036  0.493E-03  0.493E-03
 -25.026  0.492E-03  0.492E-03
 -25.016  0.490E-03  0.490E-03
 -25.006  0.488E-03  0.488E-03
 -24.996  0.485E-03  0.485E-03
 -24.986  0.483E-03  0.483E-03
 -24.976  0.480E-03  0.480E-03
 -24.966  0.476E-03  0.476E-03
 -24.956  0.472E-03  0.472E-03
 -24.946  0.468E-03  0.468E-03
 -24.936  0.464E-03  0.464E-03
 -24.926  0.459E-03  0.459E-03
 -24.916  0.454E-03  0.454E-03
 -24.906  0.449E-03  0.449E-03
 -24.896  0.444E-03  0.444E-03
 -24.886  0.438E-03  0.438E-03
 -24.876  0.432E-03  0.432E-03
 -24.866  0.425E-03  0.425E-03
 -24.856  0.419E-03  0.419E-03
 -24.846  0.412E-03  0.412E-03
 -24.836  0.405E-03  0.405E-03
 -24.826  0.398E-03  0.398E-03
 -24.816  0.391E-03  0.391E-03
 -24.806  0.383E-03  0.383E-03
 -24.796  0.375E-03  0.375E-03
 -24.786  0.368E-03  0.368E-03
 -24.776  0.360E-03  0.360E-03
 -24.766  0.352E-03  0.352E-03
 -24.756  0.343E-03  0.343E-03
 -24.746  0.335E-03  0.335E-03
 -24.736  0.327E-03  0.327E-03
 -24.726  0.318E-03  0.318E-03
 -24.716  0.310E-03  0.310E-03
 -24.706  0.301E-03  0.301E-03
 -24.696  0.292E-03  0.292E-03
 -24.686  0.284E-03  0.284E-03
 -24.676  0.275E-03  0.275E-03
 -24.666  0.266E-03  0.266E-03
 -24.656  0.258E-03  0.258E-03
 -24.646  0.249E-03  0.249E-03
 -24.636  0.240E-03  0.240E-03
 -24.626  0.232E-03  0.232E-03
 -24.616  0.223E-03  0.223E-03
 -24.606  0.215E-03  0.215E-03
 -24.596  0.206E-03  0.206E-03
 -24.586  0.198E-03  0.198E-03
 -24.576  0.190E-03  0.190E-03
 -24.566  0.181E-03  0.181E-03
 -24.556  0.173E-03  0.173E-03
 -24.546  0.165E-03  0.165E-03
 -24.536  0.158E-03  0.158E-03
 -24.526  0.150E-03  0.150E-03
 -24.516  0.142E-03  0.142E-03
 -24.506  0.135E-03  0.135E-03
 -24.496  0.128E-03  0.128E-03
 -24.486  0.121E-03  0.121E-03
 -24.476  0.114E-03  0.114E-03
 -24.466  0.107E-03  0.107E-03
 -24.456  0.100E-03  0.100E-03
 -24.446  0.938E-04  0.938E-04
 -24.436  0.875E-04  0.875E-04
 -24.426  0.814E-04  0.814E-04
 -24.416  0.755E-04  0.755E-04
 -24.406  0.698E-04  0.698E-04
 -24.396  0.642E-04  0.642E-04
 -24.386  0.588E-04  0.588E-04
 -24.376  0.536E-04  0.536E-04
 -24.366  0.486E-04  0.486E-04
 -24.356  0.438E-04  0.438E-04
 -24.346  0.391E-04  0.391E-04
 -24.336  0.347E-04  0.347E-04
 -24.326  0.304E-04  0.304E-04
 -24.316  0.263E-04  0.263E-04
 -24.306  0.224E-04  0.224E-04
 -24.296  0.187E-04  0.187E-04
 -24.286  0.151E-04  0.151E-04
 -24.276  0.117E-04  0.117E-04
 -24.266  0.848E-05  0.848E-05
 -24.256  0.543E-05  0.543E-05
 -24.246  0.255E-05  0.255E-05
 -24.236 -0.169E-06 -0.169E-06
 -24.226 -0.273E-05 -0.273E-05
 -24.216 -0.514E-05 -0.514E-05
 -24.206 -0.739E-05 -0.739E-05
 -24.196 -0.950E-05 -0.950E-05
 -24.186 -0.115E-04 -0.115E-04
 -24.176 -0.133E-04 -0.133E-04
 -24.166 -0.150E-04 -0.150E-04
 -24.156 -0.165E-04 -0.165E-04
 -24.146 -0.180E-04 -0.180E-04
 -24.136 -0.193E-04 -0.193E-04
 -24.126 -0.205E-04 -0.205E-04
 -24.116 -0.215E-04 -0.215E-04
 -24.106 -0.225E-04 -0.225E-04
 -24.096 -0.233E-04 -0.233E-04
 -24.086 -0.241E-04 -0.241E-04
 -24.076 -0.248E-04 -0.248E-04
 -24.066 -0.253E-04 -0.253E-04
 -24.056 -0.258E-04 -0.258E-04
 -24.046 -0.262E-04 -0.262E-04
 -24.036 -0.265E-04 -0.265E-04
 -24.026 -0.268E-04 -0.268E-04
 -24.016 -0.269E-04 -0.269E-04
 -24.006 -0.270E-04 -0.270E-04
 -23.996 -0.271E-04 -0.271E-04
 -23.986 -0.271E-04 -0.271E-04
 -23.976 -0.270E-04 -0.270E-04
 -23.966 -0.269E-04 -0.269E-04
 -23.956 -0.267E-04 -0.267E-04
 -23.946 -0.265E-04 -0.265E-04
 -23.936 -0.262E-04 -0.262E-04
 -23.926 -0.259E-04 -0.259E-04
 -23.916 -0.256E-04 -0.256E-04
 -23.906 -0.252E-04 -0.252E-04
 -23.896 -0.248E-04 -0.248E-04
 -23.886 -0.244E-04 -0.244E-04
 -23.876 -0.240E-04 -0.240E-04
 -23.866 -0.235E-04 -0.235E-04
 -23.856 -0.230E-04 -0.230E-04
 -23.846 -0.225E-04 -0.225E-04
 -23.836 -0.220E-04 -0.220E-04
 -23.826 -0.215E-04 -0.215E-04
 -23.816 -0.210E-04 -0.210E-04
 -23.806 -0.204E-04 -0.204E-04
 -23.796 -0.199E-04 -0.199E-04
 -23.786 -0.193E-04 -0.193E-04
 -23.776 -0.188E-04 -0.188E-04
 -23.766 -0.182E-04 -0.182E-04
 -23.756 -0.177E-04 -0.177E-04
 -23.746 -0.171E-04 -0.171E-04
 -23.736 -0.166E-04 -0.166E-04
 -23.726 -0.160E-04 -0.160E-04
 -23.716 -0.155E-04 -0.155E-04
 -23.706 -0.149E-04 -0.149E-04
 -23.696 -0.144E-04 -0.144E-04
 -23.686 -0.139E-04 -0.139E-04
 -23.676 -0.134E-04 -0.134E-04
 -23.666 -0.129E-04 -0.129E-04
 -23.656 -0.124E-04 -0.124E-04
 -23.646 -0.119E-04 -0.119E-04
 -23.636 -0.114E-04 -0.114E-04
 -23.626 -0.110E-04 -0.110E-04
 -23.616 -0.105E-04 -0.105E-04
 -23.606 -0.101E-04 -0.101E-04
 -23.596 -0.965E-05 -0.965E-05
 -23.586 -0.923E-05 -0.923E-05
 -23.576 -0.883E-05 -0.883E-05
 -23.566 -0.843E-05 -0.843E-05
 -23.556 -0.805E-05 -0.805E-05
 -23.546 -0.769E-05 -0.769E-05
 -23.536 -0.733E-05 -0.733E-05
 -23.526 -0.699E-05 -0.699E-05
 -23.516 -0.665E-05 -0.665E-05
 -23.506 -0.633E-05 -0.633E-05
 -23.496 -0.602E-05 -0.602E-05
 -23.486 -0.573E-05 -0.573E-05
 -23.476 -0.544E-05 -0.544E-05
 -23.466 -0.516E-05 -0.516E-05
 -23.456 -0.490E-05 -0.490E-05
 -23.446 -0.465E-05 -0.465E-05
 -23.436 -0.440E-05 -0.440E-05
 -23.426 -0.417E-05 -0.417E-05
 -23.416 -0.395E-05 -0.395E-05
 -23.406 -0.373E-05 -0.373E-05
 -23.396 -0.353E-05 -0.353E-05
 -23.386 -0.333E-05 -0.333E-05
 -23.376 -0.315E-05 -0.315E-05
 -23.366 -0.297E-05 -0.297E-05
 -23.356 -0.280E-05 -0.280E-05
 -23.346 -0.264E-05 -0.264E-05
 -23.336 -0.249E-05 -0.249E-05
 -23.326 -0.234E-05 -0.234E-05
 -23.316 -0.221E-05 -0.221E-05
 -23.306 -0.207E-05 -0.207E-05
 -23.296 -0.195E-05 -0.195E-05
 -23.286 -0.183E-05 -0.183E-05
 -23.276 -0.172E-05 -0.172E-05
 -23.266 -0.161E-05 -0.161E-05
 -23.256 -0.151E-05 -0.151E-05
 -23.246 -0.142E-05 -0.142E-05
 -23.236 -0.133E-05 -0.133E-05
 -23.226 -0.124E-05 -0.124E-05
 -23.216 -0.116E-05 -0.116E-05
 -23.206 -0.109E-05 -0.109E-05
 -23.196 -0.102E-05 -0.102E-05
 -23.186 -0.951E-06 -0.951E-06
 -23.176 -0.889E-06 -0.889E-06
 -23.166 -0.829E-06 -0.829E-06
 -23.156 -0.774E-06 -0.774E-06
 -23.146 -0.721E-06 -0.721E-06
 -23.136 -0.672E-06 -0.672E-06
 -23.126 -0.626E-06 -0.626E-06
 -23.116 -0.583E-06 -0.583E-06
 -23.106 -0.542E-06 -0.542E-06
 -23.096 -0.504E-06 -0.504E-06
 -23.086 -0.468E-06 -0.468E-06
 -23.076 -0.435E-06 -0.435E-06
 -23.066 -0.404E-06 -0.404E-06
 -23.056 -0.375E-06 -0.375E-06
 -23.046 -0.348E-06 -0.348E-06
 -23.036 -0.322E-06 -0.322E-06
 -23.026 -0.299E-06 -0.299E-06
 -23.016 -0.277E-06 -0.277E-06
 -23.006 -0.256E-06 -0.256E-06
 -22.996 -0.237E-06 -0.237E-06
 -22.986 -0.219E-06 -0.219E-06
 -22.976 -0.202E-06 -0.202E-06
 -22.966 -0.187E-06 -0.187E-06
 -22.956 -0.173E-06 -0.173E-06
 -22.946 -0.159E-06 -0.159E-06
 -22.936 -0.147E-06 -0.147E-06
 -22.926 -0.135E-06 -0.135E-06
 -22.916 -0.125E-06 -0.125E-06
 -22.906 -0.115E-06 -0.115E-06
 -22.896 -0.106E-06 -0.106E-06
 -22.886 -0.973E-07 -0.973E-07
 -22.876 -0.895E-07 -0.895E-07
 -22.866 -0.822E-07 -0.822E-07
 -22.856 -0.755E-07 -0.755E-07
 -22.846 -0.694E-07 -0.694E-07
 -22.836 -0.637E-07 -0.637E-07
 -22.826 -0.584E-07 -0.584E-07
 -22.816 -0.536E-07 -0.536E-07
 -22.806 -0.491E-07 -0.491E-07
 -22.796 -0.450E-07 -0.450E-07
 -22.786 -0.412E-07 -0.412E-07
 -22.776 -0.377E-07 -0.377E-07
 -22.766 -0.345E-07 -0.345E-07
 -22.756 -0.316E-07 -0.316E-07
 -22.746 -0.289E-07 -0.289E-07
 -22.736 -0.264E-07 -0.264E-07
 -22.726 -0.242E-07 -0.242E-07
 -22.716 -0.221E-07 -0.221E-07
 -22.706 -0.202E-07 -0.202E-07
 -22.696 -0.185E-07 -0.185E-07
 -22.686 -0.169E-07 -0.169E-07
 -22.676 -0.154E-07 -0.154E-07
 -22.666 -0.141E-07 -0.141E-07
 -22.656 -0.129E-07 -0.129E-07
 -22.646 -0.118E-07 -0.118E-07
 -22.636 -0.108E-07 -0.108E-07
 -22.626 -0.995E-08 -0.995E-08
 -22.616 -0.915E-08 -0.915E-08
 -22.606 -0.842E-08 -0.842E-08
 -22.596 -0.777E-08 -0.777E-08
 -22.586 -0.720E-08 -0.720E-08
 -22.576 -0.668E-08 -0.668E-08
 -22.566 -0.623E-08 -0.623E-08
 -22.556 -0.583E-08 -0.583E-08
 -22.546 -0.548E-08 -0.548E-08
 -22.536 -0.519E-08 -0.519E-08
 -22.526 -0.494E-08 -0.494E-08
 -22.516 -0.473E-08 -0.473E-08
 -22.506 -0.457E-08 -0.457E-08
 -22.496 -0.445E-08 -0.445E-08
 -22.486 -0.436E-08 -0.436E-08
 -22.476 -0.431E-08 -0.431E-08
 -22.466 -0.430E-08 -0.430E-08
 -22.456 -0.433E-08 -0.433E-08
 -22.446 -0.438E-08 -0.438E-08
 -22.436 -0.448E-08 -0.448E-08
 -22.426 -0.460E-08 -0.460E-08
 -22.416 -0.480E-08 -0.480E-08
 -22.406 -0.500E-08 -0.500E-08
 -22.396 -0.523E-08 -0.523E-08
 -22.386 -0.551E-08 -0.551E-08
 -22.376 -0.581E-08 -0.581E-08
 -22.366 -0.616E-08 -0.616E-08
 -22.356 -0.655E-08 -0.655E-08
 -22.346 -0.697E-08 -0.697E-08
 -22.336 -0.744E-08 -0.744E-08
 -22.326 -0.796E-08 -0.796E-08
 -22.316 -0.852E-08 -0.852E-08
 -22.306 -0.913E-08 -0.913E-08
 -22.296 -0.979E-08 -0.979E-08
 -22.286 -0.105E-07 -0.105E-07
 -22.276 -0.113E-07 -0.113E-07
 -22.266 -0.121E-07 -0.121E-07
 -22.256 -0.130E-07 -0.130E-07
 -22.246 -0.140E-07 -0.140E-07
 -22.236 -0.150E-07 -0.150E-07
 -22.226 -0.161E-07 -0.161E-07
 -22.216 -0.173E-07 -0.173E-07
 -22.206 -0.186E-07 -0.186E-07
 -22.196 -0.200E-07 -0.200E-07
 -22.186 -0.215E-07 -0.215E-07
 -22.176 -0.230E-07 -0.230E-07
 -22.166 -0.247E-07 -0.247E-07
 -22.156 -0.265E-07 -0.265E-07
 -22.146 -0.284E-07 -0.284E-07
 -22.136 -0.305E-07 -0.305E-07
 -22.126 -0.327E-07 -0.327E-07
 -22.116 -0.350E-07 -0.350E-07
 -22.106 -0.375E-07 -0.375E-07
 -22.096 -0.401E-07 -0.401E-07
 -22.086 -0.430E-07 -0.430E-07
 -22.076 -0.460E-07 -0.460E-07
 -22.066 -0.492E-07 -0.492E-07
 -22.056 -0.526E-07 -0.526E-07
 -22.046 -0.563E-07 -0.563E-07
 -22.036 -0.602E-07 -0.602E-07
 -22.026 -0.644E-07 -0.644E-07
 -22.016 -0.688E-07 -0.688E-07
 -22.006 -0.735E-07 -0.735E-07
 -21.996 -0.785E-07 -0.785E-07
 -21.986 -0.839E-07 -0.839E-07
 -21.976 -0.896E-07 -0.896E-07
 -21.966 -0.957E-07 -0.957E-07
 -21.956 -0.102E-06 -0.102E-06
 -21.946 -0.109E-06 -0.109E-06
 -21.936 -0.117E-06 -0.117E-06
 -21.926 -0.124E-06 -0.124E-06
 -21.916 -0.133E-06 -0.133E-06
 -21.906 -0.142E-06 -0.142E-06
 -21.896 -0.152E-06 -0.152E-06
 -21.886 -0.162E-06 -0.162E-06
 -21.876 -0.173E-06 -0.173E-06
 -21.866 -0.185E-06 -0.185E-06
 -21.856 -0.198E-06 -0.198E-06
 -21.846 -0.211E-06 -0.211E-06
 -21.836 -0.226E-06 -0.226E-06
 -21.826 -0.241E-06 -0.241E-06
 -21.816 -0.258E-06 -0.258E-06
 -21.806 -0.276E-06 -0.276E-06
 -21.796 -0.296E-06 -0.296E-06
 -21.786 -0.317E-06 -0.317E-06
 -21.776 -0.340E-06 -0.340E-06
 -21.766 -0.364E-06 -0.364E-06
 -21.756 -0.390E-06 -0.390E-06
 -21.746 -0.419E-06 -0.419E-06
 -21.736 -0.449E-06 -0.449E-06
 -21.726 -0.482E-06 -0.482E-06
 -21.716 -0.518E-06 -0.518E-06
 -21.706 -0.557E-06 -0.557E-06
 -21.696 -0.600E-06 -0.600E-06
 -21.686 -0.645E-06 -0.645E-06
 -21.676 -0.695E-06 -0.695E-06
 -21.666 -0.749E-06 -0.749E-06
 -21.656 -0.807E-06 -0.807E-06
 -21.646 -0.871E-06 -0.871E-06
 -21.636 -0.940E-06 -0.940E-06
 -21.626 -0.102E-05 -0.102E-05
 -21.616 -0.110E-05 -0.110E-05
 -21.606 -0.119E-05 -0.119E-05
 -21.596 -0.128E-05 -0.128E-05
 -21.586 -0.139E-05 -0.139E-05
 -21.576 -0.151E-05 -0.151E-05
 -21.566 -0.163E-05 -0.163E-05
 -21.556 -0.177E-05 -0.177E-05
 -21.546 -0.192E-05 -0.192E-05
 -21.536 -0.208E-05 -0.208E-05
 -21.526 -0.226E-05 -0.226E-05
 -21.516 -0.246E-05 -0.246E-05
 -21.506 -0.267E-05 -0.267E-05
 -21.496 -0.290E-05 -0.290E-05
 -21.486 -0.316E-05 -0.316E-05
 -21.476 -0.344E-05 -0.344E-05
 -21.466 -0.374E-05 -0.374E-05
 -21.456 -0.407E-05 -0.407E-05
 -21.446 -0.443E-05 -0.443E-05
 -21.436 -0.482E-05 -0.482E-05
 -21.426 -0.525E-05 -0.525E-05
 -21.416 -0.572E-05 -0.572E-05
 -21.406 -0.623E-05 -0.623E-05
 -21.396 -0.679E-05 -0.679E-05
 -21.386 -0.740E-05 -0.740E-05
 -21.376 -0.806E-05 -0.806E-05
 -21.366 -0.878E-05 -0.878E-05
 -21.356 -0.957E-05 -0.957E-05
 -21.346 -0.104E-04 -0.104E-04
 -21.336 -0.114E-04 -0.114E-04
 -21.326 -0.124E-04 -0.124E-04
 -21.316 -0.135E-04 -0.135E-04
 -21.306 -0.147E-04 -0.147E-04
 -21.296 -0.160E-04 -0.160E-04
 -21.286 -0.174E-04 -0.174E-04
 -21.276 -0.189E-04 -0.189E-04
 -21.266 -0.206E-04 -0.206E-04
 -21.256 -0.224E-04 -0.224E-04
 -21.246 -0.243E-04 -0.243E-04
 -21.236 -0.265E-04 -0.265E-04
 -21.226 -0.288E-04 -0.288E-04
 -21.216 -0.313E-04 -0.313E-04
 -21.206 -0.340E-04 -0.340E-04
 -21.196 -0.369E-04 -0.369E-04
 -21.186 -0.400E-04 -0.400E-04
 -21.176 -0.434E-04 -0.434E-04
 -21.166 -0.471E-04 -0.471E-04
 -21.156 -0.511E-04 -0.511E-04
 -21.146 -0.554E-04 -0.554E-04
 -21.136 -0.600E-04 -0.600E-04
 -21.126 -0.650E-04 -0.650E-04
 -21.116 -0.704E-04 -0.704E-04
 -21.106 -0.762E-04 -0.762E-04
 -21.096 -0.824E-04 -0.824E-04
 -21.086 -0.891E-04 -0.891E-04
 -21.076 -0.963E-04 -0.963E-04
 -21.066 -0.104E-03 -0.104E-03
 -21.056 -0.112E-03 -0.112E-03
 -21.046 -0.121E-03 -0.121E-03
 -21.036 -0.131E-03 -0.131E-03
 -21.026 -0.141E-03 -0.141E-03
 -21.016 -0.152E-03 -0.152E-03
 -21.006 -0.164E-03 -0.164E-03
 -20.996 -0.177E-03 -0.177E-03
 -20.986 -0.190E-03 -0.190E-03
 -20.976 -0.204E-03 -0.204E-03
 -20.966 -0.220E-03 -0.220E-03
 -20.956 -0.236E-03 -0.236E-03
 -20.946 -0.254E-03 -0.254E-03
 -20.936 -0.272E-03 -0.272E-03
 -20.926 -0.292E-03 -0.292E-03
 -20.916 -0.314E-03 -0.314E-03
 -20.906 -0.336E-03 -0.336E-03
 -20.896 -0.360E-03 -0.360E-03
 -20.886 -0.386E-03 -0.386E-03
 -20.876 -0.413E-03 -0.413E-03
 -20.866 -0.442E-03 -0.442E-03
 -20.856 -0.472E-03 -0.472E-03
 -20.846 -0.505E-03 -0.505E-03
 -20.836 -0.539E-03 -0.539E-03
 -20.826 -0.576E-03 -0.576E-03
 -20.816 -0.614E-03 -0.614E-03
 -20.806 -0.655E-03 -0.655E-03
 -20.796 -0.698E-03 -0.698E-03
 -20.786 -0.744E-03 -0.744E-03
 -20.776 -0.792E-03 -0.792E-03
 -20.766 -0.842E-03 -0.842E-03
 -20.756 -0.896E-03 -0.896E-03
 -20.746 -0.952E-03 -0.952E-03
 -20.736 -0.101E-02 -0.101E-02
 -20.726 -0.107E-02 -0.107E-02
 -20.716 -0.114E-02 -0.114E-02
 -20.706 -0.121E-02 -0.121E-02
 -20.696 -0.128E-02 -0.128E-02
 -20.686 -0.136E-02 -0.136E-02
 -20.676 -0.143E-02 -0.143E-02
 -20.666 -0.152E-02 -0.152E-02
 -20.656 -0.160E-02 -0.160E-02
 -20.646 -0.170E-02 -0.170E-02
 -20.636 -0.179E-02 -0.179E-02
 -20.626 -0.189E-02 -0.189E-02
 -20.616 -0.199E-02 -0.199E-02
 -20.606 -0.210E-02 -0.210E-02
 -20.596 -0.221E-02 -0.221E-02
 -20.586 -0.233E-02 -0.233E-02
 -20.576 -0.245E-02 -0.245E-02
 -20.566 -0.258E-02 -0.258E-02
 -20.556 -0.271E-02 -0.271E-02
 -20.546 -0.284E-02 -0.284E-02
 -20.536 -0.299E-02 -0.299E-02
 -20.526 -0.313E-02 -0.313E-02
 -20.516 -0.328E-02 -0.328E-02
 -20.506 -0.344E-02 -0.344E-02
 -20.496 -0.360E-02 -0.360E-02
 -20.486 -0.376E-02 -0.376E-02
 -20.476 -0.393E-02 -0.393E-02
 -20.466 -0.411E-02 -0.411E-02
 -20.456 -0.429E-02 -0.429E-02
 -20.446 -0.447E-02 -0.447E-02
 -20.436 -0.466E-02 -0.466E-02
 -20.426 -0.485E-02 -0.485E-02
 -20.416 -0.505E-02 -0.505E-02
 -20.406 -0.525E-02 -0.525E-02
 -20.396 -0.546E-02 -0.546E-02
 -20.386 -0.567E-02 -0.567E-02
 -20.376 -0.588E-02 -0.588E-02
 -20.366 -0.609E-02 -0.609E-02
 -20.356 -0.631E-02 -0.631E-02
 -20.346 -0.653E-02 -0.653E-02
 -20.336 -0.676E-02 -0.676E-02
 -20.326 -0.698E-02 -0.698E-02
 -20.316 -0.721E-02 -0.721E-02
 -20.306 -0.743E-02 -0.743E-02
 -20.296 -0.766E-02 -0.766E-02
 -20.286 -0.789E-02 -0.789E-02
 -20.276 -0.811E-02 -0.811E-02
 -20.266 -0.834E-02 -0.834E-02
 -20.256 -0.856E-02 -0.856E-02
 -20.246 -0.877E-02 -0.877E-02
 -20.236 -0.899E-02 -0.899E-02
 -20.226 -0.920E-02 -0.920E-02
 -20.216 -0.940E-02 -0.940E-02
 -20.206 -0.960E-02 -0.960E-02
 -20.196 -0.979E-02 -0.979E-02
 -20.186 -0.997E-02 -0.997E-02
 -20.176 -0.101E-01 -0.101E-01
 -20.166 -0.103E-01 -0.103E-01
 -20.156 -0.105E-01 -0.105E-01
 -20.146 -0.106E-01 -0.106E-01
 -20.136 -0.107E-01 -0.107E-01
 -20.126 -0.108E-01 -0.108E-01
 -20.116 -0.109E-01 -0.109E-01
 -20.106 -0.110E-01 -0.110E-01
 -20.096 -0.110E-01 -0.110E-01
 -20.086 -0.111E-01 -0.111E-01
 -20.076 -0.111E-01 -0.111E-01
 -20.066 -0.111E-01 -0.111E-01
 -20.056 -0.110E-01 -0.110E-01
 -20.046 -0.109E-01 -0.109E-01
 -20.036 -0.109E-01 -0.109E-01
 -20.026 -0.107E-01 -0.107E-01
 -20.016 -0.106E-01 -0.106E-01
 -20.006 -0.104E-01 -0.104E-01
 -19.996 -0.101E-01 -0.101E-01
 -19.986 -0.987E-02 -0.987E-02
 -19.976 -0.956E-02 -0.956E-02
 -19.966 -0.921E-02 -0.921E-02
 -19.956 -0.882E-02 -0.882E-02
 -19.946 -0.838E-02 -0.838E-02
 -19.936 -0.790E-02 -0.790E-02
 -19.926 -0.736E-02 -0.736E-02
 -19.916 -0.678E-02 -0.678E-02
 -19.906 -0.615E-02 -0.615E-02
 -19.896 -0.546E-02 -0.546E-02
 -19.886 -0.471E-02 -0.471E-02
 -19.876 -0.391E-02 -0.391E-02
 -19.866 -0.305E-02 -0.305E-02
 -19.856 -0.213E-02 -0.213E-02
 -19.846 -0.115E-02 -0.115E-02
 -19.836 -0.102E-03 -0.102E-03
 -19.826  0.101E-02  0.101E-02
 -19.816  0.219E-02  0.219E-02
 -19.806  0.343E-02  0.343E-02
 -19.796  0.475E-02  0.475E-02
 -19.786  0.613E-02  0.613E-02
 -19.776  0.758E-02  0.758E-02
 -19.766  0.911E-02  0.911E-02
 -19.756  0.107E-01  0.107E-01
 -19.746  0.124E-01  0.124E-01
 -19.736  0.141E-01  0.141E-01
 -19.726  0.160E-01  0.160E-01
 -19.716  0.179E-01  0.179E-01
 -19.706  0.198E-01  0.198E-01
 -19.696  0.219E-01  0.219E-01
 -19.686  0.240E-01  0.240E-01
 -19.676  0.262E-01  0.262E-01
 -19.666  0.285E-01  0.285E-01
 -19.656  0.308E-01  0.308E-01
 -19.646  0.332E-01  0.332E-01
 -19.636  0.357E-01  0.357E-01
 -19.626  0.383E-01  0.383E-01
 -19.616  0.409E-01  0.409E-01
 -19.606  0.437E-01  0.437E-01
 -19.596  0.464E-01  0.464E-01
 -19.586  0.493E-01  0.493E-01
 -19.576  0.522E-01  0.522E-01
 -19.566  0.551E-01  0.551E-01
 -19.556  0.582E-01  0.582E-01
 -19.546  0.613E-01  0.613E-01
 -19.536  0.644E-01  0.644E-01
 -19.526  0.676E-01  0.676E-01
 -19.516  0.708E-01  0.708E-01
 -19.506  0.741E-01  0.741E-01
 -19.496  0.775E-01  0.775E-01
 -19.486  0.808E-01  0.808E-01
 -19.476  0.843E-01  0.843E-01
 -19.466  0.877E-01  0.877E-01
 -19.456  0.912E-01  0.912E-01
 -19.446  0.947E-01  0.947E-01
 -19.436  0.982E-01  0.982E-01
 -19.426  0.102E+00  0.102E+00
 -19.416  0.105E+00  0.105E+00
 -19.406  0.109E+00  0.109E+00
 -19.396  0.112E+00  0.112E+00
 -19.386  0.116E+00  0.116E+00
 -19.376  0.120E+00  0.120E+00
 -19.366  0.123E+00  0.123E+00
 -19.356  0.127E+00  0.127E+00
 -19.346  0.130E+00  0.130E+00
 -19.336  0.134E+00  0.134E+00
 -19.326  0.137E+00  0.137E+00
 -19.316  0.140E+00  0.140E+00
 -19.306  0.144E+00  0.144E+00
 -19.296  0.147E+00  0.147E+00
 -19.286  0.150E+00  0.150E+00
 -19.276  0.154E+00  0.154E+00
 -19.266  0.157E+00  0.157E+00
 -19.256  0.160E+00  0.160E+00
 -19.246  0.163E+00  0.163E+00
 -19.236  0.166E+00  0.166E+00
 -19.226  0.169E+00  0.169E+00
 -19.216  0.171E+00  0.171E+00
 -19.206  0.174E+00  0.174E+00
 -19.196  0.177E+00  0.177E+00
 -19.186  0.179E+00  0.179E+00
 -19.176  0.181E+00  0.181E+00
 -19.166  0.184E+00  0.184E+00
 -19.156  0.186E+00  0.186E+00
 -19.146  0.188E+00  0.188E+00
 -19.136  0.190E+00  0.190E+00
 -19.126  0.192E+00  0.192E+00
 -19.116  0.193E+00  0.193E+00
 -19.106  0.195E+00  0.195E+00
 -19.096  0.196E+00  0.196E+00
 -19.086  0.197E+00  0.197E+00
 -19.076  0.199E+00  0.199E+00
 -19.066  0.200E+00  0.200E+00
 -19.056  0.200E+00  0.200E+00
 -19.046  0.201E+00  0.201E+00
 -19.036  0.202E+00  0.202E+00
 -19.026  0.202E+00  0.202E+00
 -19.016  0.202E+00  0.202E+00
 -19.006  0.202E+00  0.202E+00
 -18.996  0.202E+00  0.202E+00
 -18.986  0.202E+00  0.202E+00
 -18.976  0.202E+00  0.202E+00
 -18.966  0.202E+00  0.202E+00
 -18.956  0.201E+00  0.201E+00
 -18.946  0.200E+00  0.200E+00
 -18.936  0.199E+00  0.199E+00
 -18.926  0.198E+00  0.198E+00
 -18.916  0.197E+00  0.197E+00
 -18.906  0.196E+00  0.196E+00
 -18.896  0.194E+00  0.194E+00
 -18.886  0.193E+00  0.193E+00
 -18.876  0.191E+00  0.191E+00
 -18.866  0.189E+00  0.189E+00
 -18.856  0.187E+00  0.187E+00
 -18.846  0.185E+00  0.185E+00
 -18.836  0.183E+00  0.183E+00
 -18.826  0.181E+00  0.181E+00
 -18.816  0.178E+00  0.178E+00
 -18.806  0.176E+00  0.176E+00
 -18.796  0.173E+00  0.173E+00
 -18.786  0.170E+00  0.170E+00
 -18.776  0.168E+00  0.168E+00
 -18.766  0.165E+00  0.165E+00
 -18.756  0.162E+00  0.162E+00
 -18.746  0.159E+00  0.159E+00
 -18.736  0.155E+00  0.155E+00
 -18.726  0.152E+00  0.152E+00
 -18.716  0.149E+00  0.149E+00
 -18.706  0.146E+00  0.146E+00
 -18.696  0.142E+00  0.142E+00
 -18.686  0.139E+00  0.139E+00
 -18.676  0.135E+00  0.135E+00
 -18.666  0.132E+00  0.132E+00
 -18.656  0.128E+00  0.128E+00
 -18.646  0.125E+00  0.125E+00
 -18.636  0.121E+00  0.121E+00
 -18.626  0.117E+00  0.117E+00
 -18.616  0.114E+00  0.114E+00
 -18.606  0.110E+00  0.110E+00
 -18.596  0.106E+00  0.106E+00
 -18.586  0.103E+00  0.103E+00
 -18.576  0.991E-01  0.991E-01
 -18.566  0.955E-01  0.955E-01
 -18.556  0.918E-01  0.918E-01
 -18.546  0.882E-01  0.882E-01
 -18.536  0.846E-01  0.846E-01
 -18.526  0.810E-01  0.810E-01
 -18.516  0.775E-01  0.775E-01
 -18.506  0.739E-01  0.739E-01
 -18.496  0.705E-01  0.705E-01
 -18.486  0.670E-01  0.670E-01
 -18.476  0.636E-01  0.636E-01
 -18.466  0.602E-01  0.602E-01
 -18.456  0.569E-01  0.569E-01
 -18.446  0.536E-01  0.536E-01
 -18.436  0.504E-01  0.504E-01
 -18.426  0.472E-01  0.472E-01
 -18.416  0.441E-01  0.441E-01
 -18.406  0.410E-01  0.410E-01
 -18.396  0.380E-01  0.380E-01
 -18.386  0.351E-01  0.351E-01
 -18.376  0.322E-01  0.322E-01
 -18.366  0.293E-01  0.293E-01
 -18.356  0.266E-01  0.266E-01
 -18.346  0.239E-01  0.239E-01
 -18.336  0.213E-01  0.213E-01
 -18.326  0.187E-01  0.187E-01
 -18.316  0.162E-01  0.162E-01
 -18.306  0.138E-01  0.138E-01
 -18.296  0.114E-01  0.114E-01
 -18.286  0.914E-02  0.914E-02
 -18.276  0.692E-02  0.692E-02
 -18.266  0.477E-02  0.477E-02
 -18.256  0.268E-02  0.268E-02
 -18.246  0.669E-03  0.669E-03
 -18.236 -0.128E-02 -0.128E-02
 -18.226 -0.316E-02 -0.316E-02
 -18.216 -0.497E-02 -0.497E-02
 -18.206 -0.672E-02 -0.672E-02
 -18.196 -0.840E-02 -0.840E-02
 -18.186 -0.100E-01 -0.100E-01
 -18.176 -0.116E-01 -0.116E-01
 -18.166 -0.130E-01 -0.130E-01
 -18.156 -0.145E-01 -0.145E-01
 -18.146 -0.158E-01 -0.158E-01
 -18.136 -0.171E-01 -0.171E-01
 -18.126 -0.183E-01 -0.183E-01
 -18.116 -0.195E-01 -0.195E-01
 -18.106 -0.206E-01 -0.206E-01
 -18.096 -0.216E-01 -0.216E-01
 -18.086 -0.226E-01 -0.226E-01
 -18.076 -0.235E-01 -0.235E-01
 -18.066 -0.243E-01 -0.243E-01
 -18.056 -0.251E-01 -0.251E-01
 -18.046 -0.259E-01 -0.259E-01
 -18.036 -0.265E-01 -0.265E-01
 -18.026 -0.271E-01 -0.271E-01
 -18.016 -0.277E-01 -0.277E-01
 -18.006 -0.282E-01 -0.282E-01
 -17.996 -0.286E-01 -0.286E-01
 -17.986 -0.289E-01 -0.289E-01
 -17.976 -0.292E-01 -0.292E-01
 -17.966 -0.295E-01 -0.295E-01
 -17.956 -0.296E-01 -0.296E-01
 -17.946 -0.297E-01 -0.297E-01
 -17.936 -0.298E-01 -0.298E-01
 -17.926 -0.297E-01 -0.297E-01
 -17.916 -0.296E-01 -0.296E-01
 -17.906 -0.295E-01 -0.295E-01
 -17.896 -0.292E-01 -0.292E-01
 -17.886 -0.289E-01 -0.289E-01
 -17.876 -0.286E-01 -0.286E-01
 -17.866 -0.281E-01 -0.281E-01
 -17.856 -0.276E-01 -0.276E-01
 -17.846 -0.270E-01 -0.270E-01
 -17.836 -0.263E-01 -0.263E-01
 -17.826 -0.255E-01 -0.255E-01
 -17.816 -0.247E-01 -0.247E-01
 -17.806 -0.237E-01 -0.237E-01
 -17.796 -0.227E-01 -0.227E-01
 -17.786 -0.216E-01 -0.216E-01
 -17.776 -0.204E-01 -0.204E-01
 -17.766 -0.192E-01 -0.192E-01
 -17.756 -0.178E-01 -0.178E-01
 -17.746 -0.163E-01 -0.163E-01
 -17.736 -0.147E-01 -0.147E-01
 -17.726 -0.131E-01 -0.131E-01
 -17.716 -0.113E-01 -0.113E-01
 -17.706 -0.941E-02 -0.941E-02
 -17.696 -0.744E-02 -0.744E-02
 -17.686 -0.535E-02 -0.535E-02
 -17.676 -0.316E-02 -0.316E-02
 -17.666 -0.864E-03 -0.864E-03
 -17.656  0.155E-02  0.155E-02
 -17.646  0.407E-02  0.407E-02
 -17.636  0.670E-02  0.670E-02
 -17.626  0.945E-02  0.945E-02
 -17.616  0.123E-01  0.123E-01
 -17.606  0.153E-01  0.153E-01
 -17.596  0.184E-01  0.184E-01
 -17.586  0.216E-01  0.216E-01
 -17.576  0.249E-01  0.249E-01
 -17.566  0.284E-01  0.284E-01
 -17.556  0.319E-01  0.319E-01
 -17.546  0.356E-01  0.356E-01
 -17.536  0.394E-01  0.394E-01
 -17.526  0.433E-01  0.433E-01
 -17.516  0.473E-01  0.473E-01
 -17.506  0.515E-01  0.515E-01
 -17.496  0.557E-01  0.557E-01
 -17.486  0.601E-01  0.601E-01
 -17.476  0.645E-01  0.645E-01
 -17.466  0.691E-01  0.691E-01
 -17.456  0.738E-01  0.738E-01
 -17.446  0.785E-01  0.785E-01
 -17.436  0.834E-01  0.834E-01
 -17.426  0.884E-01  0.884E-01
 -17.416  0.934E-01  0.934E-01
 -17.406  0.986E-01  0.986E-01
 -17.396  0.104E+00  0.104E+00
 -17.386  0.109E+00  0.109E+00
 -17.376  0.114E+00  0.114E+00
 -17.366  0.120E+00  0.120E+00
 -17.356  0.125E+00  0.125E+00
 -17.346  0.131E+00  0.131E+00
 -17.336  0.137E+00  0.137E+00
 -17.326  0.142E+00  0.142E+00
 -17.316  0.148E+00  0.148E+00
 -17.306  0.154E+00  0.154E+00
 -17.296  0.159E+00  0.159E+00
 -17.286  0.165E+00  0.165E+00
 -17.276  0.171E+00  0.171E+00
 -17.266  0.177E+00  0.177E+00
 -17.256  0.183E+00  0.183E+00
 -17.246  0.189E+00  0.189E+00
 -17.236  0.194E+00  0.194E+00
 -17.226  0.200E+00  0.200E+00
 -17.216  0.206E+00  0.206E+00
 -17.206  0.212E+00  0.212E+00
 -17.196  0.217E+00  0.217E+00
 -17.186  0.223E+00  0.223E+00
 -17.176  0.229E+00  0.229E+00
 -17.166  0.234E+00  0.234E+00
 -17.156  0.240E+00  0.240E+00
 -17.146  0.245E+00  0.245E+00
 -17.136  0.250E+00  0.250E+00
 -17.126  0.255E+00  0.255E+00
 -17.116  0.261E+00  0.261E+00
 -17.106  0.266E+00  0.266E+00
 -17.096  0.271E+00  0.271E+00
 -17.086  0.275E+00  0.275E+00
 -17.076  0.280E+00  0.280E+00
 -17.066  0.285E+00  0.285E+00
 -17.056  0.289E+00  0.289E+00
 -17.046  0.293E+00  0.293E+00
 -17.036  0.297E+00  0.297E+00
 -17.026  0.301E+00  0.301E+00
 -17.016  0.305E+00  0.305E+00
 -17.006  0.309E+00  0.309E+00
 -16.996  0.312E+00  0.312E+00
 -16.986  0.316E+00  0.316E+00
 -16.976  0.319E+00  0.319E+00
 -16.966  0.322E+00  0.322E+00
 -16.956  0.324E+00  0.324E+00
 -16.946  0.327E+00  0.327E+00
 -16.936  0.330E+00  0.330E+00
 -16.926  0.332E+00  0.332E+00
 -16.916  0.334E+00  0.334E+00
 -16.906  0.336E+00  0.336E+00
 -16.896  0.337E+00  0.337E+00
 -16.886  0.339E+00  0.339E+00
 -16.876  0.340E+00  0.340E+00
 -16.866  0.341E+00  0.341E+00
 -16.856  0.342E+00  0.342E+00
 -16.846  0.343E+00  0.343E+00
 -16.836  0.344E+00  0.344E+00
 -16.826  0.344E+00  0.344E+00
 -16.816  0.344E+00  0.344E+00
 -16.806  0.344E+00  0.344E+00
 -16.796  0.344E+00  0.344E+00
 -16.786  0.344E+00  0.344E+00
 -16.776  0.343E+00  0.343E+00
 -16.766  0.343E+00  0.343E+00
 -16.756  0.342E+00  0.342E+00
 -16.746  0.341E+00  0.341E+00
 -16.736  0.340E+00  0.340E+00
 -16.726  0.339E+00  0.339E+00
 -16.716  0.337E+00  0.337E+00
 -16.706  0.336E+00  0.336E+00
 -16.696  0.334E+00  0.334E+00
 -16.686  0.332E+00  0.332E+00
 -16.676  0.330E+00  0.330E+00
 -16.666  0.328E+00  0.328E+00
 -16.656  0.326E+00  0.326E+00
 -16.646  0.324E+00  0.324E+00
 -16.636  0.321E+00  0.321E+00
 -16.626  0.319E+00  0.319E+00
 -16.616  0.316E+00  0.316E+00
 -16.606  0.314E+00  0.314E+00
 -16.596  0.311E+00  0.311E+00
 -16.586  0.308E+00  0.308E+00
 -16.576  0.305E+00  0.305E+00
 -16.566  0.302E+00  0.302E+00
 -16.556  0.300E+00  0.300E+00
 -16.546  0.297E+00  0.297E+00
 -16.536  0.293E+00  0.293E+00
 -16.526  0.290E+00  0.290E+00
 -16.516  0.287E+00  0.287E+00
 -16.506  0.284E+00  0.284E+00
 -16.496  0.281E+00  0.281E+00
 -16.486  0.278E+00  0.278E+00
 -16.476  0.275E+00  0.275E+00
 -16.466  0.271E+00  0.271E+00
 -16.456  0.268E+00  0.268E+00
 -16.446  0.265E+00  0.265E+00
 -16.436  0.262E+00  0.262E+00
 -16.426  0.258E+00  0.258E+00
 -16.416  0.255E+00  0.255E+00
 -16.406  0.252E+00  0.252E+00
 -16.396  0.249E+00  0.249E+00
 -16.386  0.246E+00  0.246E+00
 -16.376  0.243E+00  0.243E+00
 -16.366  0.239E+00  0.239E+00
 -16.356  0.236E+00  0.236E+00
 -16.346  0.233E+00  0.233E+00
 -16.336  0.230E+00  0.230E+00
 -16.326  0.227E+00  0.227E+00
 -16.316  0.224E+00  0.224E+00
 -16.306  0.221E+00  0.221E+00
 -16.296  0.218E+00  0.218E+00
 -16.286  0.215E+00  0.215E+00
 -16.276  0.212E+00  0.212E+00
 -16.266  0.209E+00  0.209E+00
 -16.256  0.207E+00  0.207E+00
 -16.246  0.204E+00  0.204E+00
 -16.236  0.201E+00  0.201E+00
 -16.226  0.198E+00  0.198E+00
 -16.216  0.196E+00  0.196E+00
 -16.206  0.193E+00  0.193E+00
 -16.196  0.190E+00  0.190E+00
 -16.186  0.188E+00  0.188E+00
 -16.176  0.185E+00  0.185E+00
 -16.166  0.182E+00  0.182E+00
 -16.156  0.180E+00  0.180E+00
 -16.146  0.177E+00  0.177E+00
 -16.136  0.175E+00  0.175E+00
 -16.126  0.172E+00  0.172E+00
 -16.116  0.170E+00  0.170E+00
 -16.106  0.167E+00  0.167E+00
 -16.096  0.164E+00  0.164E+00
 -16.086  0.162E+00  0.162E+00
 -16.076  0.159E+00  0.159E+00
 -16.066  0.157E+00  0.157E+00
 -16.056  0.155E+00  0.155E+00
 -16.046  0.152E+00  0.152E+00
 -16.036  0.150E+00  0.150E+00
 -16.026  0.147E+00  0.147E+00
 -16.016  0.145E+00  0.145E+00
 -16.006  0.142E+00  0.142E+00
 -15.996  0.140E+00  0.140E+00
 -15.986  0.137E+00  0.137E+00
 -15.976  0.135E+00  0.135E+00
 -15.966  0.132E+00  0.132E+00
 -15.956  0.130E+00  0.130E+00
 -15.946  0.127E+00  0.127E+00
 -15.936  0.125E+00  0.125E+00
 -15.926  0.122E+00  0.122E+00
 -15.916  0.120E+00  0.120E+00
 -15.906  0.117E+00  0.117E+00
 -15.896  0.115E+00  0.115E+00
 -15.886  0.112E+00  0.112E+00
 -15.876  0.110E+00  0.110E+00
 -15.866  0.107E+00  0.107E+00
 -15.856  0.105E+00  0.105E+00
 -15.846  0.102E+00  0.102E+00
 -15.836  0.995E-01  0.995E-01
 -15.826  0.970E-01  0.970E-01
 -15.816  0.945E-01  0.945E-01
 -15.806  0.919E-01  0.919E-01
 -15.796  0.894E-01  0.894E-01
 -15.786  0.869E-01  0.869E-01
 -15.776  0.844E-01  0.844E-01
 -15.766  0.819E-01  0.819E-01
 -15.756  0.794E-01  0.794E-01
 -15.746  0.769E-01  0.769E-01
 -15.736  0.744E-01  0.744E-01
 -15.726  0.719E-01  0.719E-01
 -15.716  0.695E-01  0.695E-01
 -15.706  0.670E-01  0.670E-01
 -15.696  0.646E-01  0.646E-01
 -15.686  0.622E-01  0.622E-01
 -15.676  0.598E-01  0.598E-01
 -15.666  0.575E-01  0.575E-01
 -15.656  0.551E-01  0.551E-01
 -15.646  0.528E-01  0.528E-01
 -15.636  0.505E-01  0.505E-01
 -15.626  0.483E-01  0.483E-01
 -15.616  0.461E-01  0.461E-01
 -15.606  0.439E-01  0.439E-01
 -15.596  0.417E-01  0.417E-01
 -15.586  0.396E-01  0.396E-01
 -15.576  0.375E-01  0.375E-01
 -15.566  0.354E-01  0.354E-01
 -15.556  0.334E-01  0.334E-01
 -15.546  0.314E-01  0.314E-01
 -15.536  0.295E-01  0.295E-01
 -15.526  0.276E-01  0.276E-01
 -15.516  0.258E-01  0.258E-01
 -15.506  0.239E-01  0.239E-01
 -15.496  0.222E-01  0.222E-01
 -15.486  0.204E-01  0.204E-01
 -15.476  0.188E-01  0.188E-01
 -15.466  0.171E-01  0.171E-01
 -15.456  0.155E-01  0.155E-01
 -15.446  0.140E-01  0.140E-01
 -15.436  0.125E-01  0.125E-01
 -15.426  0.110E-01  0.110E-01
 -15.416  0.962E-02  0.962E-02
 -15.406  0.825E-02  0.825E-02
 -15.396  0.694E-02  0.694E-02
 -15.386  0.567E-02  0.567E-02
 -15.376  0.444E-02  0.444E-02
 -15.366  0.326E-02  0.326E-02
 -15.356  0.212E-02  0.212E-02
 -15.346  0.103E-02  0.103E-02
 -15.336 -0.215E-04 -0.215E-04
 -15.326 -0.103E-02 -0.103E-02
 -15.316 -0.199E-02 -0.199E-02
 -15.306 -0.291E-02 -0.291E-02
 -15.296 -0.380E-02 -0.380E-02
 -15.286 -0.464E-02 -0.464E-02
 -15.276 -0.544E-02 -0.544E-02
 -15.266 -0.620E-02 -0.620E-02
 -15.256 -0.693E-02 -0.693E-02
 -15.246 -0.762E-02 -0.762E-02
 -15.236 -0.828E-02 -0.828E-02
 -15.226 -0.890E-02 -0.890E-02
 -15.216 -0.948E-02 -0.948E-02
 -15.206 -0.100E-01 -0.100E-01
 -15.196 -0.106E-01 -0.106E-01
 -15.186 -0.111E-01 -0.111E-01
 -15.176 -0.115E-01 -0.115E-01
 -15.166 -0.120E-01 -0.120E-01
 -15.156 -0.124E-01 -0.124E-01
 -15.146 -0.128E-01 -0.128E-01
 -15.136 -0.131E-01 -0.131E-01
 -15.126 -0.134E-01 -0.134E-01
 -15.116 -0.138E-01 -0.138E-01
 -15.106 -0.141E-01 -0.141E-01
 -15.096 -0.143E-01 -0.143E-01
 -15.086 -0.146E-01 -0.146E-01
 -15.076 -0.148E-01 -0.148E-01
 -15.066 -0.150E-01 -0.150E-01
 -15.056 -0.152E-01 -0.152E-01
 -15.046 -0.154E-01 -0.154E-01
 -15.036 -0.156E-01 -0.156E-01
 -15.026 -0.157E-01 -0.157E-01
 -15.016 -0.158E-01 -0.158E-01
 -15.006 -0.160E-01 -0.160E-01
 -14.996 -0.161E-01 -0.161E-01
 -14.986 -0.162E-01 -0.162E-01
 -14.976 -0.163E-01 -0.163E-01
 -14.966 -0.163E-01 -0.163E-01
 -14.956 -0.164E-01 -0.164E-01
 -14.946 -0.164E-01 -0.164E-01
 -14.936 -0.165E-01 -0.165E-01
 -14.926 -0.165E-01 -0.165E-01
 -14.916 -0.165E-01 -0.165E-01
 -14.906 -0.165E-01 -0.165E-01
 -14.896 -0.165E-01 -0.165E-01
 -14.886 -0.165E-01 -0.165E-01
 -14.876 -0.165E-01 -0.165E-01
 -14.866 -0.164E-01 -0.164E-01
 -14.856 -0.164E-01 -0.164E-01
 -14.846 -0.163E-01 -0.163E-01
 -14.836 -0.162E-01 -0.162E-01
 -14.826 -0.161E-01 -0.161E-01
 -14.816 -0.160E-01 -0.160E-01
 -14.806 -0.159E-01 -0.159E-01
 -14.796 -0.158E-01 -0.158E-01
 -14.786 -0.156E-01 -0.156E-01
 -14.776 -0.155E-01 -0.155E-01
 -14.766 -0.153E-01 -0.153E-01
 -14.756 -0.151E-01 -0.151E-01
 -14.746 -0.149E-01 -0.149E-01
 -14.736 -0.146E-01 -0.146E-01
 -14.726 -0.143E-01 -0.143E-01
 -14.716 -0.140E-01 -0.140E-01
 -14.706 -0.137E-01 -0.137E-01
 -14.696 -0.134E-01 -0.134E-01
 -14.686 -0.130E-01 -0.130E-01
 -14.676 -0.126E-01 -0.126E-01
 -14.666 -0.122E-01 -0.122E-01
 -14.656 -0.118E-01 -0.118E-01
 -14.646 -0.113E-01 -0.113E-01
 -14.636 -0.107E-01 -0.107E-01
 -14.626 -0.102E-01 -0.102E-01
 -14.616 -0.960E-02 -0.960E-02
 -14.606 -0.897E-02 -0.897E-02
 -14.596 -0.830E-02 -0.830E-02
 -14.586 -0.760E-02 -0.760E-02
 -14.576 -0.685E-02 -0.685E-02
 -14.566 -0.606E-02 -0.606E-02
 -14.556 -0.522E-02 -0.522E-02
 -14.546 -0.434E-02 -0.434E-02
 -14.536 -0.341E-02 -0.341E-02
 -14.526 -0.243E-02 -0.243E-02
 -14.516 -0.140E-02 -0.140E-02
 -14.506 -0.325E-03 -0.325E-03
 -14.496  0.806E-03  0.806E-03
 -14.486  0.199E-02  0.199E-02
 -14.476  0.323E-02  0.323E-02
 -14.466  0.452E-02  0.452E-02
 -14.456  0.588E-02  0.588E-02
 -14.446  0.728E-02  0.728E-02
 -14.436  0.875E-02  0.875E-02
 -14.426  0.103E-01  0.103E-01
 -14.416  0.119E-01  0.119E-01
 -14.406  0.135E-01  0.135E-01
 -14.396  0.152E-01  0.152E-01
 -14.386  0.170E-01  0.170E-01
 -14.376  0.188E-01  0.188E-01
 -14.366  0.207E-01  0.207E-01
 -14.356  0.227E-01  0.227E-01
 -14.346  0.247E-01  0.247E-01
 -14.336  0.268E-01  0.268E-01
 -14.326  0.290E-01  0.290E-01
 -14.316  0.312E-01  0.312E-01
 -14.306  0.335E-01  0.335E-01
 -14.296  0.358E-01  0.358E-01
 -14.286  0.382E-01  0.382E-01
 -14.276  0.407E-01  0.407E-01
 -14.266  0.432E-01  0.432E-01
 -14.256  0.458E-01  0.458E-01
 -14.246  0.485E-01  0.485E-01
 -14.236  0.512E-01  0.512E-01
 -14.226  0.539E-01  0.539E-01
 -14.216  0.568E-01  0.568E-01
 -14.206  0.596E-01  0.596E-01
 -14.196  0.626E-01  0.626E-01
 -14.186  0.656E-01  0.656E-01
 -14.176  0.686E-01  0.686E-01
 -14.166  0.717E-01  0.717E-01
 -14.156  0.748E-01  0.748E-01
 -14.146  0.780E-01  0.780E-01
 -14.136  0.813E-01  0.813E-01
 -14.126  0.845E-01  0.845E-01
 -14.116  0.878E-01  0.878E-01
 -14.106  0.912E-01  0.912E-01
 -14.096  0.946E-01  0.946E-01
 -14.086  0.980E-01  0.980E-01
 -14.076  0.101E+00  0.101E+00
 -14.066  0.105E+00  0.105E+00
 -14.056  0.108E+00  0.108E+00
 -14.046  0.112E+00  0.112E+00
 -14.036  0.115E+00  0.115E+00
 -14.026  0.119E+00  0.119E+00
 -14.016  0.123E+00  0.123E+00
 -14.006  0.126E+00  0.126E+00
 -13.996  0.130E+00  0.130E+00
 -13.986  0.133E+00  0.133E+00
 -13.976  0.137E+00  0.137E+00
 -13.966  0.140E+00  0.140E+00
 -13.956  0.144E+00  0.144E+00
 -13.946  0.148E+00  0.148E+00
 -13.936  0.151E+00  0.151E+00
 -13.926  0.155E+00  0.155E+00
 -13.916  0.158E+00  0.158E+00
 -13.906  0.162E+00  0.162E+00
 -13.896  0.165E+00  0.165E+00
 -13.886  0.168E+00  0.168E+00
 -13.876  0.172E+00  0.172E+00
 -13.866  0.175E+00  0.175E+00
 -13.856  0.178E+00  0.178E+00
 -13.846  0.182E+00  0.182E+00
 -13.836  0.185E+00  0.185E+00
 -13.826  0.188E+00  0.188E+00
 -13.816  0.191E+00  0.191E+00
 -13.806  0.194E+00  0.194E+00
 -13.796  0.197E+00  0.197E+00
 -13.786  0.200E+00  0.200E+00
 -13.776  0.203E+00  0.203E+00
 -13.766  0.206E+00  0.206E+00
 -13.756  0.208E+00  0.208E+00
 -13.746  0.211E+00  0.211E+00
 -13.736  0.214E+00  0.214E+00
 -13.726  0.216E+00  0.216E+00
 -13.716  0.218E+00  0.218E+00
 -13.706  0.221E+00  0.221E+00
 -13.696  0.223E+00  0.223E+00
 -13.686  0.225E+00  0.225E+00
 -13.676  0.227E+00  0.227E+00
 -13.666  0.229E+00  0.229E+00
 -13.656  0.231E+00  0.231E+00
 -13.646  0.232E+00  0.232E+00
 -13.636  0.234E+00  0.234E+00
 -13.626  0.235E+00  0.235E+00
 -13.616  0.237E+00  0.237E+00
 -13.606  0.238E+00  0.238E+00
 -13.596  0.239E+00  0.239E+00
 -13.586  0.240E+00  0.240E+00
 -13.576  0.241E+00  0.241E+00
 -13.566  0.242E+00  0.242E+00
 -13.556  0.243E+00  0.243E+00
 -13.546  0.244E+00  0.244E+00
 -13.536  0.244E+00  0.244E+00
 -13.526  0.244E+00  0.244E+00
 -13.516  0.245E+00  0.245E+00
 -13.506  0.245E+00  0.245E+00
 -13.496  0.245E+00  0.245E+00
 -13.486  0.245E+00  0.245E+00
 -13.476  0.245E+00  0.245E+00
 -13.466  0.244E+00  0.244E+00
 -13.456  0.244E+00  0.244E+00
 -13.446  0.244E+00  0.244E+00
 -13.436  0.243E+00  0.243E+00
 -13.426  0.242E+00  0.242E+00
 -13.416  0.241E+00  0.241E+00
 -13.406  0.241E+00  0.241E+00
 -13.396  0.240E+00  0.240E+00
 -13.386  0.238E+00  0.238E+00
 -13.376  0.237E+00  0.237E+00
 -13.366  0.236E+00  0.236E+00
 -13.356  0.234E+00  0.234E+00
 -13.346  0.233E+00  0.233E+00
 -13.336  0.231E+00  0.231E+00
 -13.326  0.230E+00  0.230E+00
 -13.316  0.228E+00  0.228E+00
 -13.306  0.226E+00  0.226E+00
 -13.296  0.224E+00  0.224E+00
 -13.286  0.222E+00  0.222E+00
 -13.276  0.220E+00  0.220E+00
 -13.266  0.218E+00  0.218E+00
 -13.256  0.215E+00  0.215E+00
 -13.246  0.213E+00  0.213E+00
 -13.236  0.211E+00  0.211E+00
 -13.226  0.208E+00  0.208E+00
 -13.216  0.206E+00  0.206E+00
 -13.206  0.203E+00  0.203E+00
 -13.196  0.200E+00  0.200E+00
 -13.186  0.198E+00  0.198E+00
 -13.176  0.195E+00  0.195E+00
 -13.166  0.192E+00  0.192E+00
 -13.156  0.189E+00  0.189E+00
 -13.146  0.186E+00  0.186E+00
 -13.136  0.183E+00  0.183E+00
 -13.126  0.180E+00  0.180E+00
 -13.116  0.177E+00  0.177E+00
 -13.106  0.174E+00  0.174E+00
 -13.096  0.171E+00  0.171E+00
 -13.086  0.168E+00  0.168E+00
 -13.076  0.165E+00  0.165E+00
 -13.066  0.162E+00  0.162E+00
 -13.056  0.159E+00  0.159E+00
 -13.046  0.155E+00  0.155E+00
 -13.036  0.152E+00  0.152E+00
 -13.026  0.149E+00  0.149E+00
 -13.016  0.146E+00  0.146E+00
 -13.006  0.143E+00  0.143E+00
 -12.996  0.140E+00  0.140E+00
 -12.986  0.136E+00  0.136E+00
 -12.976  0.133E+00  0.133E+00
 -12.966  0.130E+00  0.130E+00
 -12.956  0.127E+00  0.127E+00
 -12.946  0.124E+00  0.124E+00
 -12.936  0.120E+00  0.120E+00
 -12.926  0.117E+00  0.117E+00
 -12.916  0.114E+00  0.114E+00
 -12.906  0.111E+00  0.111E+00
 -12.896  0.108E+00  0.108E+00
 -12.886  0.105E+00  0.105E+00
 -12.876  0.102E+00  0.102E+00
 -12.866  0.990E-01  0.990E-01
 -12.856  0.960E-01  0.960E-01
 -12.846  0.930E-01  0.930E-01
 -12.836  0.901E-01  0.901E-01
 -12.826  0.873E-01  0.873E-01
 -12.816  0.844E-01  0.844E-01
 -12.806  0.816E-01  0.816E-01
 -12.796  0.789E-01  0.789E-01
 -12.786  0.761E-01  0.761E-01
 -12.776  0.734E-01  0.734E-01
 -12.766  0.708E-01  0.708E-01
 -12.756  0.682E-01  0.682E-01
 -12.746  0.656E-01  0.656E-01
 -12.736  0.631E-01  0.631E-01
 -12.726  0.607E-01  0.607E-01
 -12.716  0.582E-01  0.582E-01
 -12.706  0.559E-01  0.559E-01
 -12.696  0.535E-01  0.535E-01
 -12.686  0.512E-01  0.512E-01
 -12.676  0.490E-01  0.490E-01
 -12.666  0.468E-01  0.468E-01
 -12.656  0.447E-01  0.447E-01
 -12.646  0.426E-01  0.426E-01
 -12.636  0.405E-01  0.405E-01
 -12.626  0.386E-01  0.386E-01
 -12.616  0.366E-01  0.366E-01
 -12.606  0.347E-01  0.347E-01
 -12.596  0.329E-01  0.329E-01
 -12.586  0.311E-01  0.311E-01
 -12.576  0.293E-01  0.293E-01
 -12.566  0.276E-01  0.276E-01
 -12.556  0.260E-01  0.260E-01
 -12.546  0.244E-01  0.244E-01
 -12.536  0.228E-01  0.228E-01
 -12.526  0.213E-01  0.213E-01
 -12.516  0.199E-01  0.199E-01
 -12.506  0.184E-01  0.184E-01
 -12.496  0.171E-01  0.171E-01
 -12.486  0.158E-01  0.158E-01
 -12.476  0.145E-01  0.145E-01
 -12.466  0.133E-01  0.133E-01
 -12.456  0.121E-01  0.121E-01
 -12.446  0.109E-01  0.109E-01
 -12.436  0.984E-02  0.984E-02
 -12.426  0.879E-02  0.879E-02
 -12.416  0.777E-02  0.777E-02
 -12.406  0.680E-02  0.680E-02
 -12.396  0.587E-02  0.587E-02
 -12.386  0.498E-02  0.498E-02
 -12.376  0.413E-02  0.413E-02
 -12.366  0.331E-02  0.331E-02
 -12.356  0.253E-02  0.253E-02
 -12.346  0.179E-02  0.179E-02
 -12.336  0.108E-02  0.108E-02
 -12.326  0.413E-03  0.413E-03
 -12.316 -0.225E-03 -0.225E-03
 -12.306 -0.831E-03 -0.831E-03
 -12.296 -0.140E-02 -0.140E-02
 -12.286 -0.195E-02 -0.195E-02
 -12.276 -0.246E-02 -0.246E-02
 -12.266 -0.294E-02 -0.294E-02
 -12.256 -0.340E-02 -0.340E-02
 -12.246 -0.383E-02 -0.383E-02
 -12.236 -0.423E-02 -0.423E-02
 -12.226 -0.461E-02 -0.461E-02
 -12.216 -0.496E-02 -0.496E-02
 -12.206 -0.529E-02 -0.529E-02
 -12.196 -0.560E-02 -0.560E-02
 -12.186 -0.588E-02 -0.588E-02
 -12.176 -0.615E-02 -0.615E-02
 -12.166 -0.639E-02 -0.639E-02
 -12.156 -0.662E-02 -0.662E-02
 -12.146 -0.682E-02 -0.682E-02
 -12.136 -0.702E-02 -0.702E-02
 -12.126 -0.719E-02 -0.719E-02
 -12.116 -0.735E-02 -0.735E-02
 -12.106 -0.750E-02 -0.750E-02
 -12.096 -0.763E-02 -0.763E-02
 -12.086 -0.775E-02 -0.775E-02
 -12.076 -0.785E-02 -0.785E-02
 -12.066 -0.795E-02 -0.795E-02
 -12.056 -0.804E-02 -0.804E-02
 -12.046 -0.811E-02 -0.811E-02
 -12.036 -0.818E-02 -0.818E-02
 -12.026 -0.824E-02 -0.824E-02
 -12.016 -0.829E-02 -0.829E-02
 -12.006 -0.834E-02 -0.834E-02
 -11.996 -0.838E-02 -0.838E-02
 -11.986 -0.842E-02 -0.842E-02
 -11.976 -0.845E-02 -0.845E-02
 -11.966 -0.847E-02 -0.847E-02
 -11.956 -0.850E-02 -0.850E-02
 -11.946 -0.852E-02 -0.852E-02
 -11.936 -0.854E-02 -0.854E-02
 -11.926 -0.855E-02 -0.855E-02
 -11.916 -0.857E-02 -0.857E-02
 -11.906 -0.858E-02 -0.858E-02
 -11.896 -0.859E-02 -0.859E-02
 -11.886 -0.861E-02 -0.861E-02
 -11.876 -0.862E-02 -0.862E-02
 -11.866 -0.864E-02 -0.864E-02
 -11.856 -0.865E-02 -0.865E-02
 -11.846 -0.867E-02 -0.867E-02
 -11.836 -0.869E-02 -0.869E-02
 -11.826 -0.871E-02 -0.871E-02
 -11.816 -0.873E-02 -0.873E-02
 -11.806 -0.875E-02 -0.875E-02
 -11.796 -0.878E-02 -0.878E-02
 -11.786 -0.881E-02 -0.881E-02
 -11.776 -0.884E-02 -0.884E-02
 -11.766 -0.887E-02 -0.887E-02
 -11.756 -0.890E-02 -0.890E-02
 -11.746 -0.894E-02 -0.894E-02
 -11.736 -0.898E-02 -0.898E-02
 -11.726 -0.901E-02 -0.901E-02
 -11.716 -0.906E-02 -0.906E-02
 -11.706 -0.910E-02 -0.910E-02
 -11.696 -0.914E-02 -0.914E-02
 -11.686 -0.918E-02 -0.918E-02
 -11.676 -0.923E-02 -0.923E-02
 -11.666 -0.927E-02 -0.927E-02
 -11.656 -0.931E-02 -0.931E-02
 -11.646 -0.935E-02 -0.935E-02
 -11.636 -0.939E-02 -0.939E-02
 -11.626 -0.943E-02 -0.943E-02
 -11.616 -0.946E-02 -0.946E-02
 -11.606 -0.949E-02 -0.949E-02
 -11.596 -0.952E-02 -0.952E-02
 -11.586 -0.954E-02 -0.954E-02
 -11.576 -0.955E-02 -0.955E-02
 -11.566 -0.956E-02 -0.956E-02
 -11.556 -0.956E-02 -0.956E-02
 -11.546 -0.955E-02 -0.955E-02
 -11.536 -0.953E-02 -0.953E-02
 -11.526 -0.950E-02 -0.950E-02
 -11.516 -0.946E-02 -0.946E-02
 -11.506 -0.941E-02 -0.941E-02
 -11.496 -0.934E-02 -0.934E-02
 -11.486 -0.926E-02 -0.926E-02
 -11.476 -0.916E-02 -0.916E-02
 -11.466 -0.904E-02 -0.904E-02
 -11.456 -0.891E-02 -0.891E-02
 -11.446 -0.875E-02 -0.875E-02
 -11.436 -0.858E-02 -0.858E-02
 -11.426 -0.838E-02 -0.838E-02
 -11.416 -0.816E-02 -0.816E-02
 -11.406 -0.792E-02 -0.792E-02
 -11.396 -0.764E-02 -0.764E-02
 -11.386 -0.735E-02 -0.735E-02
 -11.376 -0.702E-02 -0.702E-02
 -11.366 -0.666E-02 -0.666E-02
 -11.356 -0.627E-02 -0.627E-02
 -11.346 -0.585E-02 -0.585E-02
 -11.336 -0.539E-02 -0.539E-02
 -11.326 -0.490E-02 -0.490E-02
 -11.316 -0.437E-02 -0.437E-02
 -11.306 -0.380E-02 -0.380E-02
 -11.296 -0.320E-02 -0.320E-02
 -11.286 -0.255E-02 -0.255E-02
 -11.276 -0.186E-02 -0.186E-02
 -11.266 -0.113E-02 -0.113E-02
 -11.256 -0.356E-03 -0.356E-03
 -11.246  0.465E-03  0.465E-03
 -11.236  0.133E-02  0.133E-02
 -11.226  0.224E-02  0.224E-02
 -11.216  0.321E-02  0.321E-02
 -11.206  0.422E-02  0.422E-02
 -11.196  0.528E-02  0.528E-02
 -11.186  0.639E-02  0.639E-02
 -11.176  0.755E-02  0.755E-02
 -11.166  0.876E-02  0.876E-02
 -11.156  0.100E-01  0.100E-01
 -11.146  0.113E-01  0.113E-01
 -11.136  0.127E-01  0.127E-01
 -11.126  0.141E-01  0.141E-01
 -11.116  0.156E-01  0.156E-01
 -11.106  0.171E-01  0.171E-01
 -11.096  0.187E-01  0.187E-01
 -11.086  0.204E-01  0.204E-01
 -11.076  0.221E-01  0.221E-01
 -11.066  0.238E-01  0.238E-01
 -11.056  0.256E-01  0.256E-01
 -11.046  0.274E-01  0.274E-01
 -11.036  0.293E-01  0.293E-01
 -11.026  0.313E-01  0.313E-01
 -11.016  0.332E-01  0.332E-01
 -11.006  0.353E-01  0.353E-01
 -10.996  0.374E-01  0.374E-01
 -10.986  0.395E-01  0.395E-01
 -10.976  0.417E-01  0.417E-01
 -10.966  0.439E-01  0.439E-01
 -10.956  0.461E-01  0.461E-01
 -10.946  0.484E-01  0.484E-01
 -10.936  0.507E-01  0.507E-01
 -10.926  0.531E-01  0.531E-01
 -10.916  0.555E-01  0.555E-01
 -10.906  0.579E-01  0.579E-01
 -10.896  0.603E-01  0.603E-01
 -10.886  0.628E-01  0.628E-01
 -10.876  0.653E-01  0.653E-01
 -10.866  0.678E-01  0.678E-01
 -10.856  0.703E-01  0.703E-01
 -10.846  0.728E-01  0.728E-01
 -10.836  0.753E-01  0.753E-01
 -10.826  0.779E-01  0.779E-01
 -10.816  0.804E-01  0.804E-01
 -10.806  0.829E-01  0.829E-01
 -10.796  0.855E-01  0.855E-01
 -10.786  0.880E-01  0.880E-01
 -10.776  0.905E-01  0.905E-01
 -10.766  0.930E-01  0.930E-01
 -10.756  0.955E-01  0.955E-01
 -10.746  0.979E-01  0.979E-01
 -10.736  0.100E+00  0.100E+00
 -10.726  0.103E+00  0.103E+00
 -10.716  0.105E+00  0.105E+00
 -10.706  0.107E+00  0.107E+00
 -10.696  0.110E+00  0.110E+00
 -10.686  0.112E+00  0.112E+00
 -10.676  0.114E+00  0.114E+00
 -10.666  0.116E+00  0.116E+00
 -10.656  0.118E+00  0.118E+00
 -10.646  0.120E+00  0.120E+00
 -10.636  0.122E+00  0.122E+00
 -10.626  0.124E+00  0.124E+00
 -10.616  0.126E+00  0.126E+00
 -10.606  0.128E+00  0.128E+00
 -10.596  0.130E+00  0.130E+00
 -10.586  0.131E+00  0.131E+00
 -10.576  0.133E+00  0.133E+00
 -10.566  0.134E+00  0.134E+00
 -10.556  0.136E+00  0.136E+00
 -10.546  0.137E+00  0.137E+00
 -10.536  0.138E+00  0.138E+00
 -10.526  0.139E+00  0.139E+00
 -10.516  0.140E+00  0.140E+00
 -10.506  0.141E+00  0.141E+00
 -10.496  0.142E+00  0.142E+00
 -10.486  0.142E+00  0.142E+00
 -10.476  0.143E+00  0.143E+00
 -10.466  0.144E+00  0.144E+00
 -10.456  0.144E+00  0.144E+00
 -10.446  0.144E+00  0.144E+00
 -10.436  0.144E+00  0.144E+00
 -10.426  0.145E+00  0.145E+00
 -10.416  0.145E+00  0.145E+00
 -10.406  0.144E+00  0.144E+00
 -10.396  0.144E+00  0.144E+00
 -10.386  0.144E+00  0.144E+00
 -10.376  0.143E+00  0.143E+00
 -10.366  0.143E+00  0.143E+00
 -10.356  0.142E+00  0.142E+00
 -10.346  0.142E+00  0.142E+00
 -10.336  0.141E+00  0.141E+00
 -10.326  0.140E+00  0.140E+00
 -10.316  0.139E+00  0.139E+00
 -10.306  0.138E+00  0.138E+00
 -10.296  0.136E+00  0.136E+00
 -10.286  0.135E+00  0.135E+00
 -10.276  0.134E+00  0.134E+00
 -10.266  0.132E+00  0.132E+00
 -10.256  0.131E+00  0.131E+00
 -10.246  0.129E+00  0.129E+00
 -10.236  0.127E+00  0.127E+00
 -10.226  0.126E+00  0.126E+00
 -10.216  0.124E+00  0.124E+00
 -10.206  0.122E+00  0.122E+00
 -10.196  0.120E+00  0.120E+00
 -10.186  0.118E+00  0.118E+00
 -10.176  0.116E+00  0.116E+00
 -10.166  0.114E+00  0.114E+00
 -10.156  0.111E+00  0.111E+00
 -10.146  0.109E+00  0.109E+00
 -10.136  0.107E+00  0.107E+00
 -10.126  0.105E+00  0.105E+00
 -10.116  0.102E+00  0.102E+00
 -10.106  0.998E-01  0.998E-01
 -10.096  0.973E-01  0.973E-01
 -10.086  0.949E-01  0.949E-01
 -10.076  0.924E-01  0.924E-01
 -10.066  0.899E-01  0.899E-01
 -10.056  0.874E-01  0.874E-01
 -10.046  0.849E-01  0.849E-01
 -10.036  0.824E-01  0.824E-01
 -10.026  0.799E-01  0.799E-01
 -10.016  0.774E-01  0.774E-01
 -10.006  0.748E-01  0.748E-01
  -9.996  0.723E-01  0.723E-01
  -9.986  0.698E-01  0.698E-01
  -9.976  0.673E-01  0.673E-01
  -9.966  0.649E-01  0.649E-01
  -9.956  0.624E-01  0.624E-01
  -9.946  0.600E-01  0.600E-01
  -9.936  0.576E-01  0.576E-01
  -9.926  0.552E-01  0.552E-01
  -9.916  0.529E-01  0.529E-01
  -9.906  0.506E-01  0.506E-01
  -9.896  0.483E-01  0.483E-01
  -9.886  0.461E-01  0.461E-01
  -9.876  0.439E-01  0.439E-01
  -9.866  0.417E-01  0.417E-01
  -9.856  0.396E-01  0.396E-01
  -9.846  0.375E-01  0.375E-01
  -9.836  0.355E-01  0.355E-01
  -9.826  0.335E-01  0.335E-01
  -9.816  0.316E-01  0.316E-01
  -9.806  0.297E-01  0.297E-01
  -9.796  0.279E-01  0.279E-01
  -9.786  0.261E-01  0.261E-01
  -9.776  0.244E-01  0.244E-01
  -9.766  0.227E-01  0.227E-01
  -9.756  0.211E-01  0.211E-01
  -9.746  0.195E-01  0.195E-01
  -9.736  0.180E-01  0.180E-01
  -9.726  0.165E-01  0.165E-01
  -9.716  0.151E-01  0.151E-01
  -9.706  0.138E-01  0.138E-01
  -9.696  0.125E-01  0.125E-01
  -9.686  0.112E-01  0.112E-01
  -9.676  0.100E-01  0.100E-01
  -9.666  0.888E-02  0.888E-02
  -9.656  0.780E-02  0.780E-02
  -9.646  0.676E-02  0.676E-02
  -9.636  0.578E-02  0.578E-02
  -9.626  0.484E-02  0.484E-02
  -9.616  0.396E-02  0.396E-02
  -9.606  0.312E-02  0.312E-02
  -9.596  0.233E-02  0.233E-02
  -9.586  0.159E-02  0.159E-02
  -9.576  0.898E-03  0.898E-03
  -9.566  0.247E-03  0.247E-03
  -9.556 -0.360E-03 -0.360E-03
  -9.546 -0.925E-03 -0.925E-03
  -9.536 -0.145E-02 -0.145E-02
  -9.526 -0.193E-02 -0.193E-02
  -9.516 -0.238E-02 -0.238E-02
  -9.506 -0.279E-02 -0.279E-02
  -9.496 -0.316E-02 -0.316E-02
  -9.486 -0.349E-02 -0.349E-02
  -9.476 -0.380E-02 -0.380E-02
  -9.466 -0.407E-02 -0.407E-02
  -9.456 -0.431E-02 -0.431E-02
  -9.446 -0.452E-02 -0.452E-02
  -9.436 -0.470E-02 -0.470E-02
  -9.426 -0.485E-02 -0.485E-02
  -9.416 -0.498E-02 -0.498E-02
  -9.406 -0.508E-02 -0.508E-02
  -9.396 -0.516E-02 -0.516E-02
  -9.386 -0.521E-02 -0.521E-02
  -9.376 -0.525E-02 -0.525E-02
  -9.366 -0.526E-02 -0.526E-02
  -9.356 -0.525E-02 -0.525E-02
  -9.346 -0.523E-02 -0.523E-02
  -9.336 -0.519E-02 -0.519E-02
  -9.326 -0.513E-02 -0.513E-02
  -9.316 -0.505E-02 -0.505E-02
  -9.306 -0.496E-02 -0.496E-02
  -9.296 -0.486E-02 -0.486E-02
  -9.286 -0.475E-02 -0.475E-02
  -9.276 -0.462E-02 -0.462E-02
  -9.266 -0.448E-02 -0.448E-02
  -9.256 -0.433E-02 -0.433E-02
  -9.246 -0.417E-02 -0.417E-02
  -9.236 -0.400E-02 -0.400E-02
  -9.226 -0.383E-02 -0.383E-02
  -9.216 -0.364E-02 -0.364E-02
  -9.206 -0.345E-02 -0.345E-02
  -9.196 -0.324E-02 -0.324E-02
  -9.186 -0.304E-02 -0.304E-02
  -9.176 -0.282E-02 -0.282E-02
  -9.166 -0.260E-02 -0.260E-02
  -9.156 -0.238E-02 -0.238E-02
  -9.146 -0.214E-02 -0.214E-02
  -9.136 -0.191E-02 -0.191E-02
  -9.126 -0.167E-02 -0.167E-02
  -9.116 -0.142E-02 -0.142E-02
  -9.106 -0.117E-02 -0.117E-02
  -9.096 -0.914E-03 -0.914E-03
  -9.086 -0.654E-03 -0.654E-03
  -9.076 -0.391E-03 -0.391E-03
  -9.066 -0.123E-03 -0.123E-03
  -9.056  0.148E-03  0.148E-03
  -9.046  0.423E-03  0.423E-03
  -9.036  0.702E-03  0.702E-03
  -9.026  0.985E-03  0.985E-03
  -9.016  0.127E-02  0.127E-02
  -9.006  0.156E-02  0.156E-02
  -8.996  0.185E-02  0.185E-02
  -8.986  0.215E-02  0.215E-02
  -8.976  0.245E-02  0.245E-02
  -8.966  0.276E-02  0.276E-02
  -8.956  0.307E-02  0.307E-02
  -8.946  0.338E-02  0.338E-02
  -8.936  0.370E-02  0.370E-02
  -8.926  0.402E-02  0.402E-02
  -8.916  0.434E-02  0.434E-02
  -8.906  0.467E-02  0.467E-02
  -8.896  0.500E-02  0.500E-02
  -8.886  0.533E-02  0.533E-02
  -8.876  0.567E-02  0.567E-02
  -8.866  0.601E-02  0.601E-02
  -8.856  0.636E-02  0.636E-02
  -8.846  0.671E-02  0.671E-02
  -8.836  0.706E-02  0.706E-02
  -8.826  0.741E-02  0.741E-02
  -8.816  0.777E-02  0.777E-02
  -8.806  0.813E-02  0.813E-02
  -8.796  0.850E-02  0.850E-02
  -8.786  0.887E-02  0.887E-02
  -8.776  0.924E-02  0.924E-02
  -8.766  0.961E-02  0.961E-02
  -8.756  0.998E-02  0.998E-02
  -8.746  0.104E-01  0.104E-01
  -8.736  0.107E-01  0.107E-01
  -8.726  0.111E-01  0.111E-01
  -8.716  0.115E-01  0.115E-01
  -8.706  0.119E-01  0.119E-01
  -8.696  0.123E-01  0.123E-01
  -8.686  0.126E-01  0.126E-01
  -8.676  0.130E-01  0.130E-01
  -8.666  0.134E-01  0.134E-01
  -8.656  0.138E-01  0.138E-01
  -8.646  0.142E-01  0.142E-01
  -8.636  0.145E-01  0.145E-01
  -8.626  0.149E-01  0.149E-01
  -8.616  0.153E-01  0.153E-01
  -8.606  0.157E-01  0.157E-01
  -8.596  0.160E-01  0.160E-01
  -8.586  0.164E-01  0.164E-01
  -8.576  0.168E-01  0.168E-01
  -8.566  0.171E-01  0.171E-01
  -8.556  0.175E-01  0.175E-01
  -8.546  0.178E-01  0.178E-01
  -8.536  0.181E-01  0.181E-01
  -8.526  0.185E-01  0.185E-01
  -8.516  0.188E-01  0.188E-01
  -8.506  0.191E-01  0.191E-01
  -8.496  0.194E-01  0.194E-01
  -8.486  0.197E-01  0.197E-01
  -8.476  0.200E-01  0.200E-01
  -8.466  0.203E-01  0.203E-01
  -8.456  0.206E-01  0.206E-01
  -8.446  0.208E-01  0.208E-01
  -8.436  0.211E-01  0.211E-01
  -8.426  0.213E-01  0.213E-01
  -8.416  0.216E-01  0.216E-01
  -8.406  0.218E-01  0.218E-01
  -8.396  0.220E-01  0.220E-01
  -8.386  0.222E-01  0.222E-01
  -8.376  0.224E-01  0.224E-01
  -8.366  0.225E-01  0.225E-01
  -8.356  0.227E-01  0.227E-01
  -8.346  0.228E-01  0.228E-01
  -8.336  0.230E-01  0.230E-01
  -8.326  0.231E-01  0.231E-01
  -8.316  0.232E-01  0.232E-01
  -8.306  0.233E-01  0.233E-01
  -8.296  0.233E-01  0.233E-01
  -8.286  0.234E-01  0.234E-01
  -8.276  0.234E-01  0.234E-01
  -8.266  0.234E-01  0.234E-01
  -8.256  0.235E-01  0.235E-01
  -8.246  0.235E-01  0.235E-01
  -8.236  0.234E-01  0.234E-01
  -8.226  0.234E-01  0.234E-01
  -8.216  0.234E-01  0.234E-01
  -8.206  0.233E-01  0.233E-01
  -8.196  0.232E-01  0.232E-01
  -8.186  0.231E-01  0.231E-01
  -8.176  0.230E-01  0.230E-01
  -8.166  0.229E-01  0.229E-01
  -8.156  0.228E-01  0.228E-01
  -8.146  0.226E-01  0.226E-01
  -8.136  0.225E-01  0.225E-01
  -8.126  0.223E-01  0.223E-01
  -8.116  0.221E-01  0.221E-01
  -8.106  0.219E-01  0.219E-01
  -8.096  0.217E-01  0.217E-01
  -8.086  0.215E-01  0.215E-01
  -8.076  0.212E-01  0.212E-01
  -8.066  0.210E-01  0.210E-01
  -8.056  0.207E-01  0.207E-01
  -8.046  0.205E-01  0.205E-01
  -8.036  0.202E-01  0.202E-01
  -8.026  0.199E-01  0.199E-01
  -8.016  0.196E-01  0.196E-01
  -8.006  0.193E-01  0.193E-01
  -7.996  0.190E-01  0.190E-01
  -7.986  0.187E-01  0.187E-01
  -7.976  0.184E-01  0.184E-01
  -7.966  0.180E-01  0.180E-01
  -7.956  0.177E-01  0.177E-01
  -7.946  0.173E-01  0.173E-01
  -7.936  0.170E-01  0.170E-01
  -7.926  0.166E-01  0.166E-01
  -7.916  0.163E-01  0.163E-01
  -7.906  0.159E-01  0.159E-01
  -7.896  0.155E-01  0.155E-01
  -7.886  0.152E-01  0.152E-01
  -7.876  0.148E-01  0.148E-01
  -7.866  0.144E-01  0.144E-01
  -7.856  0.141E-01  0.141E-01
  -7.846  0.137E-01  0.137E-01
  -7.836  0.133E-01  0.133E-01
  -7.826  0.129E-01  0.129E-01
  -7.816  0.126E-01  0.126E-01
  -7.806  0.122E-01  0.122E-01
  -7.796  0.118E-01  0.118E-01
  -7.786  0.115E-01  0.115E-01
  -7.776  0.111E-01  0.111E-01
  -7.766  0.107E-01  0.107E-01
  -7.756  0.104E-01  0.104E-01
  -7.746  0.100E-01  0.100E-01
  -7.736  0.965E-02  0.965E-02
  -7.726  0.930E-02  0.930E-02
  -7.716  0.895E-02  0.895E-02
  -7.706  0.861E-02  0.861E-02
  -7.696  0.828E-02  0.828E-02
  -7.686  0.795E-02  0.795E-02
  -7.676  0.763E-02  0.763E-02
  -7.666  0.731E-02  0.731E-02
  -7.656  0.700E-02  0.700E-02
  -7.646  0.669E-02  0.669E-02
  -7.636  0.640E-02  0.640E-02
  -7.626  0.611E-02  0.611E-02
  -7.616  0.582E-02  0.582E-02
  -7.606  0.554E-02  0.554E-02
  -7.596  0.528E-02  0.528E-02
  -7.586  0.501E-02  0.501E-02
  -7.576  0.476E-02  0.476E-02
  -7.566  0.451E-02  0.451E-02
  -7.556  0.427E-02  0.427E-02
  -7.546  0.404E-02  0.404E-02
  -7.536  0.382E-02  0.382E-02
  -7.526  0.360E-02  0.360E-02
  -7.516  0.340E-02  0.340E-02
  -7.506  0.320E-02  0.320E-02
  -7.496  0.301E-02  0.301E-02
  -7.486  0.283E-02  0.283E-02
  -7.476  0.265E-02  0.265E-02
  -7.466  0.249E-02  0.249E-02
  -7.456  0.233E-02  0.233E-02
  -7.446  0.218E-02  0.218E-02
  -7.436  0.204E-02  0.204E-02
  -7.426  0.191E-02  0.191E-02
  -7.416  0.178E-02  0.178E-02
  -7.406  0.166E-02  0.166E-02
  -7.396  0.155E-02  0.155E-02
  -7.386  0.145E-02  0.145E-02
  -7.376  0.136E-02  0.136E-02
  -7.366  0.127E-02  0.127E-02
  -7.356  0.119E-02  0.119E-02
  -7.346  0.112E-02  0.112E-02
  -7.336  0.105E-02  0.105E-02
  -7.326  0.997E-03  0.997E-03
  -7.316  0.947E-03  0.947E-03
  -7.306  0.903E-03  0.903E-03
  -7.296  0.867E-03  0.867E-03
  -7.286  0.837E-03  0.837E-03
  -7.276  0.814E-03  0.814E-03
  -7.266  0.797E-03  0.797E-03
  -7.256  0.786E-03  0.786E-03
  -7.246  0.782E-03  0.782E-03
  -7.236  0.783E-03  0.783E-03
  -7.226  0.791E-03  0.791E-03
  -7.216  0.804E-03  0.804E-03
  -7.206  0.822E-03  0.822E-03
  -7.196  0.846E-03  0.846E-03
  -7.186  0.875E-03  0.875E-03
  -7.176  0.910E-03  0.910E-03
  -7.166  0.949E-03  0.949E-03
  -7.156  0.993E-03  0.993E-03
  -7.146  0.104E-02  0.104E-02
  -7.136  0.109E-02  0.109E-02
  -7.126  0.115E-02  0.115E-02
  -7.116  0.121E-02  0.121E-02
  -7.106  0.128E-02  0.128E-02
  -7.096  0.135E-02  0.135E-02
  -7.086  0.142E-02  0.142E-02
  -7.076  0.149E-02  0.149E-02
  -7.066  0.157E-02  0.157E-02
  -7.056  0.166E-02  0.166E-02
  -7.046  0.174E-02  0.174E-02
  -7.036  0.183E-02  0.183E-02
  -7.026  0.192E-02  0.192E-02
  -7.016  0.201E-02  0.201E-02
  -7.006  0.211E-02  0.211E-02
  -6.996  0.220E-02  0.220E-02
  -6.986  0.230E-02  0.230E-02
  -6.976  0.240E-02  0.240E-02
  -6.966  0.250E-02  0.250E-02
  -6.956  0.261E-02  0.261E-02
  -6.946  0.271E-02  0.271E-02
  -6.936  0.282E-02  0.282E-02
  -6.926  0.292E-02  0.292E-02
  -6.916  0.303E-02  0.303E-02
  -6.906  0.314E-02  0.314E-02
  -6.896  0.324E-02  0.324E-02
  -6.886  0.335E-02  0.335E-02
  -6.876  0.346E-02  0.346E-02
  -6.866  0.356E-02  0.356E-02
  -6.856  0.367E-02  0.367E-02
  -6.846  0.378E-02  0.378E-02
  -6.836  0.388E-02  0.388E-02
  -6.826  0.399E-02  0.399E-02
  -6.816  0.409E-02  0.409E-02
  -6.806  0.419E-02  0.419E-02
  -6.796  0.429E-02  0.429E-02
  -6.786  0.439E-02  0.439E-02
  -6.776  0.448E-02  0.448E-02
  -6.766  0.458E-02  0.458E-02
  -6.756  0.467E-02  0.467E-02
  -6.746  0.476E-02  0.476E-02
  -6.736  0.485E-02  0.485E-02
  -6.726  0.493E-02  0.493E-02
  -6.716  0.502E-02  0.502E-02
  -6.706  0.510E-02  0.510E-02
  -6.696  0.517E-02  0.517E-02
  -6.686  0.525E-02  0.525E-02
  -6.676  0.532E-02  0.532E-02
  -6.666  0.539E-02  0.539E-02
  -6.656  0.545E-02  0.545E-02
  -6.646  0.551E-02  0.551E-02
  -6.636  0.557E-02  0.557E-02
  -6.626  0.562E-02  0.562E-02
  -6.616  0.567E-02  0.567E-02
  -6.606  0.571E-02  0.571E-02
  -6.596  0.576E-02  0.576E-02
  -6.586  0.579E-02  0.579E-02
  -6.576  0.583E-02  0.583E-02
  -6.566  0.586E-02  0.586E-02
  -6.556  0.588E-02  0.588E-02
  -6.546  0.590E-02  0.590E-02
  -6.536  0.592E-02  0.592E-02
  -6.526  0.593E-02  0.593E-02
  -6.516  0.594E-02  0.594E-02
  -6.506  0.595E-02  0.595E-02
  -6.496  0.594E-02  0.594E-02
  -6.486  0.594E-02  0.594E-02
  -6.476  0.593E-02  0.593E-02
  -6.466  0.592E-02  0.592E-02
  -6.456  0.590E-02  0.590E-02
  -6.446  0.588E-02  0.588E-02
  -6.436  0.586E-02  0.586E-02
  -6.426  0.583E-02  0.583E-02
  -6.416  0.579E-02  0.579E-02
  -6.406  0.576E-02  0.576E-02
  -6.396  0.572E-02  0.572E-02
  -6.386  0.567E-02  0.567E-02
  -6.376  0.562E-02  0.562E-02
  -6.366  0.557E-02  0.557E-02
  -6.356  0.551E-02  0.551E-02
  -6.346  0.546E-02  0.546E-02
  -6.336  0.539E-02  0.539E-02
  -6.326  0.533E-02  0.533E-02
  -6.316  0.526E-02  0.526E-02
  -6.306  0.519E-02  0.519E-02
  -6.296  0.511E-02  0.511E-02
  -6.286  0.503E-02  0.503E-02
  -6.276  0.495E-02  0.495E-02
  -6.266  0.487E-02  0.487E-02
  -6.256  0.479E-02  0.479E-02
  -6.246  0.470E-02  0.470E-02
  -6.236  0.461E-02  0.461E-02
  -6.226  0.452E-02  0.452E-02
  -6.216  0.443E-02  0.443E-02
  -6.206  0.433E-02  0.433E-02
  -6.196  0.424E-02  0.424E-02
  -6.186  0.414E-02  0.414E-02
  -6.176  0.404E-02  0.404E-02
  -6.166  0.394E-02  0.394E-02
  -6.156  0.384E-02  0.384E-02
  -6.146  0.374E-02  0.374E-02
  -6.136  0.364E-02  0.364E-02
  -6.126  0.354E-02  0.354E-02
  -6.116  0.343E-02  0.343E-02
  -6.106  0.333E-02  0.333E-02
  -6.096  0.323E-02  0.323E-02
  -6.086  0.312E-02  0.312E-02
  -6.076  0.302E-02  0.302E-02
  -6.066  0.292E-02  0.292E-02
  -6.056  0.282E-02  0.282E-02
  -6.046  0.272E-02  0.272E-02
  -6.036  0.262E-02  0.262E-02
  -6.026  0.252E-02  0.252E-02
  -6.016  0.242E-02  0.242E-02
  -6.006  0.232E-02  0.232E-02
  -5.996  0.222E-02  0.222E-02
  -5.986  0.213E-02  0.213E-02
  -5.976  0.203E-02  0.203E-02
  -5.966  0.194E-02  0.194E-02
  -5.956  0.185E-02  0.185E-02
  -5.946  0.176E-02  0.176E-02
  -5.936  0.167E-02  0.167E-02
  -5.926  0.159E-02  0.159E-02
  -5.916  0.150E-02  0.150E-02
  -5.906  0.142E-02  0.142E-02
  -5.896  0.134E-02  0.134E-02
  -5.886  0.126E-02  0.126E-02
  -5.876  0.119E-02  0.119E-02
  -5.866  0.111E-02  0.111E-02
  -5.856  0.104E-02  0.104E-02
  -5.846  0.968E-03  0.968E-03
  -5.836  0.900E-03  0.900E-03
  -5.826  0.834E-03  0.834E-03
  -5.816  0.770E-03  0.770E-03
  -5.806  0.709E-03  0.709E-03
  -5.796  0.649E-03  0.649E-03
  -5.786  0.592E-03  0.592E-03
  -5.776  0.537E-03  0.537E-03
  -5.766  0.484E-03  0.484E-03
  -5.756  0.433E-03  0.433E-03
  -5.746  0.385E-03  0.385E-03
  -5.736  0.338E-03  0.338E-03
  -5.726  0.294E-03  0.294E-03
  -5.716  0.252E-03  0.252E-03
  -5.706  0.212E-03  0.212E-03
  -5.696  0.174E-03  0.174E-03
  -5.686  0.137E-03  0.137E-03
  -5.676  0.103E-03  0.103E-03
  -5.666  0.712E-04  0.712E-04
  -5.656  0.410E-04  0.410E-04
  -5.646  0.126E-04  0.126E-04
  -5.636 -0.140E-04 -0.140E-04
  -5.626 -0.388E-04 -0.388E-04
  -5.616 -0.618E-04 -0.618E-04
  -5.606 -0.832E-04 -0.832E-04
  -5.596 -0.103E-03 -0.103E-03
  -5.586 -0.121E-03 -0.121E-03
  -5.576 -0.138E-03 -0.138E-03
  -5.566 -0.153E-03 -0.153E-03
  -5.556 -0.167E-03 -0.167E-03
  -5.546 -0.179E-03 -0.179E-03
  -5.536 -0.190E-03 -0.190E-03
  -5.526 -0.200E-03 -0.200E-03
  -5.516 -0.208E-03 -0.208E-03
  -5.506 -0.216E-03 -0.216E-03
  -5.496 -0.222E-03 -0.222E-03
  -5.486 -0.227E-03 -0.227E-03
  -5.476 -0.232E-03 -0.232E-03
  -5.466 -0.235E-03 -0.235E-03
  -5.456 -0.237E-03 -0.237E-03
  -5.446 -0.239E-03 -0.239E-03
  -5.436 -0.239E-03 -0.239E-03
  -5.426 -0.239E-03 -0.239E-03
  -5.416 -0.239E-03 -0.239E-03
  -5.406 -0.237E-03 -0.237E-03
  -5.396 -0.235E-03 -0.235E-03
  -5.386 -0.232E-03 -0.232E-03
  -5.376 -0.229E-03 -0.229E-03
  -5.366 -0.226E-03 -0.226E-03
  -5.356 -0.221E-03 -0.221E-03
  -5.346 -0.217E-03 -0.217E-03
  -5.336 -0.212E-03 -0.212E-03
  -5.326 -0.207E-03 -0.207E-03
  -5.316 -0.201E-03 -0.201E-03
  -5.306 -0.195E-03 -0.195E-03
  -5.296 -0.189E-03 -0.189E-03
  -5.286 -0.183E-03 -0.183E-03
  -5.276 -0.176E-03 -0.176E-03
  -5.266 -0.169E-03 -0.169E-03
  -5.256 -0.163E-03 -0.163E-03
  -5.246 -0.156E-03 -0.156E-03
  -5.236 -0.149E-03 -0.149E-03
  -5.226 -0.141E-03 -0.141E-03
  -5.216 -0.134E-03 -0.134E-03
  -5.206 -0.127E-03 -0.127E-03
  -5.196 -0.120E-03 -0.120E-03
  -5.186 -0.113E-03 -0.113E-03
  -5.176 -0.105E-03 -0.105E-03
  -5.166 -0.981E-04 -0.981E-04
  -5.156 -0.910E-04 -0.910E-04
  -5.146 -0.839E-04 -0.839E-04
  -5.136 -0.768E-04 -0.768E-04
  -5.126 -0.699E-04 -0.699E-04
  -5.116 -0.630E-04 -0.630E-04
  -5.106 -0.562E-04 -0.562E-04
  -5.096 -0.495E-04 -0.495E-04
  -5.086 -0.428E-04 -0.428E-04
  -5.076 -0.363E-04 -0.363E-04
  -5.066 -0.300E-04 -0.300E-04
  -5.056 -0.237E-04 -0.237E-04
  -5.046 -0.175E-04 -0.175E-04
  -5.036 -0.115E-04 -0.115E-04
  -5.026 -0.557E-05 -0.557E-05
  -5.016  0.231E-06  0.231E-06
  -5.006  0.591E-05  0.591E-05
  -4.996  0.115E-04  0.115E-04
  -4.986  0.169E-04  0.169E-04
  -4.976  0.222E-04  0.222E-04
  -4.966  0.274E-04  0.274E-04
  -4.956  0.324E-04  0.324E-04
  -4.946  0.374E-04  0.374E-04
  -4.936  0.422E-04  0.422E-04
  -4.926  0.469E-04  0.469E-04
  -4.916  0.515E-04  0.515E-04
  -4.906  0.560E-04  0.560E-04
  -4.896  0.603E-04  0.603E-04
  -4.886  0.646E-04  0.646E-04
  -4.876  0.687E-04  0.687E-04
  -4.866  0.728E-04  0.728E-04
  -4.856  0.767E-04  0.767E-04
  -4.846  0.806E-04  0.806E-04
  -4.836  0.843E-04  0.843E-04
  -4.826  0.880E-04  0.880E-04
  -4.816  0.915E-04  0.915E-04
  -4.806  0.950E-04  0.950E-04
  -4.796  0.983E-04  0.983E-04
  -4.786  0.102E-03  0.102E-03
  -4.776  0.105E-03  0.105E-03
  -4.766  0.108E-03  0.108E-03
  -4.756  0.111E-03  0.111E-03
  -4.746  0.114E-03  0.114E-03
  -4.736  0.117E-03  0.117E-03
  -4.726  0.120E-03  0.120E-03
  -4.716  0.122E-03  0.122E-03
  -4.706  0.125E-03  0.125E-03
  -4.696  0.127E-03  0.127E-03
  -4.686  0.130E-03  0.130E-03
  -4.676  0.132E-03  0.132E-03
  -4.666  0.135E-03  0.135E-03
  -4.656  0.137E-03  0.137E-03
  -4.646  0.139E-03  0.139E-03
  -4.636  0.141E-03  0.141E-03
  -4.626  0.143E-03  0.143E-03
  -4.616  0.145E-03  0.145E-03
  -4.606  0.147E-03  0.147E-03
  -4.596  0.149E-03  0.149E-03
  -4.586  0.150E-03  0.150E-03
  -4.576  0.152E-03  0.152E-03
  -4.566  0.153E-03  0.153E-03
  -4.556  0.155E-03  0.155E-03
  -4.546  0.156E-03  0.156E-03
  -4.536  0.158E-03  0.158E-03
  -4.526  0.159E-03  0.159E-03
  -4.516  0.160E-03  0.160E-03
  -4.506  0.161E-03  0.161E-03
  -4.496  0.162E-03  0.162E-03
  -4.486  0.163E-03  0.163E-03
  -4.476  0.164E-03  0.164E-03
  -4.466  0.164E-03  0.164E-03
  -4.456  0.165E-03  0.165E-03
  -4.446  0.165E-03  0.165E-03
  -4.436  0.166E-03  0.166E-03
  -4.426  0.166E-03  0.166E-03
  -4.416  0.166E-03  0.166E-03
  -4.406  0.166E-03  0.166E-03
  -4.396  0.166E-03  0.166E-03
  -4.386  0.166E-03  0.166E-03
  -4.376  0.166E-03  0.166E-03
  -4.366  0.166E-03  0.166E-03
  -4.356  0.166E-03  0.166E-03
  -4.346  0.165E-03  0.165E-03
  -4.336  0.165E-03  0.165E-03
  -4.326  0.164E-03  0.164E-03
  -4.316  0.164E-03  0.164E-03
  -4.306  0.163E-03  0.163E-03
  -4.296  0.162E-03  0.162E-03
  -4.286  0.161E-03  0.161E-03
  -4.276  0.160E-03  0.160E-03
  -4.266  0.159E-03  0.159E-03
  -4.256  0.158E-03  0.158E-03
  -4.246  0.157E-03  0.157E-03
  -4.236  0.155E-03  0.155E-03
  -4.226  0.154E-03  0.154E-03
  -4.216  0.153E-03  0.153E-03
  -4.206  0.151E-03  0.151E-03
  -4.196  0.149E-03  0.149E-03
  -4.186  0.148E-03  0.148E-03
  -4.176  0.146E-03  0.146E-03
  -4.166  0.144E-03  0.144E-03
  -4.156  0.142E-03  0.142E-03
  -4.146  0.141E-03  0.141E-03
  -4.136  0.139E-03  0.139E-03
  -4.126  0.137E-03  0.137E-03
  -4.116  0.135E-03  0.135E-03
  -4.106  0.133E-03  0.133E-03
  -4.096  0.130E-03  0.130E-03
  -4.086  0.128E-03  0.128E-03
  -4.076  0.126E-03  0.126E-03
  -4.066  0.124E-03  0.124E-03
  -4.056  0.122E-03  0.122E-03
  -4.046  0.120E-03  0.120E-03
  -4.036  0.117E-03  0.117E-03
  -4.026  0.115E-03  0.115E-03
  -4.016  0.113E-03  0.113E-03
  -4.006  0.110E-03  0.110E-03
  -3.996  0.108E-03  0.108E-03
  -3.986  0.106E-03  0.106E-03
  -3.976  0.104E-03  0.104E-03
  -3.966  0.101E-03  0.101E-03
  -3.956  0.990E-04  0.990E-04
  -3.946  0.967E-04  0.967E-04
  -3.936  0.944E-04  0.944E-04
  -3.926  0.922E-04  0.922E-04
  -3.916  0.899E-04  0.899E-04
  -3.906  0.877E-04  0.877E-04
  -3.896  0.855E-04  0.855E-04
  -3.886  0.834E-04  0.834E-04
  -3.876  0.812E-04  0.812E-04
  -3.866  0.791E-04  0.791E-04
  -3.856  0.770E-04  0.770E-04
  -3.846  0.750E-04  0.750E-04
  -3.836  0.730E-04  0.730E-04
  -3.826  0.710E-04  0.710E-04
  -3.816  0.691E-04  0.691E-04
  -3.806  0.672E-04  0.672E-04
  -3.796  0.653E-04  0.653E-04
  -3.786  0.635E-04  0.635E-04
  -3.776  0.618E-04  0.618E-04
  -3.766  0.600E-04  0.600E-04
  -3.756  0.583E-04  0.583E-04
  -3.746  0.567E-04  0.567E-04
  -3.736  0.551E-04  0.551E-04
  -3.726  0.536E-04  0.536E-04
  -3.716  0.521E-04  0.521E-04
  -3.706  0.506E-04  0.506E-04
  -3.696  0.492E-04  0.492E-04
  -3.686  0.479E-04  0.479E-04
  -3.676  0.466E-04  0.466E-04
  -3.666  0.453E-04  0.453E-04
  -3.656  0.441E-04  0.441E-04
  -3.646  0.430E-04  0.430E-04
  -3.636  0.418E-04  0.418E-04
  -3.626  0.408E-04  0.408E-04
  -3.616  0.397E-04  0.397E-04
  -3.606  0.388E-04  0.388E-04
  -3.596  0.378E-04  0.378E-04
  -3.586  0.369E-04  0.369E-04
  -3.576  0.361E-04  0.361E-04
  -3.566  0.352E-04  0.352E-04
  -3.556  0.345E-04  0.345E-04
  -3.546  0.337E-04  0.337E-04
  -3.536  0.330E-04  0.330E-04
  -3.526  0.324E-04  0.324E-04
  -3.516  0.317E-04  0.317E-04
  -3.506  0.312E-04  0.312E-04
  -3.496  0.306E-04  0.306E-04
  -3.486  0.301E-04  0.301E-04
  -3.476  0.296E-04  0.296E-04
  -3.466  0.291E-04  0.291E-04
  -3.456  0.286E-04  0.286E-04
  -3.446  0.282E-04  0.282E-04
  -3.436  0.278E-04  0.278E-04
  -3.426  0.275E-04  0.275E-04
  -3.416  0.271E-04  0.271E-04
  -3.406  0.268E-04  0.268E-04
  -3.396  0.265E-04  0.265E-04
  -3.386  0.262E-04  0.262E-04
  -3.376  0.259E-04  0.259E-04
  -3.366  0.256E-04  0.256E-04
  -3.356  0.254E-04  0.254E-04
  -3.346  0.252E-04  0.252E-04
  -3.336  0.249E-04  0.249E-04
  -3.326  0.247E-04  0.247E-04
  -3.316  0.245E-04  0.245E-04
  -3.306  0.243E-04  0.243E-04
  -3.296  0.241E-04  0.241E-04
  -3.286  0.240E-04  0.240E-04
  -3.276  0.238E-04  0.238E-04
  -3.266  0.236E-04  0.236E-04
  -3.256  0.235E-04  0.235E-04
  -3.246  0.233E-04  0.233E-04
  -3.236  0.231E-04  0.231E-04
  -3.226  0.230E-04  0.230E-04
  -3.216  0.228E-04  0.228E-04
  -3.206  0.226E-04  0.226E-04
  -3.196  0.225E-04  0.225E-04
  -3.186  0.223E-04  0.223E-04
  -3.176  0.221E-04  0.221E-04
  -3.166  0.219E-04  0.219E-04
  -3.156  0.218E-04  0.218E-04
  -3.146  0.216E-04  0.216E-04
  -3.136  0.214E-04  0.214E-04
  -3.126  0.212E-04  0.212E-04
  -3.116  0.210E-04  0.210E-04
  -3.106  0.208E-04  0.208E-04
  -3.096  0.206E-04  0.206E-04
  -3.086  0.204E-04  0.204E-04
  -3.076  0.202E-04  0.202E-04
  -3.066  0.199E-04  0.199E-04
  -3.056  0.197E-04  0.197E-04
  -3.046  0.195E-04  0.195E-04
  -3.036  0.192E-04  0.192E-04
  -3.026  0.190E-04  0.190E-04
  -3.016  0.187E-04  0.187E-04
  -3.006  0.185E-04  0.185E-04
  -2.996  0.182E-04  0.182E-04
  -2.986  0.179E-04  0.179E-04
  -2.976  0.176E-04  0.176E-04
  -2.966  0.174E-04  0.174E-04
  -2.956  0.171E-04  0.171E-04
  -2.946  0.168E-04  0.168E-04
  -2.936  0.165E-04  0.165E-04
  -2.926  0.162E-04  0.162E-04
  -2.916  0.159E-04  0.159E-04
  -2.906  0.155E-04  0.155E-04
  -2.896  0.152E-04  0.152E-04
  -2.886  0.149E-04  0.149E-04
  -2.876  0.146E-04  0.146E-04
  -2.866  0.143E-04  0.143E-04
  -2.856  0.139E-04  0.139E-04
  -2.846  0.136E-04  0.136E-04
  -2.836  0.133E-04  0.133E-04
  -2.826  0.130E-04  0.130E-04
  -2.816  0.126E-04  0.126E-04
  -2.806  0.123E-04  0.123E-04
  -2.796  0.120E-04  0.120E-04
  -2.786  0.117E-04  0.117E-04
  -2.776  0.113E-04  0.113E-04
  -2.766  0.110E-04  0.110E-04
  -2.756  0.107E-04  0.107E-04
  -2.746  0.104E-04  0.104E-04
  -2.736  0.101E-04  0.101E-04
  -2.726  0.977E-05  0.977E-05
  -2.716  0.947E-05  0.947E-05
  -2.706  0.918E-05  0.918E-05
  -2.696  0.889E-05  0.889E-05
  -2.686  0.861E-05  0.861E-05
  -2.676  0.833E-05  0.833E-05
  -2.666  0.806E-05  0.806E-05
  -2.656  0.781E-05  0.781E-05
  -2.646  0.756E-05  0.756E-05
  -2.636  0.731E-05  0.731E-05
  -2.626  0.708E-05  0.708E-05
  -2.616  0.686E-05  0.686E-05
  -2.606  0.665E-05  0.665E-05
  -2.596  0.645E-05  0.645E-05
  -2.586  0.626E-05  0.626E-05
  -2.576  0.609E-05  0.609E-05
  -2.566  0.592E-05  0.592E-05
  -2.556  0.577E-05  0.577E-05
  -2.546  0.564E-05  0.564E-05
  -2.536  0.551E-05  0.551E-05
  -2.526  0.540E-05  0.540E-05
  -2.516  0.531E-05  0.531E-05
  -2.506  0.523E-05  0.523E-05
  -2.496  0.516E-05  0.516E-05
  -2.486  0.511E-05  0.511E-05
  -2.476  0.508E-05  0.508E-05
  -2.466  0.506E-05  0.506E-05
  -2.456  0.506E-05  0.506E-05
  -2.446  0.508E-05  0.508E-05
  -2.436  0.512E-05  0.512E-05
  -2.426  0.517E-05  0.517E-05
  -2.416  0.523E-05  0.523E-05
  -2.406  0.532E-05  0.532E-05
  -2.396  0.543E-05  0.543E-05
  -2.386  0.555E-05  0.555E-05
  -2.376  0.569E-05  0.569E-05
  -2.366  0.585E-05  0.585E-05
  -2.356  0.603E-05  0.603E-05
  -2.346  0.622E-05  0.622E-05
  -2.336  0.644E-05  0.644E-05
  -2.326  0.667E-05  0.667E-05
  -2.316  0.693E-05  0.693E-05
  -2.306  0.720E-05  0.720E-05
  -2.296  0.749E-05  0.749E-05
  -2.286  0.780E-05  0.780E-05
  -2.276  0.813E-05  0.813E-05
  -2.266  0.847E-05  0.847E-05
  -2.256  0.884E-05  0.884E-05
  -2.246  0.922E-05  0.922E-05
  -2.236  0.962E-05  0.962E-05
  -2.226  0.100E-04  0.100E-04
  -2.216  0.105E-04  0.105E-04
  -2.206  0.109E-04  0.109E-04
  -2.196  0.114E-04  0.114E-04
  -2.186  0.119E-04  0.119E-04
  -2.176  0.124E-04  0.124E-04
  -2.166  0.129E-04  0.129E-04
  -2.156  0.134E-04  0.134E-04
  -2.146  0.140E-04  0.140E-04
  -2.136  0.145E-04  0.145E-04
  -2.126  0.151E-04  0.151E-04
  -2.116  0.157E-04  0.157E-04
  -2.106  0.163E-04  0.163E-04
  -2.096  0.169E-04  0.169E-04
  -2.086  0.175E-04  0.175E-04
  -2.076  0.182E-04  0.182E-04
  -2.066  0.188E-04  0.188E-04
  -2.056  0.195E-04  0.195E-04
  -2.046  0.201E-04  0.201E-04
  -2.036  0.208E-04  0.208E-04
  -2.026  0.215E-04  0.215E-04
  -2.016  0.222E-04  0.222E-04
  -2.006  0.229E-04  0.229E-04
  -1.996  0.235E-04  0.235E-04
  -1.986  0.242E-04  0.242E-04
  -1.976  0.249E-04  0.249E-04
  -1.966  0.256E-04  0.256E-04
  -1.956  0.264E-04  0.264E-04
  -1.946  0.271E-04  0.271E-04
  -1.936  0.278E-04  0.278E-04
  -1.926  0.285E-04  0.285E-04
  -1.916  0.292E-04  0.292E-04
  -1.906  0.299E-04  0.299E-04
  -1.896  0.306E-04  0.306E-04
  -1.886  0.312E-04  0.312E-04
  -1.876  0.319E-04  0.319E-04
  -1.866  0.326E-04  0.326E-04
  -1.856  0.333E-04  0.333E-04
  -1.846  0.339E-04  0.339E-04
  -1.836  0.346E-04  0.346E-04
  -1.826  0.352E-04  0.352E-04
  -1.816  0.358E-04  0.358E-04
  -1.806  0.364E-04  0.364E-04
  -1.796  0.370E-04  0.370E-04
  -1.786  0.376E-04  0.376E-04
  -1.776  0.382E-04  0.382E-04
  -1.766  0.387E-04  0.387E-04
  -1.756  0.393E-04  0.393E-04
  -1.746  0.398E-04  0.398E-04
  -1.736  0.403E-04  0.403E-04
  -1.726  0.408E-04  0.408E-04
  -1.716  0.412E-04  0.412E-04
  -1.706  0.416E-04  0.416E-04
  -1.696  0.421E-04  0.421E-04
  -1.686  0.425E-04  0.425E-04
  -1.676  0.428E-04  0.428E-04
  -1.666  0.432E-04  0.432E-04
  -1.656  0.435E-04  0.435E-04
  -1.646  0.438E-04  0.438E-04
  -1.636  0.441E-04  0.441E-04
  -1.626  0.443E-04  0.443E-04
  -1.616  0.446E-04  0.446E-04
  -1.606  0.448E-04  0.448E-04
  -1.596  0.449E-04  0.449E-04
  -1.586  0.451E-04  0.451E-04
  -1.576  0.452E-04  0.452E-04
  -1.566  0.453E-04  0.453E-04
  -1.556  0.453E-04  0.453E-04
  -1.546  0.454E-04  0.454E-04
  -1.536  0.454E-04  0.454E-04
  -1.526  0.454E-04  0.454E-04
  -1.516  0.453E-04  0.453E-04
  -1.506  0.453E-04  0.453E-04
  -1.496  0.452E-04  0.452E-04
  -1.486  0.451E-04  0.451E-04
  -1.476  0.449E-04  0.449E-04
  -1.466  0.447E-04  0.447E-04
  -1.456  0.445E-04  0.445E-04
  -1.446  0.443E-04  0.443E-04
  -1.436  0.441E-04  0.441E-04
  -1.426  0.438E-04  0.438E-04
  -1.416  0.435E-04  0.435E-04
  -1.406  0.432E-04  0.432E-04
  -1.396  0.428E-04  0.428E-04
  -1.386  0.424E-04  0.424E-04
  -1.376  0.420E-04  0.420E-04
  -1.366  0.416E-04  0.416E-04
  -1.356  0.412E-04  0.412E-04
  -1.346  0.407E-04  0.407E-04
  -1.336  0.403E-04  0.403E-04
  -1.326  0.398E-04  0.398E-04
  -1.316  0.393E-04  0.393E-04
  -1.306  0.387E-04  0.387E-04
  -1.296  0.382E-04  0.382E-04
  -1.286  0.376E-04  0.376E-04
  -1.276  0.371E-04  0.371E-04
  -1.266  0.365E-04  0.365E-04
  -1.256  0.359E-04  0.359E-04
  -1.246  0.352E-04  0.352E-04
  -1.236  0.346E-04  0.346E-04
  -1.226  0.340E-04  0.340E-04
  -1.216  0.333E-04  0.333E-04
  -1.206  0.327E-04  0.327E-04
  -1.196  0.320E-04  0.320E-04
  -1.186  0.314E-04  0.314E-04
  -1.176  0.307E-04  0.307E-04
  -1.166  0.300E-04  0.300E-04
  -1.156  0.293E-04  0.293E-04
  -1.146  0.286E-04  0.286E-04
  -1.136  0.279E-04  0.279E-04
  -1.126  0.272E-04  0.272E-04
  -1.116  0.266E-04  0.266E-04
  -1.106  0.259E-04  0.259E-04
  -1.096  0.252E-04  0.252E-04
  -1.086  0.245E-04  0.245E-04
  -1.076  0.238E-04  0.238E-04
  -1.066  0.231E-04  0.231E-04
  -1.056  0.224E-04  0.224E-04
  -1.046  0.217E-04  0.217E-04
  -1.036  0.211E-04  0.211E-04
  -1.026  0.204E-04  0.204E-04
  -1.016  0.197E-04  0.197E-04
  -1.006  0.191E-04  0.191E-04
  -0.996  0.184E-04  0.184E-04
  -0.986  0.178E-04  0.178E-04
  -0.976  0.172E-04  0.172E-04
  -0.966  0.165E-04  0.165E-04
  -0.956  0.159E-04  0.159E-04
  -0.946  0.153E-04  0.153E-04
  -0.936  0.147E-04  0.147E-04
  -0.926  0.141E-04  0.141E-04
  -0.916  0.136E-04  0.136E-04
  -0.906  0.130E-04  0.130E-04
  -0.896  0.125E-04  0.125E-04
  -0.886  0.119E-04  0.119E-04
  -0.876  0.114E-04  0.114E-04
  -0.866  0.109E-04  0.109E-04
  -0.856  0.104E-04  0.104E-04
  -0.846  0.991E-05  0.991E-05
  -0.836  0.944E-05  0.944E-05
  -0.826  0.898E-05  0.898E-05
  -0.816  0.853E-05  0.853E-05
  -0.806  0.809E-05  0.809E-05
  -0.796  0.767E-05  0.767E-05
  -0.786  0.726E-05  0.726E-05
  -0.776  0.687E-05  0.687E-05
  -0.766  0.648E-05  0.648E-05
  -0.756  0.611E-05  0.611E-05
  -0.746  0.576E-05  0.576E-05
  -0.736  0.541E-05  0.541E-05
  -0.726  0.508E-05  0.508E-05
  -0.716  0.476E-05  0.476E-05
  -0.706  0.446E-05  0.446E-05
  -0.696  0.416E-05  0.416E-05
  -0.686  0.388E-05  0.388E-05
  -0.676  0.361E-05  0.361E-05
  -0.666  0.336E-05  0.336E-05
  -0.656  0.311E-05  0.311E-05
  -0.646  0.287E-05  0.287E-05
  -0.636  0.265E-05  0.265E-05
  -0.626  0.244E-05  0.244E-05
  -0.616  0.224E-05  0.224E-05
  -0.606  0.204E-05  0.204E-05
  -0.596  0.186E-05  0.186E-05
  -0.586  0.169E-05  0.169E-05
  -0.576  0.153E-05  0.153E-05
  -0.566  0.138E-05  0.138E-05
  -0.556  0.124E-05  0.124E-05
  -0.546  0.110E-05  0.110E-05
  -0.536  0.975E-06  0.975E-06
  -0.526  0.858E-06  0.858E-06
  -0.516  0.749E-06  0.749E-06
  -0.506  0.648E-06  0.648E-06
  -0.496  0.554E-06  0.554E-06
  -0.486  0.468E-06  0.468E-06
  -0.476  0.389E-06  0.389E-06
  -0.466  0.316E-06  0.316E-06
  -0.456  0.250E-06  0.250E-06
  -0.446  0.190E-06  0.190E-06
  -0.436  0.137E-06  0.137E-06
  -0.426  0.889E-07  0.889E-07
  -0.416  0.467E-07  0.467E-07
  -0.406  0.973E-08  0.973E-08
  -0.396 -0.221E-07 -0.221E-07
  -0.386 -0.490E-07 -0.490E-07
  -0.376 -0.713E-07 -0.713E-07
  -0.366 -0.891E-07 -0.891E-07
  -0.356 -0.103E-06 -0.103E-06
  -0.346 -0.112E-06 -0.112E-06
  -0.336 -0.118E-06 -0.118E-06
  -0.326 -0.120E-06 -0.120E-06
  -0.316 -0.118E-06 -0.118E-06
  -0.306 -0.113E-06 -0.113E-06
  -0.296 -0.105E-06 -0.105E-06
  -0.286 -0.936E-07 -0.936E-07
  -0.276 -0.795E-07 -0.795E-07
  -0.266 -0.627E-07 -0.627E-07
  -0.256 -0.433E-07 -0.433E-07
  -0.246 -0.214E-07 -0.214E-07
  -0.236  0.276E-08  0.276E-08
  -0.226  0.292E-07  0.292E-07
  -0.216  0.577E-07  0.577E-07
  -0.206  0.882E-07  0.882E-07
  -0.196  0.121E-06  0.121E-06
  -0.186  0.155E-06  0.155E-06
  -0.176  0.190E-06  0.190E-06
  -0.166  0.228E-06  0.228E-06
  -0.156  0.266E-06  0.266E-06
  -0.146  0.306E-06  0.306E-06
  -0.136  0.348E-06  0.348E-06
  -0.126  0.390E-06  0.390E-06
  -0.116  0.434E-06  0.434E-06
  -0.106  0.478E-06  0.478E-06
  -0.096  0.523E-06  0.523E-06
  -0.086  0.569E-06  0.569E-06
  -0.076  0.615E-06  0.615E-06
  -0.066  0.661E-06  0.661E-06
  -0.056  0.708E-06  0.708E-06
  -0.046  0.755E-06  0.755E-06
  -0.036  0.801E-06  0.801E-06
  -0.026  0.847E-06  0.847E-06
  -0.016  0.892E-06  0.892E-06
  -0.006  0.937E-06  0.937E-06
   0.004  0.980E-06  0.980E-06
   0.014  0.102E-05  0.102E-05
   0.024  0.106E-05  0.106E-05
   0.034  0.110E-05  0.110E-05
   0.044  0.113E-05  0.113E-05
   0.054  0.117E-05  0.117E-05
   0.064  0.119E-05  0.119E-05
   0.074  0.122E-05  0.122E-05
   0.084  0.124E-05  0.124E-05
   0.094  0.125E-05  0.125E-05
   0.104  0.125E-05  0.125E-05
   0.114  0.125E-05  0.125E-05
   0.124  0.124E-05  0.124E-05
   0.134  0.123E-05  0.123E-05
   0.144  0.120E-05  0.120E-05
   0.154  0.116E-05  0.116E-05
   0.164  0.110E-05  0.110E-05
   0.174  0.103E-05  0.103E-05
   0.184  0.951E-06  0.951E-06
   0.194  0.849E-06  0.849E-06
   0.204  0.728E-06  0.728E-06
   0.214  0.585E-06  0.585E-06
   0.224  0.419E-06  0.419E-06
   0.234  0.226E-06  0.226E-06
   0.244  0.450E-08  0.450E-08
   0.254 -0.248E-06 -0.248E-06
   0.264 -0.536E-06 -0.536E-06
   0.274 -0.861E-06 -0.861E-06
   0.284 -0.123E-05 -0.123E-05
   0.294 -0.164E-05 -0.164E-05
   0.304 -0.210E-05 -0.210E-05
   0.314 -0.261E-05 -0.261E-05
   0.324 -0.318E-05 -0.318E-05
   0.334 -0.381E-05 -0.381E-05
   0.344 -0.451E-05 -0.451E-05
   0.354 -0.528E-05 -0.528E-05
   0.364 -0.613E-05 -0.613E-05
   0.374 -0.707E-05 -0.707E-05
   0.384 -0.810E-05 -0.810E-05
   0.394 -0.923E-05 -0.923E-05
   0.404 -0.105E-04 -0.105E-04
   0.414 -0.118E-04 -0.118E-04
   0.424 -0.133E-04 -0.133E-04
   0.434 -0.149E-04 -0.149E-04
   0.444 -0.166E-04 -0.166E-04
   0.454 -0.185E-04 -0.185E-04
   0.464 -0.206E-04 -0.206E-04
   0.474 -0.228E-04 -0.228E-04
   0.484 -0.252E-04 -0.252E-04
   0.494 -0.279E-04 -0.279E-04
   0.504 -0.307E-04 -0.307E-04
   0.514 -0.337E-04 -0.337E-04
   0.524 -0.370E-04 -0.370E-04
   0.534 -0.406E-04 -0.406E-04
   0.544 -0.444E-04 -0.444E-04
   0.554 -0.485E-04 -0.485E-04
   0.564 -0.529E-04 -0.529E-04
   0.574 -0.576E-04 -0.576E-04
   0.584 -0.627E-04 -0.627E-04
   0.594 -0.681E-04 -0.681E-04
   0.604 -0.739E-04 -0.739E-04
   0.614 -0.801E-04 -0.801E-04
   0.624 -0.868E-04 -0.868E-04
   0.634 -0.939E-04 -0.939E-04
   0.644 -0.101E-03 -0.101E-03
   0.654 -0.109E-03 -0.109E-03
   0.664 -0.118E-03 -0.118E-03
   0.674 -0.127E-03 -0.127E-03
   0.684 -0.137E-03 -0.137E-03
   0.694 -0.147E-03 -0.147E-03
   0.704 -0.158E-03 -0.158E-03
   0.714 -0.170E-03 -0.170E-03
   0.724 -0.182E-03 -0.182E-03
   0.734 -0.195E-03 -0.195E-03
   0.744 -0.209E-03 -0.209E-03
   0.754 -0.223E-03 -0.223E-03
   0.764 -0.239E-03 -0.239E-03
   0.774 -0.255E-03 -0.255E-03
   0.784 -0.272E-03 -0.272E-03
   0.794 -0.290E-03 -0.290E-03
   0.804 -0.309E-03 -0.309E-03
   0.814 -0.329E-03 -0.329E-03
   0.824 -0.350E-03 -0.350E-03
   0.834 -0.372E-03 -0.372E-03
   0.844 -0.395E-03 -0.395E-03
   0.854 -0.420E-03 -0.420E-03
   0.864 -0.445E-03 -0.445E-03
   0.874 -0.472E-03 -0.472E-03
   0.884 -0.499E-03 -0.499E-03
   0.894 -0.529E-03 -0.529E-03
   0.904 -0.559E-03 -0.559E-03
   0.914 -0.591E-03 -0.591E-03
   0.924 -0.624E-03 -0.624E-03
   0.934 -0.658E-03 -0.658E-03
   0.944 -0.694E-03 -0.694E-03
   0.954 -0.731E-03 -0.731E-03
   0.964 -0.770E-03 -0.770E-03
   0.974 -0.810E-03 -0.810E-03
   0.984 -0.852E-03 -0.852E-03
   0.994 -0.895E-03 -0.895E-03
   1.004 -0.940E-03 -0.940E-03
   1.014 -0.986E-03 -0.986E-03
   1.024 -0.103E-02 -0.103E-02
   1.034 -0.108E-02 -0.108E-02
   1.044 -0.113E-02 -0.113E-02
   1.054 -0.119E-02 -0.119E-02
   1.064 -0.124E-02 -0.124E-02
   1.074 -0.129E-02 -0.129E-02
   1.084 -0.135E-02 -0.135E-02
   1.094 -0.141E-02 -0.141E-02
   1.104 -0.147E-02 -0.147E-02
   1.114 -0.153E-02 -0.153E-02
   1.124 -0.159E-02 -0.159E-02
   1.134 -0.165E-02 -0.165E-02
   1.144 -0.172E-02 -0.172E-02
   1.154 -0.178E-02 -0.178E-02
   1.164 -0.185E-02 -0.185E-02
   1.174 -0.191E-02 -0.191E-02
   1.184 -0.198E-02 -0.198E-02
   1.194 -0.205E-02 -0.205E-02
   1.204 -0.212E-02 -0.212E-02
   1.214 -0.219E-02 -0.219E-02
   1.224 -0.226E-02 -0.226E-02
   1.234 -0.233E-02 -0.233E-02
   1.244 -0.240E-02 -0.240E-02
   1.254 -0.246E-02 -0.246E-02
   1.264 -0.253E-02 -0.253E-02
   1.274 -0.260E-02 -0.260E-02
   1.284 -0.267E-02 -0.267E-02
   1.294 -0.273E-02 -0.273E-02
   1.304 -0.280E-02 -0.280E-02
   1.314 -0.286E-02 -0.286E-02
   1.324 -0.292E-02 -0.292E-02
   1.334 -0.298E-02 -0.298E-02
   1.344 -0.303E-02 -0.303E-02
   1.354 -0.309E-02 -0.309E-02
   1.364 -0.314E-02 -0.314E-02
   1.374 -0.318E-02 -0.318E-02
   1.384 -0.322E-02 -0.322E-02
   1.394 -0.326E-02 -0.326E-02
   1.404 -0.329E-02 -0.329E-02
   1.414 -0.332E-02 -0.332E-02
   1.424 -0.334E-02 -0.334E-02
   1.434 -0.336E-02 -0.336E-02
   1.444 -0.337E-02 -0.337E-02
   1.454 -0.337E-02 -0.337E-02
   1.464 -0.337E-02 -0.337E-02
   1.474 -0.336E-02 -0.336E-02
   1.484 -0.334E-02 -0.334E-02
   1.494 -0.331E-02 -0.331E-02
   1.504 -0.327E-02 -0.327E-02
   1.514 -0.322E-02 -0.322E-02
   1.524 -0.317E-02 -0.317E-02
   1.534 -0.310E-02 -0.310E-02
   1.544 -0.302E-02 -0.302E-02
   1.554 -0.293E-02 -0.293E-02
   1.564 -0.282E-02 -0.282E-02
   1.574 -0.271E-02 -0.271E-02
   1.584 -0.258E-02 -0.258E-02
   1.594 -0.243E-02 -0.243E-02
   1.604 -0.227E-02 -0.227E-02
   1.614 -0.210E-02 -0.210E-02
   1.624 -0.191E-02 -0.191E-02
   1.634 -0.170E-02 -0.170E-02
   1.644 -0.148E-02 -0.148E-02
   1.654 -0.124E-02 -0.124E-02
   1.664 -0.984E-03 -0.984E-03
   1.674 -0.708E-03 -0.708E-03
   1.684 -0.414E-03 -0.414E-03
   1.694 -0.101E-03 -0.101E-03
   1.704  0.232E-03  0.232E-03
   1.714  0.585E-03  0.585E-03
   1.724  0.958E-03  0.958E-03
   1.734  0.135E-02  0.135E-02
   1.744  0.177E-02  0.177E-02
   1.754  0.220E-02  0.220E-02
   1.764  0.266E-02  0.266E-02
   1.774  0.314E-02  0.314E-02
   1.784  0.365E-02  0.365E-02
   1.794  0.417E-02  0.417E-02
   1.804  0.472E-02  0.472E-02
   1.814  0.529E-02  0.529E-02
   1.824  0.589E-02  0.589E-02
   1.834  0.650E-02  0.650E-02
   1.844  0.715E-02  0.715E-02
   1.854  0.781E-02  0.781E-02
   1.864  0.850E-02  0.850E-02
   1.874  0.921E-02  0.921E-02
   1.884  0.994E-02  0.994E-02
   1.894  0.107E-01  0.107E-01
   1.904  0.115E-01  0.115E-01
   1.914  0.123E-01  0.123E-01
   1.924  0.131E-01  0.131E-01
   1.934  0.140E-01  0.140E-01
   1.944  0.148E-01  0.148E-01
   1.954  0.157E-01  0.157E-01
   1.964  0.166E-01  0.166E-01
   1.974  0.175E-01  0.175E-01
   1.984  0.185E-01  0.185E-01
   1.994  0.195E-01  0.195E-01
   2.004  0.205E-01  0.205E-01
   2.014  0.215E-01  0.215E-01
   2.024  0.225E-01  0.225E-01
   2.034  0.235E-01  0.235E-01
   2.044  0.246E-01  0.246E-01
   2.054  0.256E-01  0.256E-01
   2.064  0.267E-01  0.267E-01
   2.074  0.278E-01  0.278E-01
   2.084  0.289E-01  0.289E-01
   2.094  0.300E-01  0.300E-01
   2.104  0.311E-01  0.311E-01
   2.114  0.323E-01  0.323E-01
   2.124  0.334E-01  0.334E-01
   2.134  0.345E-01  0.345E-01
   2.144  0.357E-01  0.357E-01
   2.154  0.368E-01  0.368E-01
   2.164  0.380E-01  0.380E-01
   2.174  0.391E-01  0.391E-01
   2.184  0.403E-01  0.403E-01
   2.194  0.414E-01  0.414E-01
   2.204  0.426E-01  0.426E-01
   2.214  0.437E-01  0.437E-01
   2.224  0.449E-01  0.449E-01
   2.234  0.460E-01  0.460E-01
   2.244  0.471E-01  0.471E-01
   2.254  0.482E-01  0.482E-01
   2.264  0.493E-01  0.493E-01
   2.274  0.504E-01  0.504E-01
   2.284  0.515E-01  0.515E-01
   2.294  0.525E-01  0.525E-01
   2.304  0.536E-01  0.536E-01
   2.314  0.546E-01  0.546E-01
   2.324  0.556E-01  0.556E-01
   2.334  0.565E-01  0.565E-01
   2.344  0.575E-01  0.575E-01
   2.354  0.584E-01  0.584E-01
   2.364  0.593E-01  0.593E-01
   2.374  0.602E-01  0.602E-01
   2.384  0.611E-01  0.611E-01
   2.394  0.619E-01  0.619E-01
   2.404  0.627E-01  0.627E-01
   2.414  0.635E-01  0.635E-01
   2.424  0.642E-01  0.642E-01
   2.434  0.649E-01  0.649E-01
   2.444  0.656E-01  0.656E-01
   2.454  0.662E-01  0.662E-01
   2.464  0.668E-01  0.668E-01
   2.474  0.674E-01  0.674E-01
   2.484  0.679E-01  0.679E-01
   2.494  0.684E-01  0.684E-01
   2.504  0.689E-01  0.689E-01
   2.514  0.693E-01  0.693E-01
   2.524  0.697E-01  0.697E-01
   2.534  0.701E-01  0.701E-01
   2.544  0.704E-01  0.704E-01
   2.554  0.707E-01  0.707E-01
   2.564  0.709E-01  0.709E-01
   2.574  0.711E-01  0.711E-01
   2.584  0.713E-01  0.713E-01
   2.594  0.714E-01  0.714E-01
   2.604  0.715E-01  0.715E-01
   2.614  0.715E-01  0.715E-01
   2.624  0.715E-01  0.715E-01
   2.634  0.715E-01  0.715E-01
   2.644  0.715E-01  0.715E-01
   2.654  0.714E-01  0.714E-01
   2.664  0.712E-01  0.712E-01
   2.674  0.710E-01  0.710E-01
   2.684  0.708E-01  0.708E-01
   2.694  0.706E-01  0.706E-01
   2.704  0.703E-01  0.703E-01
   2.714  0.700E-01  0.700E-01
   2.724  0.696E-01  0.696E-01
   2.734  0.693E-01  0.693E-01
   2.744  0.689E-01  0.689E-01
   2.754  0.684E-01  0.684E-01
   2.764  0.680E-01  0.680E-01
   2.774  0.675E-01  0.675E-01
   2.784  0.669E-01  0.669E-01
   2.794  0.664E-01  0.664E-01
   2.804  0.658E-01  0.658E-01
   2.814  0.652E-01  0.652E-01
   2.824  0.646E-01  0.646E-01
   2.834  0.639E-01  0.639E-01
   2.844  0.632E-01  0.632E-01
   2.854  0.625E-01  0.625E-01
   2.864  0.618E-01  0.618E-01
   2.874  0.611E-01  0.611E-01
   2.884  0.603E-01  0.603E-01
   2.894  0.595E-01  0.595E-01
   2.904  0.588E-01  0.588E-01
   2.914  0.579E-01  0.579E-01
   2.924  0.571E-01  0.571E-01
   2.934  0.563E-01  0.563E-01
   2.944  0.554E-01  0.554E-01
   2.954  0.546E-01  0.546E-01
   2.964  0.537E-01  0.537E-01
   2.974  0.529E-01  0.529E-01
   2.984  0.520E-01  0.520E-01
   2.994  0.511E-01  0.511E-01
   3.004  0.502E-01  0.502E-01
   3.014  0.493E-01  0.493E-01
   3.024  0.484E-01  0.484E-01
   3.034  0.475E-01  0.475E-01
   3.044  0.465E-01  0.465E-01
   3.054  0.456E-01  0.456E-01
   3.064  0.447E-01  0.447E-01
   3.074  0.438E-01  0.438E-01
   3.084  0.429E-01  0.429E-01
   3.094  0.419E-01  0.419E-01
   3.104  0.410E-01  0.410E-01
   3.114  0.401E-01  0.401E-01
   3.124  0.392E-01  0.392E-01
   3.134  0.383E-01  0.383E-01
   3.144  0.374E-01  0.374E-01
   3.154  0.365E-01  0.365E-01
   3.164  0.356E-01  0.356E-01
   3.174  0.347E-01  0.347E-01
   3.184  0.338E-01  0.338E-01
   3.194  0.330E-01  0.330E-01
   3.204  0.321E-01  0.321E-01
   3.214  0.312E-01  0.312E-01
   3.224  0.304E-01  0.304E-01
   3.234  0.295E-01  0.295E-01
   3.244  0.287E-01  0.287E-01
   3.254  0.279E-01  0.279E-01
   3.264  0.271E-01  0.271E-01
   3.274  0.263E-01  0.263E-01
   3.284  0.255E-01  0.255E-01
   3.294  0.247E-01  0.247E-01
   3.304  0.239E-01  0.239E-01
   3.314  0.232E-01  0.232E-01
   3.324  0.224E-01  0.224E-01
   3.334  0.217E-01  0.217E-01
   3.344  0.209E-01  0.209E-01
   3.354  0.202E-01  0.202E-01
   3.364  0.195E-01  0.195E-01
   3.374  0.188E-01  0.188E-01
   3.384  0.181E-01  0.181E-01
   3.394  0.175E-01  0.175E-01
   3.404  0.168E-01  0.168E-01
   3.414  0.162E-01  0.162E-01
   3.424  0.156E-01  0.156E-01
   3.434  0.149E-01  0.149E-01
   3.444  0.143E-01  0.143E-01
   3.454  0.137E-01  0.137E-01
   3.464  0.132E-01  0.132E-01
   3.474  0.126E-01  0.126E-01
   3.484  0.120E-01  0.120E-01
   3.494  0.115E-01  0.115E-01
   3.504  0.110E-01  0.110E-01
   3.514  0.104E-01  0.104E-01
   3.524  0.994E-02  0.994E-02
   3.534  0.945E-02  0.945E-02
   3.544  0.897E-02  0.897E-02
   3.554  0.850E-02  0.850E-02
   3.564  0.805E-02  0.805E-02
   3.574  0.760E-02  0.760E-02
   3.584  0.717E-02  0.717E-02
   3.594  0.676E-02  0.676E-02
   3.604  0.635E-02  0.635E-02
   3.614  0.596E-02  0.596E-02
   3.624  0.557E-02  0.557E-02
   3.634  0.520E-02  0.520E-02
   3.644  0.485E-02  0.485E-02
   3.654  0.450E-02  0.450E-02
   3.664  0.416E-02  0.416E-02
   3.674  0.384E-02  0.384E-02
   3.684  0.353E-02  0.353E-02
   3.694  0.322E-02  0.322E-02
   3.704  0.293E-02  0.293E-02
   3.714  0.265E-02  0.265E-02
   3.724  0.238E-02  0.238E-02
   3.734  0.212E-02  0.212E-02
   3.744  0.187E-02  0.187E-02
   3.754  0.163E-02  0.163E-02
   3.764  0.141E-02  0.141E-02
   3.774  0.119E-02  0.119E-02
   3.784  0.977E-03  0.977E-03
   3.794  0.777E-03  0.777E-03
   3.804  0.586E-03  0.586E-03
   3.814  0.404E-03  0.404E-03
   3.824  0.232E-03  0.232E-03
   3.834  0.675E-04  0.675E-04
   3.844 -0.881E-04 -0.881E-04
   3.854 -0.235E-03 -0.235E-03
   3.864 -0.374E-03 -0.374E-03
   3.874 -0.506E-03 -0.506E-03
   3.884 -0.629E-03 -0.629E-03
   3.894 -0.745E-03 -0.745E-03
   3.904 -0.853E-03 -0.853E-03
   3.914 -0.955E-03 -0.955E-03
   3.924 -0.105E-02 -0.105E-02
   3.934 -0.114E-02 -0.114E-02
   3.944 -0.122E-02 -0.122E-02
   3.954 -0.129E-02 -0.129E-02
   3.964 -0.136E-02 -0.136E-02
   3.974 -0.142E-02 -0.142E-02
   3.984 -0.148E-02 -0.148E-02
   3.994 -0.153E-02 -0.153E-02
   4.004 -0.158E-02 -0.158E-02
   4.014 -0.162E-02 -0.162E-02
   4.024 -0.166E-02 -0.166E-02
   4.034 -0.169E-02 -0.169E-02
   4.044 -0.172E-02 -0.172E-02
   4.054 -0.174E-02 -0.174E-02
   4.064 -0.176E-02 -0.176E-02
   4.074 -0.177E-02 -0.177E-02
   4.084 -0.178E-02 -0.178E-02
   4.094 -0.179E-02 -0.179E-02
   4.104 -0.179E-02 -0.179E-02
   4.114 -0.179E-02 -0.179E-02
   4.124 -0.179E-02 -0.179E-02
   4.134 -0.179E-02 -0.179E-02
   4.144 -0.178E-02 -0.178E-02
   4.154 -0.177E-02 -0.177E-02
   4.164 -0.175E-02 -0.175E-02
   4.174 -0.174E-02 -0.174E-02
   4.184 -0.172E-02 -0.172E-02
   4.194 -0.170E-02 -0.170E-02
   4.204 -0.168E-02 -0.168E-02
   4.214 -0.166E-02 -0.166E-02
   4.224 -0.164E-02 -0.164E-02
   4.234 -0.161E-02 -0.161E-02
   4.244 -0.158E-02 -0.158E-02
   4.254 -0.156E-02 -0.156E-02
   4.264 -0.153E-02 -0.153E-02
   4.274 -0.150E-02 -0.150E-02
   4.284 -0.147E-02 -0.147E-02
   4.294 -0.144E-02 -0.144E-02
   4.304 -0.140E-02 -0.140E-02
   4.314 -0.137E-02 -0.137E-02
   4.324 -0.134E-02 -0.134E-02
   4.334 -0.131E-02 -0.131E-02
   4.344 -0.127E-02 -0.127E-02
   4.354 -0.124E-02 -0.124E-02
   4.364 -0.121E-02 -0.121E-02
   4.374 -0.117E-02 -0.117E-02
   4.384 -0.114E-02 -0.114E-02
   4.394 -0.111E-02 -0.111E-02
   4.404 -0.107E-02 -0.107E-02
   4.414 -0.104E-02 -0.104E-02
   4.424 -0.101E-02 -0.101E-02
   4.434 -0.976E-03 -0.976E-03
   4.444 -0.944E-03 -0.944E-03
   4.454 -0.913E-03 -0.913E-03
   4.464 -0.882E-03 -0.882E-03
   4.474 -0.851E-03 -0.851E-03
   4.484 -0.821E-03 -0.821E-03
   4.494 -0.792E-03 -0.792E-03
   4.504 -0.763E-03 -0.763E-03
   4.514 -0.734E-03 -0.734E-03
   4.524 -0.707E-03 -0.707E-03
   4.534 -0.680E-03 -0.680E-03
   4.544 -0.653E-03 -0.653E-03
   4.554 -0.627E-03 -0.627E-03
   4.564 -0.602E-03 -0.602E-03
   4.574 -0.578E-03 -0.578E-03
   4.584 -0.554E-03 -0.554E-03
   4.594 -0.531E-03 -0.531E-03
   4.604 -0.508E-03 -0.508E-03
   4.614 -0.486E-03 -0.486E-03
   4.624 -0.465E-03 -0.465E-03
   4.634 -0.444E-03 -0.444E-03
   4.644 -0.424E-03 -0.424E-03
   4.654 -0.405E-03 -0.405E-03
   4.664 -0.387E-03 -0.387E-03
   4.674 -0.369E-03 -0.369E-03
   4.684 -0.351E-03 -0.351E-03
   4.694 -0.335E-03 -0.335E-03
   4.704 -0.319E-03 -0.319E-03
   4.714 -0.303E-03 -0.303E-03
   4.724 -0.288E-03 -0.288E-03
   4.734 -0.274E-03 -0.274E-03
   4.744 -0.260E-03 -0.260E-03
   4.754 -0.247E-03 -0.247E-03
   4.764 -0.234E-03 -0.234E-03
   4.774 -0.222E-03 -0.222E-03
   4.784 -0.211E-03 -0.211E-03
   4.794 -0.200E-03 -0.200E-03
   4.804 -0.189E-03 -0.189E-03
   4.814 -0.179E-03 -0.179E-03
   4.824 -0.169E-03 -0.169E-03
   4.834 -0.160E-03 -0.160E-03
   4.844 -0.151E-03 -0.151E-03
   4.854 -0.143E-03 -0.143E-03
   4.864 -0.135E-03 -0.135E-03
   4.874 -0.127E-03 -0.127E-03
   4.884 -0.120E-03 -0.120E-03
   4.894 -0.113E-03 -0.113E-03
   4.904 -0.106E-03 -0.106E-03
   4.914 -0.999E-04 -0.999E-04
   4.924 -0.940E-04 -0.940E-04
   4.934 -0.884E-04 -0.884E-04
   4.944 -0.830E-04 -0.830E-04
   4.954 -0.780E-04 -0.780E-04
   4.964 -0.732E-04 -0.732E-04
   4.974 -0.687E-04 -0.687E-04
   4.984 -0.644E-04 -0.644E-04
   4.994 -0.604E-04 -0.604E-04
   5.004 -0.566E-04 -0.566E-04
   5.014 -0.530E-04 -0.530E-04
   5.024 -0.496E-04 -0.496E-04
   5.034 -0.464E-04 -0.464E-04
   5.044 -0.434E-04 -0.434E-04
   5.054 -0.405E-04 -0.405E-04
   5.064 -0.379E-04 -0.379E-04
   5.074 -0.354E-04 -0.354E-04
   5.084 -0.330E-04 -0.330E-04
   5.094 -0.308E-04 -0.308E-04
   5.104 -0.287E-04 -0.287E-04
   5.114 -0.267E-04 -0.267E-04
   5.124 -0.249E-04 -0.249E-04
   5.134 -0.232E-04 -0.232E-04
   5.144 -0.216E-04 -0.216E-04
   5.154 -0.200E-04 -0.200E-04
   5.164 -0.186E-04 -0.186E-04
   5.174 -0.173E-04 -0.173E-04
   5.184 -0.161E-04 -0.161E-04
   5.194 -0.149E-04 -0.149E-04
   5.204 -0.138E-04 -0.138E-04
   5.214 -0.128E-04 -0.128E-04
   5.224 -0.119E-04 -0.119E-04
   5.234 -0.110E-04 -0.110E-04
   5.244 -0.102E-04 -0.102E-04
   5.254 -0.943E-05 -0.943E-05
   5.264 -0.872E-05 -0.872E-05
   5.274 -0.806E-05 -0.806E-05
   5.284 -0.745E-05 -0.745E-05
   5.294 -0.688E-05 -0.688E-05
