# E (eV)   ldos(E)   pdos(E)   
 -27.116 -0.320E-06 -0.320E-06
 -27.106 -0.345E-06 -0.345E-06
 -27.096 -0.372E-06 -0.372E-06
 -27.086 -0.402E-06 -0.402E-06
 -27.076 -0.433E-06 -0.433E-06
 -27.066 -0.466E-06 -0.466E-06
 -27.056 -0.501E-06 -0.501E-06
 -27.046 -0.540E-06 -0.540E-06
 -27.036 -0.580E-06 -0.580E-06
 -27.026 -0.623E-06 -0.623E-06
 -27.016 -0.670E-06 -0.670E-06
 -27.006 -0.719E-06 -0.719E-06
 -26.996 -0.771E-06 -0.771E-06
 -26.986 -0.827E-06 -0.827E-06
 -26.976 -0.887E-06 -0.887E-06
 -26.966 -0.950E-06 -0.950E-06
 -26.956 -0.102E-05 -0.102E-05
 -26.946 -0.109E-05 -0.109E-05
 -26.936 -0.116E-05 -0.116E-05
 -26.926 -0.124E-05 -0.124E-05
 -26.916 -0.133E-05 -0.133E-05
 -26.906 -0.142E-05 -0.142E-05
 -26.896 -0.152E-05 -0.152E-05
 -26.886 -0.162E-05 -0.162E-05
 -26.876 -0.172E-05 -0.172E-05
 -26.866 -0.184E-05 -0.184E-05
 -26.856 -0.195E-05 -0.195E-05
 -26.846 -0.208E-05 -0.208E-05
 -26.836 -0.221E-05 -0.221E-05
 -26.826 -0.235E-05 -0.235E-05
 -26.816 -0.250E-05 -0.250E-05
 -26.806 -0.265E-05 -0.265E-05
 -26.796 -0.282E-05 -0.282E-05
 -26.786 -0.299E-05 -0.299E-05
 -26.776 -0.317E-05 -0.317E-05
 -26.766 -0.336E-05 -0.336E-05
 -26.756 -0.355E-05 -0.355E-05
 -26.746 -0.376E-05 -0.376E-05
 -26.736 -0.398E-05 -0.398E-05
 -26.726 -0.420E-05 -0.420E-05
 -26.716 -0.444E-05 -0.444E-05
 -26.706 -0.469E-05 -0.469E-05
 -26.696 -0.494E-05 -0.494E-05
 -26.686 -0.521E-05 -0.521E-05
 -26.676 -0.549E-05 -0.549E-05
 -26.666 -0.579E-05 -0.579E-05
 -26.656 -0.609E-05 -0.609E-05
 -26.646 -0.640E-05 -0.640E-05
 -26.636 -0.673E-05 -0.673E-05
 -26.626 -0.707E-05 -0.707E-05
 -26.616 -0.742E-05 -0.742E-05
 -26.606 -0.779E-05 -0.779E-05
 -26.596 -0.816E-05 -0.816E-05
 -26.586 -0.855E-05 -0.855E-05
 -26.576 -0.896E-05 -0.896E-05
 -26.566 -0.937E-05 -0.937E-05
 -26.556 -0.980E-05 -0.980E-05
 -26.546 -0.102E-04 -0.102E-04
 -26.536 -0.107E-04 -0.107E-04
 -26.526 -0.112E-04 -0.112E-04
 -26.516 -0.116E-04 -0.116E-04
 -26.506 -0.121E-04 -0.121E-04
 -26.496 -0.126E-04 -0.126E-04
 -26.486 -0.131E-04 -0.131E-04
 -26.476 -0.136E-04 -0.136E-04
 -26.466 -0.142E-04 -0.142E-04
 -26.456 -0.147E-04 -0.147E-04
 -26.446 -0.153E-04 -0.153E-04
 -26.436 -0.158E-04 -0.158E-04
 -26.426 -0.164E-04 -0.164E-04
 -26.416 -0.169E-04 -0.169E-04
 -26.406 -0.175E-04 -0.175E-04
 -26.396 -0.181E-04 -0.181E-04
 -26.386 -0.187E-04 -0.187E-04
 -26.376 -0.193E-04 -0.193E-04
 -26.366 -0.198E-04 -0.198E-04
 -26.356 -0.204E-04 -0.204E-04
 -26.346 -0.210E-04 -0.210E-04
 -26.336 -0.216E-04 -0.216E-04
 -26.326 -0.221E-04 -0.221E-04
 -26.316 -0.227E-04 -0.227E-04
 -26.306 -0.232E-04 -0.232E-04
 -26.296 -0.238E-04 -0.238E-04
 -26.286 -0.243E-04 -0.243E-04
 -26.276 -0.248E-04 -0.248E-04
 -26.266 -0.252E-04 -0.252E-04
 -26.256 -0.257E-04 -0.257E-04
 -26.246 -0.261E-04 -0.261E-04
 -26.236 -0.265E-04 -0.265E-04
 -26.226 -0.269E-04 -0.269E-04
 -26.216 -0.272E-04 -0.272E-04
 -26.206 -0.276E-04 -0.276E-04
 -26.196 -0.278E-04 -0.278E-04
 -26.186 -0.280E-04 -0.280E-04
 -26.176 -0.282E-04 -0.282E-04
 -26.166 -0.283E-04 -0.283E-04
 -26.156 -0.284E-04 -0.284E-04
 -26.146 -0.284E-04 -0.284E-04
 -26.136 -0.283E-04 -0.283E-04
 -26.126 -0.282E-04 -0.282E-04
 -26.116 -0.280E-04 -0.280E-04
 -26.106 -0.277E-04 -0.277E-04
 -26.096 -0.273E-04 -0.273E-04
 -26.086 -0.269E-04 -0.269E-04
 -26.076 -0.264E-04 -0.264E-04
 -26.066 -0.258E-04 -0.258E-04
 -26.056 -0.250E-04 -0.250E-04
 -26.046 -0.242E-04 -0.242E-04
 -26.036 -0.233E-04 -0.233E-04
 -26.026 -0.222E-04 -0.222E-04
 -26.016 -0.211E-04 -0.211E-04
 -26.006 -0.198E-04 -0.198E-04
 -25.996 -0.184E-04 -0.184E-04
 -25.986 -0.169E-04 -0.169E-04
 -25.976 -0.152E-04 -0.152E-04
 -25.966 -0.134E-04 -0.134E-04
 -25.956 -0.114E-04 -0.114E-04
 -25.946 -0.932E-05 -0.932E-05
 -25.936 -0.706E-05 -0.706E-05
 -25.926 -0.465E-05 -0.465E-05
 -25.916 -0.208E-05 -0.208E-05
 -25.906  0.649E-06  0.649E-06
 -25.896  0.355E-05  0.355E-05
 -25.886  0.662E-05  0.662E-05
 -25.876  0.987E-05  0.987E-05
 -25.866  0.133E-04  0.133E-04
 -25.856  0.169E-04  0.169E-04
 -25.846  0.207E-04  0.207E-04
 -25.836  0.247E-04  0.247E-04
 -25.826  0.288E-04  0.288E-04
 -25.816  0.332E-04  0.332E-04
 -25.806  0.377E-04  0.377E-04
 -25.796  0.424E-04  0.424E-04
 -25.786  0.473E-04  0.473E-04
 -25.776  0.525E-04  0.525E-04
 -25.766  0.578E-04  0.578E-04
 -25.756  0.633E-04  0.633E-04
 -25.746  0.690E-04  0.690E-04
 -25.736  0.748E-04  0.748E-04
 -25.726  0.809E-04  0.809E-04
 -25.716  0.872E-04  0.872E-04
 -25.706  0.936E-04  0.936E-04
 -25.696  0.100E-03  0.100E-03
 -25.686  0.107E-03  0.107E-03
 -25.676  0.114E-03  0.114E-03
 -25.666  0.121E-03  0.121E-03
 -25.656  0.129E-03  0.129E-03
 -25.646  0.136E-03  0.136E-03
 -25.636  0.144E-03  0.144E-03
 -25.626  0.152E-03  0.152E-03
 -25.616  0.159E-03  0.159E-03
 -25.606  0.168E-03  0.168E-03
 -25.596  0.176E-03  0.176E-03
 -25.586  0.184E-03  0.184E-03
 -25.576  0.193E-03  0.193E-03
 -25.566  0.201E-03  0.201E-03
 -25.556  0.210E-03  0.210E-03
 -25.546  0.219E-03  0.219E-03
 -25.536  0.227E-03  0.227E-03
 -25.526  0.236E-03  0.236E-03
 -25.516  0.245E-03  0.245E-03
 -25.506  0.254E-03  0.254E-03
 -25.496  0.263E-03  0.263E-03
 -25.486  0.273E-03  0.273E-03
 -25.476  0.282E-03  0.282E-03
 -25.466  0.291E-03  0.291E-03
 -25.456  0.300E-03  0.300E-03
 -25.446  0.309E-03  0.309E-03
 -25.436  0.318E-03  0.318E-03
 -25.426  0.327E-03  0.327E-03
 -25.416  0.336E-03  0.336E-03
 -25.406  0.345E-03  0.345E-03
 -25.396  0.354E-03  0.354E-03
 -25.386  0.362E-03  0.362E-03
 -25.376  0.371E-03  0.371E-03
 -25.366  0.379E-03  0.379E-03
 -25.356  0.388E-03  0.388E-03
 -25.346  0.396E-03  0.396E-03
 -25.336  0.404E-03  0.404E-03
 -25.326  0.412E-03  0.412E-03
 -25.316  0.419E-03  0.419E-03
 -25.306  0.427E-03  0.427E-03
 -25.296  0.434E-03  0.434E-03
 -25.286  0.441E-03  0.441E-03
 -25.276  0.448E-03  0.448E-03
 -25.266  0.454E-03  0.454E-03
 -25.256  0.460E-03  0.460E-03
 -25.246  0.466E-03  0.466E-03
 -25.236  0.472E-03  0.472E-03
 -25.226  0.477E-03  0.477E-03
 -25.216  0.483E-03  0.483E-03
 -25.206  0.487E-03  0.487E-03
 -25.196  0.492E-03  0.492E-03
 -25.186  0.496E-03  0.496E-03
 -25.176  0.500E-03  0.500E-03
 -25.166  0.503E-03  0.503E-03
 -25.156  0.506E-03  0.506E-03
 -25.146  0.509E-03  0.509E-03
 -25.136  0.512E-03  0.512E-03
 -25.126  0.514E-03  0.514E-03
 -25.116  0.515E-03  0.515E-03
 -25.106  0.517E-03  0.517E-03
 -25.096  0.518E-03  0.518E-03
 -25.086  0.518E-03  0.518E-03
 -25.076  0.519E-03  0.519E-03
 -25.066  0.518E-03  0.518E-03
 -25.056  0.518E-03  0.518E-03
 -25.046  0.517E-03  0.517E-03
 -25.036  0.516E-03  0.516E-03
 -25.026  0.514E-03  0.514E-03
 -25.016  0.512E-03  0.512E-03
 -25.006  0.510E-03  0.510E-03
 -24.996  0.507E-03  0.507E-03
 -24.986  0.504E-03  0.504E-03
 -24.976  0.500E-03  0.500E-03
 -24.966  0.497E-03  0.497E-03
 -24.956  0.493E-03  0.493E-03
 -24.946  0.488E-03  0.488E-03
 -24.936  0.483E-03  0.483E-03
 -24.926  0.478E-03  0.478E-03
 -24.916  0.473E-03  0.473E-03
 -24.906  0.467E-03  0.467E-03
 -24.896  0.461E-03  0.461E-03
 -24.886  0.455E-03  0.455E-03
 -24.876  0.449E-03  0.449E-03
 -24.866  0.442E-03  0.442E-03
 -24.856  0.435E-03  0.435E-03
 -24.846  0.428E-03  0.428E-03
 -24.836  0.421E-03  0.421E-03
 -24.826  0.413E-03  0.413E-03
 -24.816  0.405E-03  0.405E-03
 -24.806  0.397E-03  0.397E-03
 -24.796  0.389E-03  0.389E-03
 -24.786  0.381E-03  0.381E-03
 -24.776  0.372E-03  0.372E-03
 -24.766  0.364E-03  0.364E-03
 -24.756  0.355E-03  0.355E-03
 -24.746  0.346E-03  0.346E-03
 -24.736  0.337E-03  0.337E-03
 -24.726  0.328E-03  0.328E-03
 -24.716  0.320E-03  0.320E-03
 -24.706  0.310E-03  0.310E-03
 -24.696  0.301E-03  0.301E-03
 -24.686  0.292E-03  0.292E-03
 -24.676  0.283E-03  0.283E-03
 -24.666  0.274E-03  0.274E-03
 -24.656  0.265E-03  0.265E-03
 -24.646  0.256E-03  0.256E-03
 -24.636  0.247E-03  0.247E-03
 -24.626  0.238E-03  0.238E-03
 -24.616  0.229E-03  0.229E-03
 -24.606  0.220E-03  0.220E-03
 -24.596  0.211E-03  0.211E-03
 -24.586  0.203E-03  0.203E-03
 -24.576  0.194E-03  0.194E-03
 -24.566  0.186E-03  0.186E-03
 -24.556  0.177E-03  0.177E-03
 -24.546  0.169E-03  0.169E-03
 -24.536  0.161E-03  0.161E-03
 -24.526  0.153E-03  0.153E-03
 -24.516  0.145E-03  0.145E-03
 -24.506  0.137E-03  0.137E-03
 -24.496  0.130E-03  0.130E-03
 -24.486  0.122E-03  0.122E-03
 -24.476  0.115E-03  0.115E-03
 -24.466  0.108E-03  0.108E-03
 -24.456  0.101E-03  0.101E-03
 -24.446  0.948E-04  0.948E-04
 -24.436  0.883E-04  0.883E-04
 -24.426  0.820E-04  0.820E-04
 -24.416  0.759E-04  0.759E-04
 -24.406  0.700E-04  0.700E-04
 -24.396  0.642E-04  0.642E-04
 -24.386  0.587E-04  0.587E-04
 -24.376  0.534E-04  0.534E-04
 -24.366  0.482E-04  0.482E-04
 -24.356  0.433E-04  0.433E-04
 -24.346  0.385E-04  0.385E-04
 -24.336  0.339E-04  0.339E-04
 -24.326  0.295E-04  0.295E-04
 -24.316  0.253E-04  0.253E-04
 -24.306  0.213E-04  0.213E-04
 -24.296  0.175E-04  0.175E-04
 -24.286  0.139E-04  0.139E-04
 -24.276  0.104E-04  0.104E-04
 -24.266  0.716E-05  0.716E-05
 -24.256  0.406E-05  0.406E-05
 -24.246  0.113E-05  0.113E-05
 -24.236 -0.163E-05 -0.163E-05
 -24.226 -0.423E-05 -0.423E-05
 -24.216 -0.666E-05 -0.666E-05
 -24.206 -0.894E-05 -0.894E-05
 -24.196 -0.111E-04 -0.111E-04
 -24.186 -0.130E-04 -0.130E-04
 -24.176 -0.149E-04 -0.149E-04
 -24.166 -0.166E-04 -0.166E-04
 -24.156 -0.181E-04 -0.181E-04
 -24.146 -0.196E-04 -0.196E-04
 -24.136 -0.209E-04 -0.209E-04
 -24.126 -0.220E-04 -0.220E-04
 -24.116 -0.231E-04 -0.231E-04
 -24.106 -0.241E-04 -0.241E-04
 -24.096 -0.249E-04 -0.249E-04
 -24.086 -0.256E-04 -0.256E-04
 -24.076 -0.263E-04 -0.263E-04
 -24.066 -0.268E-04 -0.268E-04
 -24.056 -0.273E-04 -0.273E-04
 -24.046 -0.276E-04 -0.276E-04
 -24.036 -0.279E-04 -0.279E-04
 -24.026 -0.281E-04 -0.281E-04
 -24.016 -0.283E-04 -0.283E-04
 -24.006 -0.284E-04 -0.284E-04
 -23.996 -0.284E-04 -0.284E-04
 -23.986 -0.283E-04 -0.283E-04
 -23.976 -0.282E-04 -0.282E-04
 -23.966 -0.281E-04 -0.281E-04
 -23.956 -0.278E-04 -0.278E-04
 -23.946 -0.276E-04 -0.276E-04
 -23.936 -0.273E-04 -0.273E-04
 -23.926 -0.270E-04 -0.270E-04
 -23.916 -0.266E-04 -0.266E-04
 -23.906 -0.262E-04 -0.262E-04
 -23.896 -0.258E-04 -0.258E-04
 -23.886 -0.253E-04 -0.253E-04
 -23.876 -0.249E-04 -0.249E-04
 -23.866 -0.244E-04 -0.244E-04
 -23.856 -0.238E-04 -0.238E-04
 -23.846 -0.233E-04 -0.233E-04
 -23.836 -0.228E-04 -0.228E-04
 -23.826 -0.222E-04 -0.222E-04
 -23.816 -0.217E-04 -0.217E-04
 -23.806 -0.211E-04 -0.211E-04
 -23.796 -0.205E-04 -0.205E-04
 -23.786 -0.199E-04 -0.199E-04
 -23.776 -0.193E-04 -0.193E-04
 -23.766 -0.188E-04 -0.188E-04
 -23.756 -0.182E-04 -0.182E-04
 -23.746 -0.176E-04 -0.176E-04
 -23.736 -0.170E-04 -0.170E-04
 -23.726 -0.165E-04 -0.165E-04
 -23.716 -0.159E-04 -0.159E-04
 -23.706 -0.154E-04 -0.154E-04
 -23.696 -0.148E-04 -0.148E-04
 -23.686 -0.143E-04 -0.143E-04
 -23.676 -0.137E-04 -0.137E-04
 -23.666 -0.132E-04 -0.132E-04
 -23.656 -0.127E-04 -0.127E-04
 -23.646 -0.122E-04 -0.122E-04
 -23.636 -0.117E-04 -0.117E-04
 -23.626 -0.112E-04 -0.112E-04
 -23.616 -0.108E-04 -0.108E-04
 -23.606 -0.103E-04 -0.103E-04
 -23.596 -0.987E-05 -0.987E-05
 -23.586 -0.944E-05 -0.944E-05
 -23.576 -0.903E-05 -0.903E-05
 -23.566 -0.862E-05 -0.862E-05
 -23.556 -0.823E-05 -0.823E-05
 -23.546 -0.785E-05 -0.785E-05
 -23.536 -0.748E-05 -0.748E-05
 -23.526 -0.713E-05 -0.713E-05
 -23.516 -0.679E-05 -0.679E-05
 -23.506 -0.646E-05 -0.646E-05
 -23.496 -0.614E-05 -0.614E-05
 -23.486 -0.584E-05 -0.584E-05
 -23.476 -0.554E-05 -0.554E-05
 -23.466 -0.526E-05 -0.526E-05
 -23.456 -0.499E-05 -0.499E-05
 -23.446 -0.473E-05 -0.473E-05
 -23.436 -0.448E-05 -0.448E-05
 -23.426 -0.424E-05 -0.424E-05
 -23.416 -0.401E-05 -0.401E-05
 -23.406 -0.380E-05 -0.380E-05
 -23.396 -0.359E-05 -0.359E-05
 -23.386 -0.339E-05 -0.339E-05
 -23.376 -0.320E-05 -0.320E-05
 -23.366 -0.302E-05 -0.302E-05
 -23.356 -0.285E-05 -0.285E-05
 -23.346 -0.268E-05 -0.268E-05
 -23.336 -0.253E-05 -0.253E-05
 -23.326 -0.238E-05 -0.238E-05
 -23.316 -0.224E-05 -0.224E-05
 -23.306 -0.210E-05 -0.210E-05
 -23.296 -0.198E-05 -0.198E-05
 -23.286 -0.186E-05 -0.186E-05
 -23.276 -0.174E-05 -0.174E-05
 -23.266 -0.163E-05 -0.163E-05
 -23.256 -0.153E-05 -0.153E-05
 -23.246 -0.144E-05 -0.144E-05
 -23.236 -0.134E-05 -0.134E-05
 -23.226 -0.126E-05 -0.126E-05
 -23.216 -0.118E-05 -0.118E-05
 -23.206 -0.110E-05 -0.110E-05
 -23.196 -0.103E-05 -0.103E-05
 -23.186 -0.961E-06 -0.961E-06
 -23.176 -0.898E-06 -0.898E-06
 -23.166 -0.837E-06 -0.837E-06
 -23.156 -0.781E-06 -0.781E-06
 -23.146 -0.728E-06 -0.728E-06
 -23.136 -0.678E-06 -0.678E-06
 -23.126 -0.632E-06 -0.632E-06
 -23.116 -0.588E-06 -0.588E-06
 -23.106 -0.547E-06 -0.547E-06
 -23.096 -0.509E-06 -0.509E-06
 -23.086 -0.473E-06 -0.473E-06
 -23.076 -0.439E-06 -0.439E-06
 -23.066 -0.408E-06 -0.408E-06
 -23.056 -0.378E-06 -0.378E-06
 -23.046 -0.351E-06 -0.351E-06
 -23.036 -0.326E-06 -0.326E-06
 -23.026 -0.302E-06 -0.302E-06
 -23.016 -0.280E-06 -0.280E-06
 -23.006 -0.259E-06 -0.259E-06
 -22.996 -0.240E-06 -0.240E-06
 -22.986 -0.222E-06 -0.222E-06
 -22.976 -0.206E-06 -0.206E-06
 -22.966 -0.191E-06 -0.191E-06
 -22.956 -0.177E-06 -0.177E-06
 -22.946 -0.164E-06 -0.164E-06
 -22.936 -0.152E-06 -0.152E-06
 -22.926 -0.140E-06 -0.140E-06
 -22.916 -0.130E-06 -0.130E-06
 -22.906 -0.121E-06 -0.121E-06
 -22.896 -0.112E-06 -0.112E-06
 -22.886 -0.105E-06 -0.105E-06
 -22.876 -0.975E-07 -0.975E-07
 -22.866 -0.911E-07 -0.911E-07
 -22.856 -0.854E-07 -0.854E-07
 -22.846 -0.802E-07 -0.802E-07
 -22.836 -0.756E-07 -0.756E-07
 -22.826 -0.716E-07 -0.716E-07
 -22.816 -0.682E-07 -0.682E-07
 -22.806 -0.652E-07 -0.652E-07
 -22.796 -0.628E-07 -0.628E-07
 -22.786 -0.609E-07 -0.609E-07
 -22.776 -0.594E-07 -0.594E-07
 -22.766 -0.585E-07 -0.585E-07
 -22.756 -0.580E-07 -0.580E-07
 -22.746 -0.580E-07 -0.580E-07
 -22.736 -0.585E-07 -0.585E-07
 -22.726 -0.594E-07 -0.594E-07
 -22.716 -0.609E-07 -0.609E-07
 -22.706 -0.629E-07 -0.629E-07
 -22.696 -0.654E-07 -0.654E-07
 -22.686 -0.685E-07 -0.685E-07
 -22.676 -0.721E-07 -0.721E-07
 -22.666 -0.764E-07 -0.764E-07
 -22.656 -0.812E-07 -0.812E-07
 -22.646 -0.868E-07 -0.868E-07
 -22.636 -0.930E-07 -0.930E-07
 -22.626 -0.100E-06 -0.100E-06
 -22.616 -0.108E-06 -0.108E-06
 -22.606 -0.116E-06 -0.116E-06
 -22.596 -0.126E-06 -0.126E-06
 -22.586 -0.136E-06 -0.136E-06
 -22.576 -0.148E-06 -0.148E-06
 -22.566 -0.161E-06 -0.161E-06
 -22.556 -0.174E-06 -0.174E-06
 -22.546 -0.189E-06 -0.189E-06
 -22.536 -0.206E-06 -0.206E-06
 -22.526 -0.224E-06 -0.224E-06
 -22.516 -0.243E-06 -0.243E-06
 -22.506 -0.265E-06 -0.265E-06
 -22.496 -0.287E-06 -0.287E-06
 -22.486 -0.312E-06 -0.312E-06
 -22.476 -0.339E-06 -0.339E-06
 -22.466 -0.369E-06 -0.369E-06
 -22.456 -0.400E-06 -0.400E-06
 -22.446 -0.434E-06 -0.434E-06
 -22.436 -0.471E-06 -0.471E-06
 -22.426 -0.511E-06 -0.511E-06
 -22.416 -0.554E-06 -0.554E-06
 -22.406 -0.600E-06 -0.600E-06
 -22.396 -0.650E-06 -0.650E-06
 -22.386 -0.704E-06 -0.704E-06
 -22.376 -0.762E-06 -0.762E-06
 -22.366 -0.824E-06 -0.824E-06
 -22.356 -0.891E-06 -0.891E-06
 -22.346 -0.962E-06 -0.962E-06
 -22.336 -0.104E-05 -0.104E-05
 -22.326 -0.112E-05 -0.112E-05
 -22.316 -0.121E-05 -0.121E-05
 -22.306 -0.131E-05 -0.131E-05
 -22.296 -0.141E-05 -0.141E-05
 -22.286 -0.152E-05 -0.152E-05
 -22.276 -0.163E-05 -0.163E-05
 -22.266 -0.176E-05 -0.176E-05
 -22.256 -0.189E-05 -0.189E-05
 -22.246 -0.203E-05 -0.203E-05
 -22.236 -0.218E-05 -0.218E-05
 -22.226 -0.234E-05 -0.234E-05
 -22.216 -0.252E-05 -0.252E-05
 -22.206 -0.270E-05 -0.270E-05
 -22.196 -0.289E-05 -0.289E-05
 -22.186 -0.310E-05 -0.310E-05
 -22.176 -0.332E-05 -0.332E-05
 -22.166 -0.356E-05 -0.356E-05
 -22.156 -0.381E-05 -0.381E-05
 -22.146 -0.407E-05 -0.407E-05
 -22.136 -0.435E-05 -0.435E-05
 -22.126 -0.465E-05 -0.465E-05
 -22.116 -0.496E-05 -0.496E-05
 -22.106 -0.530E-05 -0.530E-05
 -22.096 -0.565E-05 -0.565E-05
 -22.086 -0.602E-05 -0.602E-05
 -22.076 -0.641E-05 -0.641E-05
 -22.066 -0.683E-05 -0.683E-05
 -22.056 -0.727E-05 -0.727E-05
 -22.046 -0.773E-05 -0.773E-05
 -22.036 -0.821E-05 -0.821E-05
 -22.026 -0.873E-05 -0.873E-05
 -22.016 -0.927E-05 -0.927E-05
 -22.006 -0.983E-05 -0.983E-05
 -21.996 -0.104E-04 -0.104E-04
 -21.986 -0.111E-04 -0.111E-04
 -21.976 -0.117E-04 -0.117E-04
 -21.966 -0.124E-04 -0.124E-04
 -21.956 -0.131E-04 -0.131E-04
 -21.946 -0.139E-04 -0.139E-04
 -21.936 -0.147E-04 -0.147E-04
 -21.926 -0.155E-04 -0.155E-04
 -21.916 -0.163E-04 -0.163E-04
 -21.906 -0.172E-04 -0.172E-04
 -21.896 -0.182E-04 -0.182E-04
 -21.886 -0.192E-04 -0.192E-04
 -21.876 -0.202E-04 -0.202E-04
 -21.866 -0.212E-04 -0.212E-04
 -21.856 -0.223E-04 -0.223E-04
 -21.846 -0.235E-04 -0.235E-04
 -21.836 -0.247E-04 -0.247E-04
 -21.826 -0.259E-04 -0.259E-04
 -21.816 -0.271E-04 -0.271E-04
 -21.806 -0.285E-04 -0.285E-04
 -21.796 -0.298E-04 -0.298E-04
 -21.786 -0.312E-04 -0.312E-04
 -21.776 -0.327E-04 -0.327E-04
 -21.766 -0.342E-04 -0.342E-04
 -21.756 -0.357E-04 -0.357E-04
 -21.746 -0.373E-04 -0.373E-04
 -21.736 -0.389E-04 -0.389E-04
 -21.726 -0.406E-04 -0.406E-04
 -21.716 -0.423E-04 -0.423E-04
 -21.706 -0.440E-04 -0.440E-04
 -21.696 -0.458E-04 -0.458E-04
 -21.686 -0.476E-04 -0.476E-04
 -21.676 -0.495E-04 -0.495E-04
 -21.666 -0.514E-04 -0.514E-04
 -21.656 -0.533E-04 -0.533E-04
 -21.646 -0.553E-04 -0.553E-04
 -21.636 -0.573E-04 -0.573E-04
 -21.626 -0.593E-04 -0.593E-04
 -21.616 -0.613E-04 -0.613E-04
 -21.606 -0.634E-04 -0.634E-04
 -21.596 -0.655E-04 -0.655E-04
 -21.586 -0.676E-04 -0.676E-04
 -21.576 -0.697E-04 -0.697E-04
 -21.566 -0.718E-04 -0.718E-04
 -21.556 -0.739E-04 -0.739E-04
 -21.546 -0.760E-04 -0.760E-04
 -21.536 -0.780E-04 -0.780E-04
 -21.526 -0.801E-04 -0.801E-04
 -21.516 -0.822E-04 -0.822E-04
 -21.506 -0.842E-04 -0.842E-04
 -21.496 -0.862E-04 -0.862E-04
 -21.486 -0.881E-04 -0.881E-04
 -21.476 -0.900E-04 -0.900E-04
 -21.466 -0.919E-04 -0.919E-04
 -21.456 -0.937E-04 -0.937E-04
 -21.446 -0.954E-04 -0.954E-04
 -21.436 -0.970E-04 -0.970E-04
 -21.426 -0.986E-04 -0.986E-04
 -21.416 -0.100E-03 -0.100E-03
 -21.406 -0.101E-03 -0.101E-03
 -21.396 -0.103E-03 -0.103E-03
 -21.386 -0.104E-03 -0.104E-03
 -21.376 -0.105E-03 -0.105E-03
 -21.366 -0.106E-03 -0.106E-03
 -21.356 -0.107E-03 -0.107E-03
 -21.346 -0.107E-03 -0.107E-03
 -21.336 -0.108E-03 -0.108E-03
 -21.326 -0.108E-03 -0.108E-03
 -21.316 -0.108E-03 -0.108E-03
 -21.306 -0.108E-03 -0.108E-03
 -21.296 -0.108E-03 -0.108E-03
 -21.286 -0.107E-03 -0.107E-03
 -21.276 -0.107E-03 -0.107E-03
 -21.266 -0.106E-03 -0.106E-03
 -21.256 -0.105E-03 -0.105E-03
 -21.246 -0.104E-03 -0.104E-03
 -21.236 -0.102E-03 -0.102E-03
 -21.226 -0.101E-03 -0.101E-03
 -21.216 -0.989E-04 -0.989E-04
 -21.206 -0.968E-04 -0.968E-04
 -21.196 -0.945E-04 -0.945E-04
 -21.186 -0.920E-04 -0.920E-04
 -21.176 -0.892E-04 -0.892E-04
 -21.166 -0.863E-04 -0.863E-04
 -21.156 -0.832E-04 -0.832E-04
 -21.146 -0.799E-04 -0.799E-04
 -21.136 -0.764E-04 -0.764E-04
 -21.126 -0.727E-04 -0.727E-04
 -21.116 -0.689E-04 -0.689E-04
 -21.106 -0.649E-04 -0.649E-04
 -21.096 -0.608E-04 -0.608E-04
 -21.086 -0.566E-04 -0.566E-04
 -21.076 -0.523E-04 -0.523E-04
 -21.066 -0.480E-04 -0.480E-04
 -21.056 -0.436E-04 -0.436E-04
 -21.046 -0.392E-04 -0.392E-04
 -21.036 -0.349E-04 -0.349E-04
 -21.026 -0.307E-04 -0.307E-04
 -21.016 -0.265E-04 -0.265E-04
 -21.006 -0.226E-04 -0.226E-04
 -20.996 -0.188E-04 -0.188E-04
 -20.986 -0.153E-04 -0.153E-04
 -20.976 -0.121E-04 -0.121E-04
 -20.966 -0.930E-05 -0.930E-05
 -20.956 -0.691E-05 -0.691E-05
 -20.946 -0.502E-05 -0.502E-05
 -20.936 -0.369E-05 -0.369E-05
 -20.926 -0.301E-05 -0.301E-05
 -20.916 -0.306E-05 -0.306E-05
 -20.906 -0.390E-05 -0.390E-05
 -20.896 -0.564E-05 -0.564E-05
 -20.886 -0.836E-05 -0.836E-05
 -20.876 -0.122E-04 -0.122E-04
 -20.866 -0.171E-04 -0.171E-04
 -20.856 -0.234E-04 -0.234E-04
 -20.846 -0.310E-04 -0.310E-04
 -20.836 -0.402E-04 -0.402E-04
 -20.826 -0.510E-04 -0.510E-04
 -20.816 -0.635E-04 -0.635E-04
 -20.806 -0.778E-04 -0.778E-04
 -20.796 -0.942E-04 -0.942E-04
 -20.786 -0.113E-03 -0.113E-03
 -20.776 -0.133E-03 -0.133E-03
 -20.766 -0.157E-03 -0.157E-03
 -20.756 -0.182E-03 -0.182E-03
 -20.746 -0.211E-03 -0.211E-03
 -20.736 -0.242E-03 -0.242E-03
 -20.726 -0.276E-03 -0.276E-03
 -20.716 -0.314E-03 -0.314E-03
 -20.706 -0.354E-03 -0.354E-03
 -20.696 -0.398E-03 -0.398E-03
 -20.686 -0.446E-03 -0.446E-03
 -20.676 -0.498E-03 -0.498E-03
 -20.666 -0.553E-03 -0.553E-03
 -20.656 -0.613E-03 -0.613E-03
 -20.646 -0.676E-03 -0.676E-03
 -20.636 -0.744E-03 -0.744E-03
 -20.626 -0.817E-03 -0.817E-03
 -20.616 -0.894E-03 -0.894E-03
 -20.606 -0.976E-03 -0.976E-03
 -20.596 -0.106E-02 -0.106E-02
 -20.586 -0.116E-02 -0.116E-02
 -20.576 -0.125E-02 -0.125E-02
 -20.566 -0.136E-02 -0.136E-02
 -20.556 -0.146E-02 -0.146E-02
 -20.546 -0.158E-02 -0.158E-02
 -20.536 -0.170E-02 -0.170E-02
 -20.526 -0.182E-02 -0.182E-02
 -20.516 -0.195E-02 -0.195E-02
 -20.506 -0.209E-02 -0.209E-02
 -20.496 -0.223E-02 -0.223E-02
 -20.486 -0.238E-02 -0.238E-02
 -20.476 -0.253E-02 -0.253E-02
 -20.466 -0.269E-02 -0.269E-02
 -20.456 -0.286E-02 -0.286E-02
 -20.446 -0.303E-02 -0.303E-02
 -20.436 -0.321E-02 -0.321E-02
 -20.426 -0.339E-02 -0.339E-02
 -20.416 -0.358E-02 -0.358E-02
 -20.406 -0.377E-02 -0.377E-02
 -20.396 -0.397E-02 -0.397E-02
 -20.386 -0.417E-02 -0.417E-02
 -20.376 -0.438E-02 -0.438E-02
 -20.366 -0.459E-02 -0.459E-02
 -20.356 -0.481E-02 -0.481E-02
 -20.346 -0.502E-02 -0.502E-02
 -20.336 -0.525E-02 -0.525E-02
 -20.326 -0.547E-02 -0.547E-02
 -20.316 -0.570E-02 -0.570E-02
 -20.306 -0.593E-02 -0.593E-02
 -20.296 -0.616E-02 -0.616E-02
 -20.286 -0.639E-02 -0.639E-02
 -20.276 -0.662E-02 -0.662E-02
 -20.266 -0.685E-02 -0.685E-02
 -20.256 -0.708E-02 -0.708E-02
 -20.246 -0.731E-02 -0.731E-02
 -20.236 -0.754E-02 -0.754E-02
 -20.226 -0.776E-02 -0.776E-02
 -20.216 -0.797E-02 -0.797E-02
 -20.206 -0.818E-02 -0.818E-02
 -20.196 -0.839E-02 -0.839E-02
 -20.186 -0.858E-02 -0.858E-02
 -20.176 -0.877E-02 -0.877E-02
 -20.166 -0.895E-02 -0.895E-02
 -20.156 -0.911E-02 -0.911E-02
 -20.146 -0.926E-02 -0.926E-02
 -20.136 -0.940E-02 -0.940E-02
 -20.126 -0.953E-02 -0.953E-02
 -20.116 -0.963E-02 -0.963E-02
 -20.106 -0.972E-02 -0.972E-02
 -20.096 -0.979E-02 -0.979E-02
 -20.086 -0.984E-02 -0.984E-02
 -20.076 -0.986E-02 -0.986E-02
 -20.066 -0.986E-02 -0.986E-02
 -20.056 -0.984E-02 -0.984E-02
 -20.046 -0.978E-02 -0.978E-02
 -20.036 -0.970E-02 -0.970E-02
 -20.026 -0.959E-02 -0.959E-02
 -20.016 -0.944E-02 -0.944E-02
 -20.006 -0.925E-02 -0.925E-02
 -19.996 -0.904E-02 -0.904E-02
 -19.986 -0.878E-02 -0.878E-02
 -19.976 -0.848E-02 -0.848E-02
 -19.966 -0.814E-02 -0.814E-02
 -19.956 -0.775E-02 -0.775E-02
 -19.946 -0.732E-02 -0.732E-02
 -19.936 -0.684E-02 -0.684E-02
 -19.926 -0.631E-02 -0.631E-02
 -19.916 -0.573E-02 -0.573E-02
 -19.906 -0.509E-02 -0.509E-02
 -19.896 -0.440E-02 -0.440E-02
 -19.886 -0.365E-02 -0.365E-02
 -19.876 -0.284E-02 -0.284E-02
 -19.866 -0.197E-02 -0.197E-02
 -19.856 -0.104E-02 -0.104E-02
 -19.846 -0.431E-04 -0.431E-04
 -19.836  0.102E-02  0.102E-02
 -19.826  0.215E-02  0.215E-02
 -19.816  0.335E-02  0.335E-02
 -19.806  0.461E-02  0.461E-02
 -19.796  0.595E-02  0.595E-02
 -19.786  0.736E-02  0.736E-02
 -19.776  0.885E-02  0.885E-02
 -19.766  0.104E-01  0.104E-01
 -19.756  0.120E-01  0.120E-01
 -19.746  0.138E-01  0.138E-01
 -19.736  0.155E-01  0.155E-01
 -19.726  0.174E-01  0.174E-01
 -19.716  0.194E-01  0.194E-01
 -19.706  0.214E-01  0.214E-01
 -19.696  0.235E-01  0.235E-01
 -19.686  0.257E-01  0.257E-01
 -19.676  0.279E-01  0.279E-01
 -19.666  0.302E-01  0.302E-01
 -19.656  0.326E-01  0.326E-01
 -19.646  0.351E-01  0.351E-01
 -19.636  0.377E-01  0.377E-01
 -19.626  0.403E-01  0.403E-01
 -19.616  0.430E-01  0.430E-01
 -19.606  0.458E-01  0.458E-01
 -19.596  0.487E-01  0.487E-01
 -19.586  0.516E-01  0.516E-01
 -19.576  0.546E-01  0.546E-01
 -19.566  0.576E-01  0.576E-01
 -19.556  0.607E-01  0.607E-01
 -19.546  0.639E-01  0.639E-01
 -19.536  0.671E-01  0.671E-01
 -19.526  0.704E-01  0.704E-01
 -19.516  0.737E-01  0.737E-01
 -19.506  0.771E-01  0.771E-01
 -19.496  0.805E-01  0.805E-01
 -19.486  0.840E-01  0.840E-01
 -19.476  0.875E-01  0.875E-01
 -19.466  0.910E-01  0.910E-01
 -19.456  0.946E-01  0.946E-01
 -19.446  0.982E-01  0.982E-01
 -19.436  0.102E+00  0.102E+00
 -19.426  0.105E+00  0.105E+00
 -19.416  0.109E+00  0.109E+00
 -19.406  0.113E+00  0.113E+00
 -19.396  0.116E+00  0.116E+00
 -19.386  0.120E+00  0.120E+00
 -19.376  0.124E+00  0.124E+00
 -19.366  0.127E+00  0.127E+00
 -19.356  0.131E+00  0.131E+00
 -19.346  0.134E+00  0.134E+00
 -19.336  0.138E+00  0.138E+00
 -19.326  0.141E+00  0.141E+00
 -19.316  0.145E+00  0.145E+00
 -19.306  0.148E+00  0.148E+00
 -19.296  0.152E+00  0.152E+00
 -19.286  0.155E+00  0.155E+00
 -19.276  0.158E+00  0.158E+00
 -19.266  0.162E+00  0.162E+00
 -19.256  0.165E+00  0.165E+00
 -19.246  0.168E+00  0.168E+00
 -19.236  0.171E+00  0.171E+00
 -19.226  0.174E+00  0.174E+00
 -19.216  0.176E+00  0.176E+00
 -19.206  0.179E+00  0.179E+00
 -19.196  0.182E+00  0.182E+00
 -19.186  0.184E+00  0.184E+00
 -19.176  0.187E+00  0.187E+00
 -19.166  0.189E+00  0.189E+00
 -19.156  0.191E+00  0.191E+00
 -19.146  0.193E+00  0.193E+00
 -19.136  0.195E+00  0.195E+00
 -19.126  0.197E+00  0.197E+00
 -19.116  0.199E+00  0.199E+00
 -19.106  0.200E+00  0.200E+00
 -19.096  0.202E+00  0.202E+00
 -19.086  0.203E+00  0.203E+00
 -19.076  0.204E+00  0.204E+00
 -19.066  0.205E+00  0.205E+00
 -19.056  0.206E+00  0.206E+00
 -19.046  0.206E+00  0.206E+00
 -19.036  0.207E+00  0.207E+00
 -19.026  0.207E+00  0.207E+00
 -19.016  0.208E+00  0.208E+00
 -19.006  0.208E+00  0.208E+00
 -18.996  0.208E+00  0.208E+00
 -18.986  0.207E+00  0.207E+00
 -18.976  0.207E+00  0.207E+00
 -18.966  0.206E+00  0.206E+00
 -18.956  0.206E+00  0.206E+00
 -18.946  0.205E+00  0.205E+00
 -18.936  0.204E+00  0.204E+00
 -18.926  0.203E+00  0.203E+00
 -18.916  0.202E+00  0.202E+00
 -18.906  0.200E+00  0.200E+00
 -18.896  0.199E+00  0.199E+00
 -18.886  0.197E+00  0.197E+00
 -18.876  0.195E+00  0.195E+00
 -18.866  0.193E+00  0.193E+00
 -18.856  0.191E+00  0.191E+00
 -18.846  0.189E+00  0.189E+00
 -18.836  0.187E+00  0.187E+00
 -18.826  0.185E+00  0.185E+00
 -18.816  0.182E+00  0.182E+00
 -18.806  0.179E+00  0.179E+00
 -18.796  0.177E+00  0.177E+00
 -18.786  0.174E+00  0.174E+00
 -18.776  0.171E+00  0.171E+00
 -18.766  0.168E+00  0.168E+00
 -18.756  0.165E+00  0.165E+00
 -18.746  0.162E+00  0.162E+00
 -18.736  0.158E+00  0.158E+00
 -18.726  0.155E+00  0.155E+00
 -18.716  0.152E+00  0.152E+00
 -18.706  0.148E+00  0.148E+00
 -18.696  0.145E+00  0.145E+00
 -18.686  0.141E+00  0.141E+00
 -18.676  0.138E+00  0.138E+00
 -18.666  0.134E+00  0.134E+00
 -18.656  0.130E+00  0.130E+00
 -18.646  0.127E+00  0.127E+00
 -18.636  0.123E+00  0.123E+00
 -18.626  0.119E+00  0.119E+00
 -18.616  0.116E+00  0.116E+00
 -18.606  0.112E+00  0.112E+00
 -18.596  0.108E+00  0.108E+00
 -18.586  0.104E+00  0.104E+00
 -18.576  0.100E+00  0.100E+00
 -18.566  0.967E-01  0.967E-01
 -18.556  0.930E-01  0.930E-01
 -18.546  0.893E-01  0.893E-01
 -18.536  0.856E-01  0.856E-01
 -18.526  0.819E-01  0.819E-01
 -18.516  0.782E-01  0.782E-01
 -18.506  0.746E-01  0.746E-01
 -18.496  0.710E-01  0.710E-01
 -18.486  0.675E-01  0.675E-01
 -18.476  0.640E-01  0.640E-01
 -18.466  0.605E-01  0.605E-01
 -18.456  0.571E-01  0.571E-01
 -18.446  0.537E-01  0.537E-01
 -18.436  0.504E-01  0.504E-01
 -18.426  0.472E-01  0.472E-01
 -18.416  0.440E-01  0.440E-01
 -18.406  0.408E-01  0.408E-01
 -18.396  0.378E-01  0.378E-01
 -18.386  0.347E-01  0.347E-01
 -18.376  0.318E-01  0.318E-01
 -18.366  0.289E-01  0.289E-01
 -18.356  0.261E-01  0.261E-01
 -18.346  0.233E-01  0.233E-01
 -18.336  0.206E-01  0.206E-01
 -18.326  0.180E-01  0.180E-01
 -18.316  0.154E-01  0.154E-01
 -18.306  0.129E-01  0.129E-01
 -18.296  0.105E-01  0.105E-01
 -18.286  0.817E-02  0.817E-02
 -18.276  0.589E-02  0.589E-02
 -18.266  0.368E-02  0.368E-02
 -18.256  0.154E-02  0.154E-02
 -18.246 -0.533E-03 -0.533E-03
 -18.236 -0.253E-02 -0.253E-02
 -18.226 -0.446E-02 -0.446E-02
 -18.216 -0.633E-02 -0.633E-02
 -18.206 -0.812E-02 -0.812E-02
 -18.196 -0.984E-02 -0.984E-02
 -18.186 -0.115E-01 -0.115E-01
 -18.176 -0.131E-01 -0.131E-01
 -18.166 -0.146E-01 -0.146E-01
 -18.156 -0.161E-01 -0.161E-01
 -18.146 -0.175E-01 -0.175E-01
 -18.136 -0.188E-01 -0.188E-01
 -18.126 -0.200E-01 -0.200E-01
 -18.116 -0.212E-01 -0.212E-01
 -18.106 -0.224E-01 -0.224E-01
 -18.096 -0.234E-01 -0.234E-01
 -18.086 -0.244E-01 -0.244E-01
 -18.076 -0.253E-01 -0.253E-01
 -18.066 -0.262E-01 -0.262E-01
 -18.056 -0.270E-01 -0.270E-01
 -18.046 -0.278E-01 -0.278E-01
 -18.036 -0.284E-01 -0.284E-01
 -18.026 -0.291E-01 -0.291E-01
 -18.016 -0.296E-01 -0.296E-01
 -18.006 -0.301E-01 -0.301E-01
 -17.996 -0.305E-01 -0.305E-01
 -17.986 -0.308E-01 -0.308E-01
 -17.976 -0.311E-01 -0.311E-01
 -17.966 -0.313E-01 -0.313E-01
 -17.956 -0.315E-01 -0.315E-01
 -17.946 -0.316E-01 -0.316E-01
 -17.936 -0.316E-01 -0.316E-01
 -17.926 -0.315E-01 -0.315E-01
 -17.916 -0.314E-01 -0.314E-01
 -17.906 -0.311E-01 -0.311E-01
 -17.896 -0.309E-01 -0.309E-01
 -17.886 -0.305E-01 -0.305E-01
 -17.876 -0.300E-01 -0.300E-01
 -17.866 -0.295E-01 -0.295E-01
 -17.856 -0.289E-01 -0.289E-01
 -17.846 -0.282E-01 -0.282E-01
 -17.836 -0.274E-01 -0.274E-01
 -17.826 -0.265E-01 -0.265E-01
 -17.816 -0.256E-01 -0.256E-01
 -17.806 -0.245E-01 -0.245E-01
 -17.796 -0.234E-01 -0.234E-01
 -17.786 -0.221E-01 -0.221E-01
 -17.776 -0.208E-01 -0.208E-01
 -17.766 -0.193E-01 -0.193E-01
 -17.756 -0.178E-01 -0.178E-01
 -17.746 -0.161E-01 -0.161E-01
 -17.736 -0.144E-01 -0.144E-01
 -17.726 -0.125E-01 -0.125E-01
 -17.716 -0.105E-01 -0.105E-01
 -17.706 -0.839E-02 -0.839E-02
 -17.696 -0.617E-02 -0.617E-02
 -17.686 -0.384E-02 -0.384E-02
 -17.676 -0.138E-02 -0.138E-02
 -17.666  0.119E-02  0.119E-02
 -17.656  0.389E-02  0.389E-02
 -17.646  0.671E-02  0.671E-02
 -17.636  0.966E-02  0.966E-02
 -17.626  0.127E-01  0.127E-01
 -17.616  0.159E-01  0.159E-01
 -17.606  0.193E-01  0.193E-01
 -17.596  0.227E-01  0.227E-01
 -17.586  0.263E-01  0.263E-01
 -17.576  0.300E-01  0.300E-01
 -17.566  0.339E-01  0.339E-01
 -17.556  0.379E-01  0.379E-01
 -17.546  0.420E-01  0.420E-01
 -17.536  0.462E-01  0.462E-01
 -17.526  0.506E-01  0.506E-01
 -17.516  0.550E-01  0.550E-01
 -17.506  0.597E-01  0.597E-01
 -17.496  0.644E-01  0.644E-01
 -17.486  0.692E-01  0.692E-01
 -17.476  0.742E-01  0.742E-01
 -17.466  0.793E-01  0.793E-01
 -17.456  0.845E-01  0.845E-01
 -17.446  0.898E-01  0.898E-01
 -17.436  0.952E-01  0.952E-01
 -17.426  0.101E+00  0.101E+00
 -17.416  0.106E+00  0.106E+00
 -17.406  0.112E+00  0.112E+00
 -17.396  0.118E+00  0.118E+00
 -17.386  0.124E+00  0.124E+00
 -17.376  0.130E+00  0.130E+00
 -17.366  0.136E+00  0.136E+00
 -17.356  0.142E+00  0.142E+00
 -17.346  0.148E+00  0.148E+00
 -17.336  0.154E+00  0.154E+00
 -17.326  0.160E+00  0.160E+00
 -17.316  0.167E+00  0.167E+00
 -17.306  0.173E+00  0.173E+00
 -17.296  0.179E+00  0.179E+00
 -17.286  0.186E+00  0.186E+00
 -17.276  0.192E+00  0.192E+00
 -17.266  0.199E+00  0.199E+00
 -17.256  0.205E+00  0.205E+00
 -17.246  0.211E+00  0.211E+00
 -17.236  0.218E+00  0.218E+00
 -17.226  0.224E+00  0.224E+00
 -17.216  0.230E+00  0.230E+00
 -17.206  0.237E+00  0.237E+00
 -17.196  0.243E+00  0.243E+00
 -17.186  0.249E+00  0.249E+00
 -17.176  0.255E+00  0.255E+00
 -17.166  0.261E+00  0.261E+00
 -17.156  0.267E+00  0.267E+00
 -17.146  0.273E+00  0.273E+00
 -17.136  0.279E+00  0.279E+00
 -17.126  0.284E+00  0.284E+00
 -17.116  0.290E+00  0.290E+00
 -17.106  0.295E+00  0.295E+00
 -17.096  0.300E+00  0.300E+00
 -17.086  0.305E+00  0.305E+00
 -17.076  0.310E+00  0.310E+00
 -17.066  0.315E+00  0.315E+00
 -17.056  0.320E+00  0.320E+00
 -17.046  0.324E+00  0.324E+00
 -17.036  0.329E+00  0.329E+00
 -17.026  0.333E+00  0.333E+00
 -17.016  0.336E+00  0.336E+00
 -17.006  0.340E+00  0.340E+00
 -16.996  0.344E+00  0.344E+00
 -16.986  0.347E+00  0.347E+00
 -16.976  0.350E+00  0.350E+00
 -16.966  0.353E+00  0.353E+00
 -16.956  0.356E+00  0.356E+00
 -16.946  0.358E+00  0.358E+00
 -16.936  0.360E+00  0.360E+00
 -16.926  0.362E+00  0.362E+00
 -16.916  0.364E+00  0.364E+00
 -16.906  0.366E+00  0.366E+00
 -16.896  0.367E+00  0.367E+00
 -16.886  0.368E+00  0.368E+00
 -16.876  0.369E+00  0.369E+00
 -16.866  0.370E+00  0.370E+00
 -16.856  0.370E+00  0.370E+00
 -16.846  0.370E+00  0.370E+00
 -16.836  0.370E+00  0.370E+00
 -16.826  0.370E+00  0.370E+00
 -16.816  0.369E+00  0.369E+00
 -16.806  0.369E+00  0.369E+00
 -16.796  0.368E+00  0.368E+00
 -16.786  0.367E+00  0.367E+00
 -16.776  0.365E+00  0.365E+00
 -16.766  0.364E+00  0.364E+00
 -16.756  0.362E+00  0.362E+00
 -16.746  0.360E+00  0.360E+00
 -16.736  0.358E+00  0.358E+00
 -16.726  0.355E+00  0.355E+00
 -16.716  0.353E+00  0.353E+00
 -16.706  0.350E+00  0.350E+00
 -16.696  0.347E+00  0.347E+00
 -16.686  0.344E+00  0.344E+00
 -16.676  0.341E+00  0.341E+00
 -16.666  0.338E+00  0.338E+00
 -16.656  0.334E+00  0.334E+00
 -16.646  0.331E+00  0.331E+00
 -16.636  0.327E+00  0.327E+00
 -16.626  0.323E+00  0.323E+00
 -16.616  0.319E+00  0.319E+00
 -16.606  0.315E+00  0.315E+00
 -16.596  0.311E+00  0.311E+00
 -16.586  0.307E+00  0.307E+00
 -16.576  0.303E+00  0.303E+00
 -16.566  0.298E+00  0.298E+00
 -16.556  0.294E+00  0.294E+00
 -16.546  0.289E+00  0.289E+00
 -16.536  0.285E+00  0.285E+00
 -16.526  0.280E+00  0.280E+00
 -16.516  0.275E+00  0.275E+00
 -16.506  0.271E+00  0.271E+00
 -16.496  0.266E+00  0.266E+00
 -16.486  0.261E+00  0.261E+00
 -16.476  0.256E+00  0.256E+00
 -16.466  0.252E+00  0.252E+00
 -16.456  0.247E+00  0.247E+00
 -16.446  0.242E+00  0.242E+00
 -16.436  0.238E+00  0.238E+00
 -16.426  0.233E+00  0.233E+00
 -16.416  0.228E+00  0.228E+00
 -16.406  0.223E+00  0.223E+00
 -16.396  0.219E+00  0.219E+00
 -16.386  0.214E+00  0.214E+00
 -16.376  0.210E+00  0.210E+00
 -16.366  0.205E+00  0.205E+00
 -16.356  0.201E+00  0.201E+00
 -16.346  0.196E+00  0.196E+00
 -16.336  0.192E+00  0.192E+00
 -16.326  0.188E+00  0.188E+00
 -16.316  0.183E+00  0.183E+00
 -16.306  0.179E+00  0.179E+00
 -16.296  0.175E+00  0.175E+00
 -16.286  0.171E+00  0.171E+00
 -16.276  0.167E+00  0.167E+00
 -16.266  0.163E+00  0.163E+00
 -16.256  0.160E+00  0.160E+00
 -16.246  0.156E+00  0.156E+00
 -16.236  0.152E+00  0.152E+00
 -16.226  0.148E+00  0.148E+00
 -16.216  0.145E+00  0.145E+00
 -16.206  0.141E+00  0.141E+00
 -16.196  0.138E+00  0.138E+00
 -16.186  0.135E+00  0.135E+00
 -16.176  0.132E+00  0.132E+00
 -16.166  0.128E+00  0.128E+00
 -16.156  0.125E+00  0.125E+00
 -16.146  0.122E+00  0.122E+00
 -16.136  0.119E+00  0.119E+00
 -16.126  0.116E+00  0.116E+00
 -16.116  0.113E+00  0.113E+00
 -16.106  0.111E+00  0.111E+00
 -16.096  0.108E+00  0.108E+00
 -16.086  0.105E+00  0.105E+00
 -16.076  0.103E+00  0.103E+00
 -16.066  0.100E+00  0.100E+00
 -16.056  0.977E-01  0.977E-01
 -16.046  0.952E-01  0.952E-01
 -16.036  0.928E-01  0.928E-01
 -16.026  0.905E-01  0.905E-01
 -16.016  0.882E-01  0.882E-01
 -16.006  0.860E-01  0.860E-01
 -15.996  0.838E-01  0.838E-01
 -15.986  0.816E-01  0.816E-01
 -15.976  0.795E-01  0.795E-01
 -15.966  0.775E-01  0.775E-01
 -15.956  0.754E-01  0.754E-01
 -15.946  0.734E-01  0.734E-01
 -15.936  0.715E-01  0.715E-01
 -15.926  0.695E-01  0.695E-01
 -15.916  0.676E-01  0.676E-01
 -15.906  0.658E-01  0.658E-01
 -15.896  0.639E-01  0.639E-01
 -15.886  0.621E-01  0.621E-01
 -15.876  0.604E-01  0.604E-01
 -15.866  0.586E-01  0.586E-01
 -15.856  0.569E-01  0.569E-01
 -15.846  0.552E-01  0.552E-01
 -15.836  0.535E-01  0.535E-01
 -15.826  0.518E-01  0.518E-01
 -15.816  0.502E-01  0.502E-01
 -15.806  0.486E-01  0.486E-01
 -15.796  0.470E-01  0.470E-01
 -15.786  0.454E-01  0.454E-01
 -15.776  0.438E-01  0.438E-01
 -15.766  0.423E-01  0.423E-01
 -15.756  0.408E-01  0.408E-01
 -15.746  0.393E-01  0.393E-01
 -15.736  0.378E-01  0.378E-01
 -15.726  0.364E-01  0.364E-01
 -15.716  0.349E-01  0.349E-01
 -15.706  0.335E-01  0.335E-01
 -15.696  0.321E-01  0.321E-01
 -15.686  0.307E-01  0.307E-01
 -15.676  0.293E-01  0.293E-01
 -15.666  0.280E-01  0.280E-01
 -15.656  0.267E-01  0.267E-01
 -15.646  0.254E-01  0.254E-01
 -15.636  0.241E-01  0.241E-01
 -15.626  0.228E-01  0.228E-01
 -15.616  0.216E-01  0.216E-01
 -15.606  0.203E-01  0.203E-01
 -15.596  0.191E-01  0.191E-01
 -15.586  0.179E-01  0.179E-01
 -15.576  0.168E-01  0.168E-01
 -15.566  0.156E-01  0.156E-01
 -15.556  0.145E-01  0.145E-01
 -15.546  0.134E-01  0.134E-01
 -15.536  0.123E-01  0.123E-01
 -15.526  0.113E-01  0.113E-01
 -15.516  0.103E-01  0.103E-01
 -15.506  0.926E-02  0.926E-02
 -15.496  0.827E-02  0.827E-02
 -15.486  0.731E-02  0.731E-02
 -15.476  0.637E-02  0.637E-02
 -15.466  0.545E-02  0.545E-02
 -15.456  0.456E-02  0.456E-02
 -15.446  0.369E-02  0.369E-02
 -15.436  0.284E-02  0.284E-02
 -15.426  0.201E-02  0.201E-02
 -15.416  0.121E-02  0.121E-02
 -15.406  0.426E-03  0.426E-03
 -15.396 -0.333E-03 -0.333E-03
 -15.386 -0.107E-02 -0.107E-02
 -15.376 -0.179E-02 -0.179E-02
 -15.366 -0.248E-02 -0.248E-02
 -15.356 -0.315E-02 -0.315E-02
 -15.346 -0.381E-02 -0.381E-02
 -15.336 -0.444E-02 -0.444E-02
 -15.326 -0.505E-02 -0.505E-02
 -15.316 -0.564E-02 -0.564E-02
 -15.306 -0.621E-02 -0.621E-02
 -15.296 -0.677E-02 -0.677E-02
 -15.286 -0.730E-02 -0.730E-02
 -15.276 -0.782E-02 -0.782E-02
 -15.266 -0.832E-02 -0.832E-02
 -15.256 -0.881E-02 -0.881E-02
 -15.246 -0.927E-02 -0.927E-02
 -15.236 -0.973E-02 -0.973E-02
 -15.226 -0.102E-01 -0.102E-01
 -15.216 -0.106E-01 -0.106E-01
 -15.206 -0.110E-01 -0.110E-01
 -15.196 -0.114E-01 -0.114E-01
 -15.186 -0.118E-01 -0.118E-01
 -15.176 -0.121E-01 -0.121E-01
 -15.166 -0.125E-01 -0.125E-01
 -15.156 -0.128E-01 -0.128E-01
 -15.146 -0.131E-01 -0.131E-01
 -15.136 -0.134E-01 -0.134E-01
 -15.126 -0.137E-01 -0.137E-01
 -15.116 -0.140E-01 -0.140E-01
 -15.106 -0.143E-01 -0.143E-01
 -15.096 -0.146E-01 -0.146E-01
 -15.086 -0.148E-01 -0.148E-01
 -15.076 -0.151E-01 -0.151E-01
 -15.066 -0.153E-01 -0.153E-01
 -15.056 -0.155E-01 -0.155E-01
 -15.046 -0.157E-01 -0.157E-01
 -15.036 -0.159E-01 -0.159E-01
 -15.026 -0.161E-01 -0.161E-01
 -15.016 -0.163E-01 -0.163E-01
 -15.006 -0.165E-01 -0.165E-01
 -14.996 -0.166E-01 -0.166E-01
 -14.986 -0.167E-01 -0.167E-01
 -14.976 -0.168E-01 -0.168E-01
 -14.966 -0.170E-01 -0.170E-01
 -14.956 -0.170E-01 -0.170E-01
 -14.946 -0.171E-01 -0.171E-01
 -14.936 -0.172E-01 -0.172E-01
 -14.926 -0.172E-01 -0.172E-01
 -14.916 -0.172E-01 -0.172E-01
 -14.906 -0.172E-01 -0.172E-01
 -14.896 -0.172E-01 -0.172E-01
 -14.886 -0.171E-01 -0.171E-01
 -14.876 -0.171E-01 -0.171E-01
 -14.866 -0.170E-01 -0.170E-01
 -14.856 -0.169E-01 -0.169E-01
 -14.846 -0.167E-01 -0.167E-01
 -14.836 -0.165E-01 -0.165E-01
 -14.826 -0.163E-01 -0.163E-01
 -14.816 -0.161E-01 -0.161E-01
 -14.806 -0.158E-01 -0.158E-01
 -14.796 -0.155E-01 -0.155E-01
 -14.786 -0.151E-01 -0.151E-01
 -14.776 -0.147E-01 -0.147E-01
 -14.766 -0.143E-01 -0.143E-01
 -14.756 -0.138E-01 -0.138E-01
 -14.746 -0.133E-01 -0.133E-01
 -14.736 -0.128E-01 -0.128E-01
 -14.726 -0.122E-01 -0.122E-01
 -14.716 -0.115E-01 -0.115E-01
 -14.706 -0.108E-01 -0.108E-01
 -14.696 -0.100E-01 -0.100E-01
 -14.686 -0.921E-02 -0.921E-02
 -14.676 -0.834E-02 -0.834E-02
 -14.666 -0.740E-02 -0.740E-02
 -14.656 -0.641E-02 -0.641E-02
 -14.646 -0.535E-02 -0.535E-02
 -14.636 -0.423E-02 -0.423E-02
 -14.626 -0.304E-02 -0.304E-02
 -14.616 -0.179E-02 -0.179E-02
 -14.606 -0.470E-03 -0.470E-03
 -14.596  0.922E-03  0.922E-03
 -14.586  0.238E-02  0.238E-02
 -14.576  0.392E-02  0.392E-02
 -14.566  0.553E-02  0.553E-02
 -14.556  0.721E-02  0.721E-02
 -14.546  0.897E-02  0.897E-02
 -14.536  0.108E-01  0.108E-01
 -14.526  0.127E-01  0.127E-01
 -14.516  0.147E-01  0.147E-01
 -14.506  0.168E-01  0.168E-01
 -14.496  0.189E-01  0.189E-01
 -14.486  0.211E-01  0.211E-01
 -14.476  0.234E-01  0.234E-01
 -14.466  0.258E-01  0.258E-01
 -14.456  0.283E-01  0.283E-01
 -14.446  0.308E-01  0.308E-01
 -14.436  0.334E-01  0.334E-01
 -14.426  0.361E-01  0.361E-01
 -14.416  0.389E-01  0.389E-01
 -14.406  0.417E-01  0.417E-01
 -14.396  0.446E-01  0.446E-01
 -14.386  0.476E-01  0.476E-01
 -14.376  0.507E-01  0.507E-01
 -14.366  0.538E-01  0.538E-01
 -14.356  0.570E-01  0.570E-01
 -14.346  0.602E-01  0.602E-01
 -14.336  0.635E-01  0.635E-01
 -14.326  0.669E-01  0.669E-01
 -14.316  0.703E-01  0.703E-01
 -14.306  0.738E-01  0.738E-01
 -14.296  0.773E-01  0.773E-01
 -14.286  0.809E-01  0.809E-01
 -14.276  0.845E-01  0.845E-01
 -14.266  0.881E-01  0.881E-01
 -14.256  0.918E-01  0.918E-01
 -14.246  0.955E-01  0.955E-01
 -14.236  0.993E-01  0.993E-01
 -14.226  0.103E+00  0.103E+00
 -14.216  0.107E+00  0.107E+00
 -14.206  0.111E+00  0.111E+00
 -14.196  0.114E+00  0.114E+00
 -14.186  0.118E+00  0.118E+00
 -14.176  0.122E+00  0.122E+00
 -14.166  0.126E+00  0.126E+00
 -14.156  0.130E+00  0.130E+00
 -14.146  0.133E+00  0.133E+00
 -14.136  0.137E+00  0.137E+00
 -14.126  0.141E+00  0.141E+00
 -14.116  0.145E+00  0.145E+00
 -14.106  0.148E+00  0.148E+00
 -14.096  0.152E+00  0.152E+00
 -14.086  0.156E+00  0.156E+00
 -14.076  0.159E+00  0.159E+00
 -14.066  0.163E+00  0.163E+00
 -14.056  0.166E+00  0.166E+00
 -14.046  0.170E+00  0.170E+00
 -14.036  0.173E+00  0.173E+00
 -14.026  0.176E+00  0.176E+00
 -14.016  0.179E+00  0.179E+00
 -14.006  0.182E+00  0.182E+00
 -13.996  0.185E+00  0.185E+00
 -13.986  0.188E+00  0.188E+00
 -13.976  0.191E+00  0.191E+00
 -13.966  0.194E+00  0.194E+00
 -13.956  0.196E+00  0.196E+00
 -13.946  0.199E+00  0.199E+00
 -13.936  0.201E+00  0.201E+00
 -13.926  0.204E+00  0.204E+00
 -13.916  0.206E+00  0.206E+00
 -13.906  0.208E+00  0.208E+00
 -13.896  0.210E+00  0.210E+00
 -13.886  0.212E+00  0.212E+00
 -13.876  0.214E+00  0.214E+00
 -13.866  0.215E+00  0.215E+00
 -13.856  0.217E+00  0.217E+00
 -13.846  0.218E+00  0.218E+00
 -13.836  0.219E+00  0.219E+00
 -13.826  0.220E+00  0.220E+00
 -13.816  0.221E+00  0.221E+00
 -13.806  0.222E+00  0.222E+00
 -13.796  0.223E+00  0.223E+00
 -13.786  0.224E+00  0.224E+00
 -13.776  0.224E+00  0.224E+00
 -13.766  0.225E+00  0.225E+00
 -13.756  0.225E+00  0.225E+00
 -13.746  0.225E+00  0.225E+00
 -13.736  0.225E+00  0.225E+00
 -13.726  0.225E+00  0.225E+00
 -13.716  0.225E+00  0.225E+00
 -13.706  0.224E+00  0.224E+00
 -13.696  0.224E+00  0.224E+00
 -13.686  0.224E+00  0.224E+00
 -13.676  0.223E+00  0.223E+00
 -13.666  0.222E+00  0.222E+00
 -13.656  0.222E+00  0.222E+00
 -13.646  0.221E+00  0.221E+00
 -13.636  0.220E+00  0.220E+00
 -13.626  0.219E+00  0.219E+00
 -13.616  0.218E+00  0.218E+00
 -13.606  0.216E+00  0.216E+00
 -13.596  0.215E+00  0.215E+00
 -13.586  0.214E+00  0.214E+00
 -13.576  0.213E+00  0.213E+00
 -13.566  0.211E+00  0.211E+00
 -13.556  0.210E+00  0.210E+00
 -13.546  0.208E+00  0.208E+00
 -13.536  0.207E+00  0.207E+00
 -13.526  0.205E+00  0.205E+00
 -13.516  0.203E+00  0.203E+00
 -13.506  0.202E+00  0.202E+00
 -13.496  0.200E+00  0.200E+00
 -13.486  0.198E+00  0.198E+00
 -13.476  0.197E+00  0.197E+00
 -13.466  0.195E+00  0.195E+00
 -13.456  0.193E+00  0.193E+00
 -13.446  0.191E+00  0.191E+00
 -13.436  0.190E+00  0.190E+00
 -13.426  0.188E+00  0.188E+00
 -13.416  0.186E+00  0.186E+00
 -13.406  0.185E+00  0.185E+00
 -13.396  0.183E+00  0.183E+00
 -13.386  0.181E+00  0.181E+00
 -13.376  0.180E+00  0.180E+00
 -13.366  0.178E+00  0.178E+00
 -13.356  0.176E+00  0.176E+00
 -13.346  0.175E+00  0.175E+00
 -13.336  0.173E+00  0.173E+00
 -13.326  0.172E+00  0.172E+00
 -13.316  0.170E+00  0.170E+00
 -13.306  0.169E+00  0.169E+00
 -13.296  0.167E+00  0.167E+00
 -13.286  0.166E+00  0.166E+00
 -13.276  0.165E+00  0.165E+00
 -13.266  0.163E+00  0.163E+00
 -13.256  0.162E+00  0.162E+00
 -13.246  0.161E+00  0.161E+00
 -13.236  0.159E+00  0.159E+00
 -13.226  0.158E+00  0.158E+00
 -13.216  0.157E+00  0.157E+00
 -13.206  0.156E+00  0.156E+00
 -13.196  0.155E+00  0.155E+00
 -13.186  0.154E+00  0.154E+00
 -13.176  0.153E+00  0.153E+00
 -13.166  0.152E+00  0.152E+00
 -13.156  0.151E+00  0.151E+00
 -13.146  0.150E+00  0.150E+00
 -13.136  0.149E+00  0.149E+00
 -13.126  0.148E+00  0.148E+00
 -13.116  0.147E+00  0.147E+00
 -13.106  0.146E+00  0.146E+00
 -13.096  0.145E+00  0.145E+00
 -13.086  0.144E+00  0.144E+00
 -13.076  0.143E+00  0.143E+00
 -13.066  0.142E+00  0.142E+00
 -13.056  0.141E+00  0.141E+00
 -13.046  0.140E+00  0.140E+00
 -13.036  0.139E+00  0.139E+00
 -13.026  0.139E+00  0.139E+00
 -13.016  0.138E+00  0.138E+00
 -13.006  0.137E+00  0.137E+00
 -12.996  0.136E+00  0.136E+00
 -12.986  0.135E+00  0.135E+00
 -12.976  0.134E+00  0.134E+00
 -12.966  0.133E+00  0.133E+00
 -12.956  0.132E+00  0.132E+00
 -12.946  0.131E+00  0.131E+00
 -12.936  0.130E+00  0.130E+00
 -12.926  0.129E+00  0.129E+00
 -12.916  0.128E+00  0.128E+00
 -12.906  0.127E+00  0.127E+00
 -12.896  0.125E+00  0.125E+00
 -12.886  0.124E+00  0.124E+00
 -12.876  0.123E+00  0.123E+00
 -12.866  0.122E+00  0.122E+00
 -12.856  0.121E+00  0.121E+00
 -12.846  0.119E+00  0.119E+00
 -12.836  0.118E+00  0.118E+00
 -12.826  0.116E+00  0.116E+00
 -12.816  0.115E+00  0.115E+00
 -12.806  0.114E+00  0.114E+00
 -12.796  0.112E+00  0.112E+00
 -12.786  0.110E+00  0.110E+00
 -12.776  0.109E+00  0.109E+00
 -12.766  0.107E+00  0.107E+00
 -12.756  0.106E+00  0.106E+00
 -12.746  0.104E+00  0.104E+00
 -12.736  0.102E+00  0.102E+00
 -12.726  0.100E+00  0.100E+00
 -12.716  0.986E-01  0.986E-01
 -12.706  0.967E-01  0.967E-01
 -12.696  0.949E-01  0.949E-01
 -12.686  0.930E-01  0.930E-01
 -12.676  0.911E-01  0.911E-01
 -12.666  0.891E-01  0.891E-01
 -12.656  0.872E-01  0.872E-01
 -12.646  0.852E-01  0.852E-01
 -12.636  0.832E-01  0.832E-01
 -12.626  0.811E-01  0.811E-01
 -12.616  0.791E-01  0.791E-01
 -12.606  0.771E-01  0.771E-01
 -12.596  0.750E-01  0.750E-01
 -12.586  0.729E-01  0.729E-01
 -12.576  0.708E-01  0.708E-01
 -12.566  0.688E-01  0.688E-01
 -12.556  0.667E-01  0.667E-01
 -12.546  0.646E-01  0.646E-01
 -12.536  0.625E-01  0.625E-01
 -12.526  0.604E-01  0.604E-01
 -12.516  0.583E-01  0.583E-01
 -12.506  0.563E-01  0.563E-01
 -12.496  0.542E-01  0.542E-01
 -12.486  0.522E-01  0.522E-01
 -12.476  0.501E-01  0.501E-01
 -12.466  0.481E-01  0.481E-01
 -12.456  0.461E-01  0.461E-01
 -12.446  0.441E-01  0.441E-01
 -12.436  0.422E-01  0.422E-01
 -12.426  0.403E-01  0.403E-01
 -12.416  0.384E-01  0.384E-01
 -12.406  0.365E-01  0.365E-01
 -12.396  0.346E-01  0.346E-01
 -12.386  0.328E-01  0.328E-01
 -12.376  0.310E-01  0.310E-01
 -12.366  0.293E-01  0.293E-01
 -12.356  0.276E-01  0.276E-01
 -12.346  0.259E-01  0.259E-01
 -12.336  0.242E-01  0.242E-01
 -12.326  0.226E-01  0.226E-01
 -12.316  0.211E-01  0.211E-01
 -12.306  0.196E-01  0.196E-01
 -12.296  0.181E-01  0.181E-01
 -12.286  0.166E-01  0.166E-01
 -12.276  0.152E-01  0.152E-01
 -12.266  0.139E-01  0.139E-01
 -12.256  0.125E-01  0.125E-01
 -12.246  0.113E-01  0.113E-01
 -12.236  0.100E-01  0.100E-01
 -12.226  0.884E-02  0.884E-02
 -12.216  0.769E-02  0.769E-02
 -12.206  0.658E-02  0.658E-02
 -12.196  0.552E-02  0.552E-02
 -12.186  0.449E-02  0.449E-02
 -12.176  0.351E-02  0.351E-02
 -12.166  0.257E-02  0.257E-02
 -12.156  0.168E-02  0.168E-02
 -12.146  0.819E-03  0.819E-03
 -12.136  0.378E-07  0.378E-07
 -12.126 -0.780E-03 -0.780E-03
 -12.116 -0.152E-02 -0.152E-02
 -12.106 -0.222E-02 -0.222E-02
 -12.096 -0.289E-02 -0.289E-02
 -12.086 -0.352E-02 -0.352E-02
 -12.076 -0.412E-02 -0.412E-02
 -12.066 -0.468E-02 -0.468E-02
 -12.056 -0.521E-02 -0.521E-02
 -12.046 -0.571E-02 -0.571E-02
 -12.036 -0.618E-02 -0.618E-02
 -12.026 -0.661E-02 -0.661E-02
 -12.016 -0.702E-02 -0.702E-02
 -12.006 -0.740E-02 -0.740E-02
 -11.996 -0.776E-02 -0.776E-02
 -11.986 -0.808E-02 -0.808E-02
 -11.976 -0.839E-02 -0.839E-02
 -11.966 -0.867E-02 -0.867E-02
 -11.956 -0.893E-02 -0.893E-02
 -11.946 -0.916E-02 -0.916E-02
 -11.936 -0.938E-02 -0.938E-02
 -11.926 -0.958E-02 -0.958E-02
 -11.916 -0.976E-02 -0.976E-02
 -11.906 -0.992E-02 -0.992E-02
 -11.896 -0.101E-01 -0.101E-01
 -11.886 -0.102E-01 -0.102E-01
 -11.876 -0.103E-01 -0.103E-01
 -11.866 -0.104E-01 -0.104E-01
 -11.856 -0.105E-01 -0.105E-01
 -11.846 -0.106E-01 -0.106E-01
 -11.836 -0.107E-01 -0.107E-01
 -11.826 -0.107E-01 -0.107E-01
 -11.816 -0.108E-01 -0.108E-01
 -11.806 -0.108E-01 -0.108E-01
 -11.796 -0.109E-01 -0.109E-01
 -11.786 -0.109E-01 -0.109E-01
 -11.776 -0.109E-01 -0.109E-01
 -11.766 -0.109E-01 -0.109E-01
 -11.756 -0.109E-01 -0.109E-01
 -11.746 -0.109E-01 -0.109E-01
 -11.736 -0.109E-01 -0.109E-01
 -11.726 -0.109E-01 -0.109E-01
 -11.716 -0.109E-01 -0.109E-01
 -11.706 -0.109E-01 -0.109E-01
 -11.696 -0.109E-01 -0.109E-01
 -11.686 -0.109E-01 -0.109E-01
 -11.676 -0.108E-01 -0.108E-01
 -11.666 -0.108E-01 -0.108E-01
 -11.656 -0.108E-01 -0.108E-01
 -11.646 -0.108E-01 -0.108E-01
 -11.636 -0.107E-01 -0.107E-01
 -11.626 -0.107E-01 -0.107E-01
 -11.616 -0.106E-01 -0.106E-01
 -11.606 -0.106E-01 -0.106E-01
 -11.596 -0.105E-01 -0.105E-01
 -11.586 -0.104E-01 -0.104E-01
 -11.576 -0.104E-01 -0.104E-01
 -11.566 -0.103E-01 -0.103E-01
 -11.556 -0.102E-01 -0.102E-01
 -11.546 -0.101E-01 -0.101E-01
 -11.536 -0.100E-01 -0.100E-01
 -11.526 -0.990E-02 -0.990E-02
 -11.516 -0.978E-02 -0.978E-02
 -11.506 -0.964E-02 -0.964E-02
 -11.496 -0.950E-02 -0.950E-02
 -11.486 -0.934E-02 -0.934E-02
 -11.476 -0.917E-02 -0.917E-02
 -11.466 -0.898E-02 -0.898E-02
 -11.456 -0.878E-02 -0.878E-02
 -11.446 -0.856E-02 -0.856E-02
 -11.436 -0.832E-02 -0.832E-02
 -11.426 -0.807E-02 -0.807E-02
 -11.416 -0.779E-02 -0.779E-02
 -11.406 -0.749E-02 -0.749E-02
 -11.396 -0.717E-02 -0.717E-02
 -11.386 -0.683E-02 -0.683E-02
 -11.376 -0.646E-02 -0.646E-02
 -11.366 -0.607E-02 -0.607E-02
 -11.356 -0.565E-02 -0.565E-02
 -11.346 -0.520E-02 -0.520E-02
 -11.336 -0.472E-02 -0.472E-02
 -11.326 -0.421E-02 -0.421E-02
 -11.316 -0.367E-02 -0.367E-02
 -11.306 -0.309E-02 -0.309E-02
 -11.296 -0.248E-02 -0.248E-02
 -11.286 -0.184E-02 -0.184E-02
 -11.276 -0.116E-02 -0.116E-02
 -11.266 -0.439E-03 -0.439E-03
 -11.256  0.317E-03  0.317E-03
 -11.246  0.111E-02  0.111E-02
 -11.236  0.195E-02  0.195E-02
 -11.226  0.283E-02  0.283E-02
 -11.216  0.374E-02  0.374E-02
 -11.206  0.471E-02  0.471E-02
 -11.196  0.571E-02  0.571E-02
 -11.186  0.676E-02  0.676E-02
 -11.176  0.786E-02  0.786E-02
 -11.166  0.900E-02  0.900E-02
 -11.156  0.102E-01  0.102E-01
 -11.146  0.114E-01  0.114E-01
 -11.136  0.127E-01  0.127E-01
 -11.126  0.140E-01  0.140E-01
 -11.116  0.154E-01  0.154E-01
 -11.106  0.168E-01  0.168E-01
 -11.096  0.183E-01  0.183E-01
 -11.086  0.198E-01  0.198E-01
 -11.076  0.213E-01  0.213E-01
 -11.066  0.229E-01  0.229E-01
 -11.056  0.246E-01  0.246E-01
 -11.046  0.263E-01  0.263E-01
 -11.036  0.280E-01  0.280E-01
 -11.026  0.298E-01  0.298E-01
 -11.016  0.316E-01  0.316E-01
 -11.006  0.335E-01  0.335E-01
 -10.996  0.354E-01  0.354E-01
 -10.986  0.373E-01  0.373E-01
 -10.976  0.393E-01  0.393E-01
 -10.966  0.413E-01  0.413E-01
 -10.956  0.434E-01  0.434E-01
 -10.946  0.454E-01  0.454E-01
 -10.936  0.475E-01  0.475E-01
 -10.926  0.497E-01  0.497E-01
 -10.916  0.518E-01  0.518E-01
 -10.906  0.540E-01  0.540E-01
 -10.896  0.562E-01  0.562E-01
 -10.886  0.585E-01  0.585E-01
 -10.876  0.607E-01  0.607E-01
 -10.866  0.630E-01  0.630E-01
 -10.856  0.653E-01  0.653E-01
 -10.846  0.675E-01  0.675E-01
 -10.836  0.698E-01  0.698E-01
 -10.826  0.721E-01  0.721E-01
 -10.816  0.744E-01  0.744E-01
 -10.806  0.767E-01  0.767E-01
 -10.796  0.790E-01  0.790E-01
 -10.786  0.812E-01  0.812E-01
 -10.776  0.835E-01  0.835E-01
 -10.766  0.857E-01  0.857E-01
 -10.756  0.880E-01  0.880E-01
 -10.746  0.902E-01  0.902E-01
 -10.736  0.924E-01  0.924E-01
 -10.726  0.945E-01  0.945E-01
 -10.716  0.966E-01  0.966E-01
 -10.706  0.987E-01  0.987E-01
 -10.696  0.101E+00  0.101E+00
 -10.686  0.103E+00  0.103E+00
 -10.676  0.105E+00  0.105E+00
 -10.666  0.107E+00  0.107E+00
 -10.656  0.108E+00  0.108E+00
 -10.646  0.110E+00  0.110E+00
 -10.636  0.112E+00  0.112E+00
 -10.626  0.114E+00  0.114E+00
 -10.616  0.115E+00  0.115E+00
 -10.606  0.117E+00  0.117E+00
 -10.596  0.118E+00  0.118E+00
 -10.586  0.120E+00  0.120E+00
 -10.576  0.121E+00  0.121E+00
 -10.566  0.122E+00  0.122E+00
 -10.556  0.124E+00  0.124E+00
 -10.546  0.125E+00  0.125E+00
 -10.536  0.126E+00  0.126E+00
 -10.526  0.127E+00  0.127E+00
 -10.516  0.128E+00  0.128E+00
 -10.506  0.128E+00  0.128E+00
 -10.496  0.129E+00  0.129E+00
 -10.486  0.130E+00  0.130E+00
 -10.476  0.130E+00  0.130E+00
 -10.466  0.130E+00  0.130E+00
 -10.456  0.131E+00  0.131E+00
 -10.446  0.131E+00  0.131E+00
 -10.436  0.131E+00  0.131E+00
 -10.426  0.131E+00  0.131E+00
 -10.416  0.131E+00  0.131E+00
 -10.406  0.131E+00  0.131E+00
 -10.396  0.131E+00  0.131E+00
 -10.386  0.130E+00  0.130E+00
 -10.376  0.130E+00  0.130E+00
 -10.366  0.129E+00  0.129E+00
 -10.356  0.129E+00  0.129E+00
 -10.346  0.128E+00  0.128E+00
 -10.336  0.127E+00  0.127E+00
 -10.326  0.126E+00  0.126E+00
 -10.316  0.125E+00  0.125E+00
 -10.306  0.124E+00  0.124E+00
 -10.296  0.123E+00  0.123E+00
 -10.286  0.122E+00  0.122E+00
 -10.276  0.121E+00  0.121E+00
 -10.266  0.119E+00  0.119E+00
 -10.256  0.118E+00  0.118E+00
 -10.246  0.116E+00  0.116E+00
 -10.236  0.115E+00  0.115E+00
 -10.226  0.113E+00  0.113E+00
 -10.216  0.111E+00  0.111E+00
 -10.206  0.110E+00  0.110E+00
 -10.196  0.108E+00  0.108E+00
 -10.186  0.106E+00  0.106E+00
 -10.176  0.104E+00  0.104E+00
 -10.166  0.102E+00  0.102E+00
 -10.156  0.100E+00  0.100E+00
 -10.146  0.980E-01  0.980E-01
 -10.136  0.959E-01  0.959E-01
 -10.126  0.938E-01  0.938E-01
 -10.116  0.916E-01  0.916E-01
 -10.106  0.894E-01  0.894E-01
 -10.096  0.872E-01  0.872E-01
 -10.086  0.850E-01  0.850E-01
 -10.076  0.827E-01  0.827E-01
 -10.066  0.805E-01  0.805E-01
 -10.056  0.782E-01  0.782E-01
 -10.046  0.759E-01  0.759E-01
 -10.036  0.736E-01  0.736E-01
 -10.026  0.713E-01  0.713E-01
 -10.016  0.690E-01  0.690E-01
 -10.006  0.667E-01  0.667E-01
  -9.996  0.644E-01  0.644E-01
  -9.986  0.622E-01  0.622E-01
  -9.976  0.599E-01  0.599E-01
  -9.966  0.577E-01  0.577E-01
  -9.956  0.554E-01  0.554E-01
  -9.946  0.532E-01  0.532E-01
  -9.936  0.511E-01  0.511E-01
  -9.926  0.489E-01  0.489E-01
  -9.916  0.468E-01  0.468E-01
  -9.906  0.447E-01  0.447E-01
  -9.896  0.426E-01  0.426E-01
  -9.886  0.406E-01  0.406E-01
  -9.876  0.386E-01  0.386E-01
  -9.866  0.366E-01  0.366E-01
  -9.856  0.347E-01  0.347E-01
  -9.846  0.328E-01  0.328E-01
  -9.836  0.310E-01  0.310E-01
  -9.826  0.292E-01  0.292E-01
  -9.816  0.274E-01  0.274E-01
  -9.806  0.257E-01  0.257E-01
  -9.796  0.241E-01  0.241E-01
  -9.786  0.225E-01  0.225E-01
  -9.776  0.209E-01  0.209E-01
  -9.766  0.194E-01  0.194E-01
  -9.756  0.179E-01  0.179E-01
  -9.746  0.165E-01  0.165E-01
  -9.736  0.151E-01  0.151E-01
  -9.726  0.138E-01  0.138E-01
  -9.716  0.125E-01  0.125E-01
  -9.706  0.113E-01  0.113E-01
  -9.696  0.101E-01  0.101E-01
  -9.686  0.902E-02  0.902E-02
  -9.676  0.795E-02  0.795E-02
  -9.666  0.692E-02  0.692E-02
  -9.656  0.594E-02  0.594E-02
  -9.646  0.501E-02  0.501E-02
  -9.636  0.412E-02  0.412E-02
  -9.626  0.328E-02  0.328E-02
  -9.616  0.249E-02  0.249E-02
  -9.606  0.174E-02  0.174E-02
  -9.596  0.103E-02  0.103E-02
  -9.586  0.370E-03  0.370E-03
  -9.576 -0.251E-03 -0.251E-03
  -9.566 -0.832E-03 -0.832E-03
  -9.556 -0.137E-02 -0.137E-02
  -9.546 -0.187E-02 -0.187E-02
  -9.536 -0.234E-02 -0.234E-02
  -9.526 -0.276E-02 -0.276E-02
  -9.516 -0.315E-02 -0.315E-02
  -9.506 -0.351E-02 -0.351E-02
  -9.496 -0.383E-02 -0.383E-02
  -9.486 -0.412E-02 -0.412E-02
  -9.476 -0.437E-02 -0.437E-02
  -9.466 -0.460E-02 -0.460E-02
  -9.456 -0.480E-02 -0.480E-02
  -9.446 -0.497E-02 -0.497E-02
  -9.436 -0.511E-02 -0.511E-02
  -9.426 -0.523E-02 -0.523E-02
  -9.416 -0.532E-02 -0.532E-02
  -9.406 -0.538E-02 -0.538E-02
  -9.396 -0.543E-02 -0.543E-02
  -9.386 -0.545E-02 -0.545E-02
  -9.376 -0.545E-02 -0.545E-02
  -9.366 -0.543E-02 -0.543E-02
  -9.356 -0.539E-02 -0.539E-02
  -9.346 -0.533E-02 -0.533E-02
  -9.336 -0.526E-02 -0.526E-02
  -9.326 -0.517E-02 -0.517E-02
  -9.316 -0.506E-02 -0.506E-02
  -9.306 -0.494E-02 -0.494E-02
  -9.296 -0.480E-02 -0.480E-02
  -9.286 -0.465E-02 -0.465E-02
  -9.276 -0.449E-02 -0.449E-02
  -9.266 -0.432E-02 -0.432E-02
  -9.256 -0.413E-02 -0.413E-02
  -9.246 -0.393E-02 -0.393E-02
  -9.236 -0.373E-02 -0.373E-02
  -9.226 -0.351E-02 -0.351E-02
  -9.216 -0.329E-02 -0.329E-02
  -9.206 -0.305E-02 -0.305E-02
  -9.196 -0.281E-02 -0.281E-02
  -9.186 -0.256E-02 -0.256E-02
  -9.176 -0.230E-02 -0.230E-02
  -9.166 -0.204E-02 -0.204E-02
  -9.156 -0.177E-02 -0.177E-02
  -9.146 -0.149E-02 -0.149E-02
  -9.136 -0.121E-02 -0.121E-02
  -9.126 -0.922E-03 -0.922E-03
  -9.116 -0.628E-03 -0.628E-03
  -9.106 -0.329E-03 -0.329E-03
  -9.096 -0.253E-04 -0.253E-04
  -9.086  0.283E-03  0.283E-03
  -9.076  0.597E-03  0.597E-03
  -9.066  0.914E-03  0.914E-03
  -9.056  0.124E-02  0.124E-02
  -9.046  0.156E-02  0.156E-02
  -9.036  0.189E-02  0.189E-02
  -9.026  0.223E-02  0.223E-02
  -9.016  0.256E-02  0.256E-02
  -9.006  0.290E-02  0.290E-02
  -8.996  0.325E-02  0.325E-02
  -8.986  0.359E-02  0.359E-02
  -8.976  0.394E-02  0.394E-02
  -8.966  0.430E-02  0.430E-02
  -8.956  0.465E-02  0.465E-02
  -8.946  0.501E-02  0.501E-02
  -8.936  0.537E-02  0.537E-02
  -8.926  0.574E-02  0.574E-02
  -8.916  0.610E-02  0.610E-02
  -8.906  0.647E-02  0.647E-02
  -8.896  0.684E-02  0.684E-02
  -8.886  0.721E-02  0.721E-02
  -8.876  0.759E-02  0.759E-02
  -8.866  0.796E-02  0.796E-02
  -8.856  0.834E-02  0.834E-02
  -8.846  0.871E-02  0.871E-02
  -8.836  0.909E-02  0.909E-02
  -8.826  0.947E-02  0.947E-02
  -8.816  0.985E-02  0.985E-02
  -8.806  0.102E-01  0.102E-01
  -8.796  0.106E-01  0.106E-01
  -8.786  0.110E-01  0.110E-01
  -8.776  0.114E-01  0.114E-01
  -8.766  0.117E-01  0.117E-01
  -8.756  0.121E-01  0.121E-01
  -8.746  0.125E-01  0.125E-01
  -8.736  0.129E-01  0.129E-01
  -8.726  0.132E-01  0.132E-01
  -8.716  0.136E-01  0.136E-01
  -8.706  0.140E-01  0.140E-01
  -8.696  0.143E-01  0.143E-01
  -8.686  0.147E-01  0.147E-01
  -8.676  0.151E-01  0.151E-01
  -8.666  0.154E-01  0.154E-01
  -8.656  0.158E-01  0.158E-01
  -8.646  0.161E-01  0.161E-01
  -8.636  0.164E-01  0.164E-01
  -8.626  0.168E-01  0.168E-01
  -8.616  0.171E-01  0.171E-01
  -8.606  0.174E-01  0.174E-01
  -8.596  0.177E-01  0.177E-01
  -8.586  0.180E-01  0.180E-01
  -8.576  0.183E-01  0.183E-01
  -8.566  0.186E-01  0.186E-01
  -8.556  0.189E-01  0.189E-01
  -8.546  0.192E-01  0.192E-01
  -8.536  0.194E-01  0.194E-01
  -8.526  0.197E-01  0.197E-01
  -8.516  0.199E-01  0.199E-01
  -8.506  0.202E-01  0.202E-01
  -8.496  0.204E-01  0.204E-01
  -8.486  0.206E-01  0.206E-01
  -8.476  0.208E-01  0.208E-01
  -8.466  0.210E-01  0.210E-01
  -8.456  0.211E-01  0.211E-01
  -8.446  0.213E-01  0.213E-01
  -8.436  0.215E-01  0.215E-01
  -8.426  0.216E-01  0.216E-01
  -8.416  0.217E-01  0.217E-01
  -8.406  0.218E-01  0.218E-01
  -8.396  0.219E-01  0.219E-01
  -8.386  0.220E-01  0.220E-01
  -8.376  0.221E-01  0.221E-01
  -8.366  0.221E-01  0.221E-01
  -8.356  0.222E-01  0.222E-01
  -8.346  0.222E-01  0.222E-01
  -8.336  0.222E-01  0.222E-01
  -8.326  0.222E-01  0.222E-01
  -8.316  0.222E-01  0.222E-01
  -8.306  0.222E-01  0.222E-01
  -8.296  0.221E-01  0.221E-01
  -8.286  0.221E-01  0.221E-01
  -8.276  0.220E-01  0.220E-01
  -8.266  0.219E-01  0.219E-01
  -8.256  0.218E-01  0.218E-01
  -8.246  0.217E-01  0.217E-01
  -8.236  0.216E-01  0.216E-01
  -8.226  0.214E-01  0.214E-01
  -8.216  0.213E-01  0.213E-01
  -8.206  0.211E-01  0.211E-01
  -8.196  0.209E-01  0.209E-01
  -8.186  0.207E-01  0.207E-01
  -8.176  0.205E-01  0.205E-01
  -8.166  0.203E-01  0.203E-01
  -8.156  0.201E-01  0.201E-01
  -8.146  0.199E-01  0.199E-01
  -8.136  0.196E-01  0.196E-01
  -8.126  0.194E-01  0.194E-01
  -8.116  0.191E-01  0.191E-01
  -8.106  0.188E-01  0.188E-01
  -8.096  0.185E-01  0.185E-01
  -8.086  0.182E-01  0.182E-01
  -8.076  0.179E-01  0.179E-01
  -8.066  0.176E-01  0.176E-01
  -8.056  0.173E-01  0.173E-01
  -8.046  0.170E-01  0.170E-01
  -8.036  0.166E-01  0.166E-01
  -8.026  0.163E-01  0.163E-01
  -8.016  0.159E-01  0.159E-01
  -8.006  0.156E-01  0.156E-01
  -7.996  0.152E-01  0.152E-01
  -7.986  0.149E-01  0.149E-01
  -7.976  0.145E-01  0.145E-01
  -7.966  0.141E-01  0.141E-01
  -7.956  0.138E-01  0.138E-01
  -7.946  0.134E-01  0.134E-01
  -7.936  0.130E-01  0.130E-01
  -7.926  0.127E-01  0.127E-01
  -7.916  0.123E-01  0.123E-01
  -7.906  0.119E-01  0.119E-01
  -7.896  0.115E-01  0.115E-01
  -7.886  0.112E-01  0.112E-01
  -7.876  0.108E-01  0.108E-01
  -7.866  0.104E-01  0.104E-01
  -7.856  0.100E-01  0.100E-01
  -7.846  0.968E-02  0.968E-02
  -7.836  0.931E-02  0.931E-02
  -7.826  0.895E-02  0.895E-02
  -7.816  0.859E-02  0.859E-02
  -7.806  0.823E-02  0.823E-02
  -7.796  0.788E-02  0.788E-02
  -7.786  0.753E-02  0.753E-02
  -7.776  0.719E-02  0.719E-02
  -7.766  0.685E-02  0.685E-02
  -7.756  0.652E-02  0.652E-02
  -7.746  0.619E-02  0.619E-02
  -7.736  0.587E-02  0.587E-02
  -7.726  0.555E-02  0.555E-02
  -7.716  0.525E-02  0.525E-02
  -7.706  0.494E-02  0.494E-02
  -7.696  0.465E-02  0.465E-02
  -7.686  0.436E-02  0.436E-02
  -7.676  0.408E-02  0.408E-02
  -7.666  0.380E-02  0.380E-02
  -7.656  0.354E-02  0.354E-02
  -7.646  0.328E-02  0.328E-02
  -7.636  0.302E-02  0.302E-02
  -7.626  0.278E-02  0.278E-02
  -7.616  0.254E-02  0.254E-02
  -7.606  0.231E-02  0.231E-02
  -7.596  0.209E-02  0.209E-02
  -7.586  0.188E-02  0.188E-02
  -7.576  0.168E-02  0.168E-02
  -7.566  0.148E-02  0.148E-02
  -7.556  0.129E-02  0.129E-02
  -7.546  0.111E-02  0.111E-02
  -7.536  0.938E-03  0.938E-03
  -7.526  0.773E-03  0.773E-03
  -7.516  0.617E-03  0.617E-03
  -7.506  0.468E-03  0.468E-03
  -7.496  0.328E-03  0.328E-03
  -7.486  0.195E-03  0.195E-03
  -7.476  0.702E-04  0.702E-04
  -7.466 -0.468E-04 -0.468E-04
  -7.456 -0.156E-03 -0.156E-03
  -7.446 -0.258E-03 -0.258E-03
  -7.436 -0.352E-03 -0.352E-03
  -7.426 -0.438E-03 -0.438E-03
  -7.416 -0.517E-03 -0.517E-03
  -7.406 -0.589E-03 -0.589E-03
  -7.396 -0.653E-03 -0.653E-03
  -7.386 -0.711E-03 -0.711E-03
  -7.376 -0.761E-03 -0.761E-03
  -7.366 -0.805E-03 -0.805E-03
  -7.356 -0.841E-03 -0.841E-03
  -7.346 -0.871E-03 -0.871E-03
  -7.336 -0.894E-03 -0.894E-03
  -7.326 -0.911E-03 -0.911E-03
  -7.316 -0.922E-03 -0.922E-03
  -7.306 -0.926E-03 -0.926E-03
  -7.296 -0.924E-03 -0.924E-03
  -7.286 -0.916E-03 -0.916E-03
  -7.276 -0.902E-03 -0.902E-03
  -7.266 -0.882E-03 -0.882E-03
  -7.256 -0.857E-03 -0.857E-03
  -7.246 -0.825E-03 -0.825E-03
  -7.236 -0.789E-03 -0.789E-03
  -7.226 -0.747E-03 -0.747E-03
  -7.216 -0.700E-03 -0.700E-03
  -7.206 -0.648E-03 -0.648E-03
  -7.196 -0.591E-03 -0.591E-03
  -7.186 -0.529E-03 -0.529E-03
  -7.176 -0.462E-03 -0.462E-03
  -7.166 -0.390E-03 -0.390E-03
  -7.156 -0.314E-03 -0.314E-03
  -7.146 -0.234E-03 -0.234E-03
  -7.136 -0.149E-03 -0.149E-03
  -7.126 -0.606E-04 -0.606E-04
  -7.116  0.322E-04  0.322E-04
  -7.106  0.129E-03  0.129E-03
  -7.096  0.230E-03  0.230E-03
  -7.086  0.334E-03  0.334E-03
  -7.076  0.442E-03  0.442E-03
  -7.066  0.553E-03  0.553E-03
  -7.056  0.667E-03  0.667E-03
  -7.046  0.785E-03  0.785E-03
  -7.036  0.906E-03  0.906E-03
  -7.026  0.103E-02  0.103E-02
  -7.016  0.116E-02  0.116E-02
  -7.006  0.128E-02  0.128E-02
  -6.996  0.142E-02  0.142E-02
  -6.986  0.155E-02  0.155E-02
  -6.976  0.169E-02  0.169E-02
  -6.966  0.182E-02  0.182E-02
  -6.956  0.196E-02  0.196E-02
  -6.946  0.211E-02  0.211E-02
  -6.936  0.225E-02  0.225E-02
  -6.926  0.239E-02  0.239E-02
  -6.916  0.254E-02  0.254E-02
  -6.906  0.269E-02  0.269E-02
  -6.896  0.284E-02  0.284E-02
  -6.886  0.299E-02  0.299E-02
  -6.876  0.314E-02  0.314E-02
  -6.866  0.329E-02  0.329E-02
  -6.856  0.344E-02  0.344E-02
  -6.846  0.359E-02  0.359E-02
  -6.836  0.374E-02  0.374E-02
  -6.826  0.389E-02  0.389E-02
  -6.816  0.404E-02  0.404E-02
  -6.806  0.419E-02  0.419E-02
  -6.796  0.434E-02  0.434E-02
  -6.786  0.449E-02  0.449E-02
  -6.776  0.464E-02  0.464E-02
  -6.766  0.478E-02  0.478E-02
  -6.756  0.493E-02  0.493E-02
  -6.746  0.507E-02  0.507E-02
  -6.736  0.521E-02  0.521E-02
  -6.726  0.535E-02  0.535E-02
  -6.716  0.549E-02  0.549E-02
  -6.706  0.563E-02  0.563E-02
  -6.696  0.576E-02  0.576E-02
  -6.686  0.589E-02  0.589E-02
  -6.676  0.602E-02  0.602E-02
  -6.666  0.614E-02  0.614E-02
  -6.656  0.626E-02  0.626E-02
  -6.646  0.638E-02  0.638E-02
  -6.636  0.649E-02  0.649E-02
  -6.626  0.661E-02  0.661E-02
  -6.616  0.671E-02  0.671E-02
  -6.606  0.682E-02  0.682E-02
  -6.596  0.692E-02  0.692E-02
  -6.586  0.701E-02  0.701E-02
  -6.576  0.710E-02  0.710E-02
  -6.566  0.719E-02  0.719E-02
  -6.556  0.727E-02  0.727E-02
  -6.546  0.735E-02  0.735E-02
  -6.536  0.742E-02  0.742E-02
  -6.526  0.749E-02  0.749E-02
  -6.516  0.755E-02  0.755E-02
  -6.506  0.761E-02  0.761E-02
  -6.496  0.767E-02  0.767E-02
  -6.486  0.771E-02  0.771E-02
  -6.476  0.776E-02  0.776E-02
  -6.466  0.779E-02  0.779E-02
  -6.456  0.783E-02  0.783E-02
  -6.446  0.785E-02  0.785E-02
  -6.436  0.788E-02  0.788E-02
  -6.426  0.789E-02  0.789E-02
  -6.416  0.790E-02  0.790E-02
  -6.406  0.791E-02  0.791E-02
  -6.396  0.791E-02  0.791E-02
  -6.386  0.791E-02  0.791E-02
  -6.376  0.789E-02  0.789E-02
  -6.366  0.788E-02  0.788E-02
  -6.356  0.786E-02  0.786E-02
  -6.346  0.783E-02  0.783E-02
  -6.336  0.780E-02  0.780E-02
  -6.326  0.777E-02  0.777E-02
  -6.316  0.772E-02  0.772E-02
  -6.306  0.768E-02  0.768E-02
  -6.296  0.763E-02  0.763E-02
  -6.286  0.757E-02  0.757E-02
  -6.276  0.751E-02  0.751E-02
  -6.266  0.745E-02  0.745E-02
  -6.256  0.738E-02  0.738E-02
  -6.246  0.730E-02  0.730E-02
  -6.236  0.723E-02  0.723E-02
  -6.226  0.715E-02  0.715E-02
  -6.216  0.706E-02  0.706E-02
  -6.206  0.697E-02  0.697E-02
  -6.196  0.688E-02  0.688E-02
  -6.186  0.678E-02  0.678E-02
  -6.176  0.668E-02  0.668E-02
  -6.166  0.658E-02  0.658E-02
  -6.156  0.647E-02  0.647E-02
  -6.146  0.636E-02  0.636E-02
  -6.136  0.625E-02  0.625E-02
  -6.126  0.614E-02  0.614E-02
  -6.116  0.602E-02  0.602E-02
  -6.106  0.591E-02  0.591E-02
  -6.096  0.579E-02  0.579E-02
  -6.086  0.566E-02  0.566E-02
  -6.076  0.554E-02  0.554E-02
  -6.066  0.541E-02  0.541E-02
  -6.056  0.529E-02  0.529E-02
  -6.046  0.516E-02  0.516E-02
  -6.036  0.503E-02  0.503E-02
  -6.026  0.490E-02  0.490E-02
  -6.016  0.477E-02  0.477E-02
  -6.006  0.464E-02  0.464E-02
  -5.996  0.451E-02  0.451E-02
  -5.986  0.438E-02  0.438E-02
  -5.976  0.425E-02  0.425E-02
  -5.966  0.412E-02  0.412E-02
  -5.956  0.399E-02  0.399E-02
  -5.946  0.386E-02  0.386E-02
  -5.936  0.373E-02  0.373E-02
  -5.926  0.361E-02  0.361E-02
  -5.916  0.348E-02  0.348E-02
  -5.906  0.335E-02  0.335E-02
  -5.896  0.323E-02  0.323E-02
  -5.886  0.311E-02  0.311E-02
  -5.876  0.298E-02  0.298E-02
  -5.866  0.286E-02  0.286E-02
  -5.856  0.274E-02  0.274E-02
  -5.846  0.263E-02  0.263E-02
  -5.836  0.251E-02  0.251E-02
  -5.826  0.240E-02  0.240E-02
  -5.816  0.229E-02  0.229E-02
  -5.806  0.218E-02  0.218E-02
  -5.796  0.207E-02  0.207E-02
  -5.786  0.196E-02  0.196E-02
  -5.776  0.186E-02  0.186E-02
  -5.766  0.176E-02  0.176E-02
  -5.756  0.166E-02  0.166E-02
  -5.746  0.157E-02  0.157E-02
  -5.736  0.147E-02  0.147E-02
  -5.726  0.138E-02  0.138E-02
  -5.716  0.130E-02  0.130E-02
  -5.706  0.121E-02  0.121E-02
  -5.696  0.113E-02  0.113E-02
  -5.686  0.105E-02  0.105E-02
  -5.676  0.970E-03  0.970E-03
  -5.666  0.894E-03  0.894E-03
  -5.656  0.822E-03  0.822E-03
  -5.646  0.752E-03  0.752E-03
  -5.636  0.685E-03  0.685E-03
  -5.626  0.620E-03  0.620E-03
  -5.616  0.558E-03  0.558E-03
  -5.606  0.498E-03  0.498E-03
  -5.596  0.441E-03  0.441E-03
  -5.586  0.387E-03  0.387E-03
  -5.576  0.335E-03  0.335E-03
  -5.566  0.285E-03  0.285E-03
  -5.556  0.238E-03  0.238E-03
  -5.546  0.193E-03  0.193E-03
  -5.536  0.151E-03  0.151E-03
  -5.526  0.110E-03  0.110E-03
  -5.516  0.725E-04  0.725E-04
  -5.506  0.369E-04  0.369E-04
  -5.496  0.340E-05  0.340E-05
  -5.486 -0.279E-04 -0.279E-04
  -5.476 -0.572E-04 -0.572E-04
  -5.466 -0.844E-04 -0.844E-04
  -5.456 -0.110E-03 -0.110E-03
  -5.446 -0.133E-03 -0.133E-03
  -5.436 -0.154E-03 -0.154E-03
  -5.426 -0.174E-03 -0.174E-03
  -5.416 -0.192E-03 -0.192E-03
  -5.406 -0.208E-03 -0.208E-03
  -5.396 -0.222E-03 -0.222E-03
  -5.386 -0.235E-03 -0.235E-03
  -5.376 -0.246E-03 -0.246E-03
  -5.366 -0.256E-03 -0.256E-03
  -5.356 -0.264E-03 -0.264E-03
  -5.346 -0.271E-03 -0.271E-03
  -5.336 -0.276E-03 -0.276E-03
  -5.326 -0.280E-03 -0.280E-03
  -5.316 -0.283E-03 -0.283E-03
  -5.306 -0.285E-03 -0.285E-03
  -5.296 -0.285E-03 -0.285E-03
  -5.286 -0.284E-03 -0.284E-03
  -5.276 -0.282E-03 -0.282E-03
  -5.266 -0.279E-03 -0.279E-03
  -5.256 -0.276E-03 -0.276E-03
  -5.246 -0.271E-03 -0.271E-03
  -5.236 -0.265E-03 -0.265E-03
  -5.226 -0.258E-03 -0.258E-03
  -5.216 -0.251E-03 -0.251E-03
  -5.206 -0.242E-03 -0.242E-03
  -5.196 -0.233E-03 -0.233E-03
  -5.186 -0.223E-03 -0.223E-03
  -5.176 -0.213E-03 -0.213E-03
  -5.166 -0.201E-03 -0.201E-03
  -5.156 -0.190E-03 -0.190E-03
  -5.146 -0.177E-03 -0.177E-03
  -5.136 -0.164E-03 -0.164E-03
  -5.126 -0.150E-03 -0.150E-03
  -5.116 -0.136E-03 -0.136E-03
  -5.106 -0.121E-03 -0.121E-03
  -5.096 -0.106E-03 -0.106E-03
  -5.086 -0.904E-04 -0.904E-04
  -5.076 -0.743E-04 -0.743E-04
  -5.066 -0.578E-04 -0.578E-04
  -5.056 -0.410E-04 -0.410E-04
  -5.046 -0.237E-04 -0.237E-04
  -5.036 -0.611E-05 -0.611E-05
  -5.026  0.118E-04  0.118E-04
  -5.016  0.300E-04  0.300E-04
  -5.006  0.485E-04  0.485E-04
  -4.996  0.673E-04  0.673E-04
  -4.986  0.863E-04  0.863E-04
  -4.976  0.106E-03  0.106E-03
  -4.966  0.125E-03  0.125E-03
  -4.956  0.145E-03  0.145E-03
  -4.946  0.165E-03  0.165E-03
  -4.936  0.185E-03  0.185E-03
  -4.926  0.205E-03  0.205E-03
  -4.916  0.225E-03  0.225E-03
  -4.906  0.245E-03  0.245E-03
  -4.896  0.266E-03  0.266E-03
  -4.886  0.286E-03  0.286E-03
  -4.876  0.307E-03  0.307E-03
  -4.866  0.327E-03  0.327E-03
  -4.856  0.348E-03  0.348E-03
  -4.846  0.368E-03  0.368E-03
  -4.836  0.389E-03  0.389E-03
  -4.826  0.409E-03  0.409E-03
  -4.816  0.430E-03  0.430E-03
  -4.806  0.450E-03  0.450E-03
  -4.796  0.470E-03  0.470E-03
  -4.786  0.490E-03  0.490E-03
  -4.776  0.510E-03  0.510E-03
  -4.766  0.530E-03  0.530E-03
  -4.756  0.550E-03  0.550E-03
  -4.746  0.569E-03  0.569E-03
  -4.736  0.588E-03  0.588E-03
  -4.726  0.607E-03  0.607E-03
  -4.716  0.626E-03  0.626E-03
  -4.706  0.645E-03  0.645E-03
  -4.696  0.663E-03  0.663E-03
  -4.686  0.680E-03  0.680E-03
  -4.676  0.698E-03  0.698E-03
  -4.666  0.715E-03  0.715E-03
  -4.656  0.732E-03  0.732E-03
  -4.646  0.748E-03  0.748E-03
  -4.636  0.764E-03  0.764E-03
  -4.626  0.779E-03  0.779E-03
  -4.616  0.794E-03  0.794E-03
  -4.606  0.809E-03  0.809E-03
  -4.596  0.823E-03  0.823E-03
  -4.586  0.836E-03  0.836E-03
  -4.576  0.849E-03  0.849E-03
  -4.566  0.862E-03  0.862E-03
  -4.556  0.873E-03  0.873E-03
  -4.546  0.885E-03  0.885E-03
  -4.536  0.895E-03  0.895E-03
  -4.526  0.906E-03  0.906E-03
  -4.516  0.915E-03  0.915E-03
  -4.506  0.924E-03  0.924E-03
  -4.496  0.932E-03  0.932E-03
  -4.486  0.940E-03  0.940E-03
  -4.476  0.946E-03  0.946E-03
  -4.466  0.953E-03  0.953E-03
  -4.456  0.958E-03  0.958E-03
  -4.446  0.963E-03  0.963E-03
  -4.436  0.967E-03  0.967E-03
  -4.426  0.971E-03  0.971E-03
  -4.416  0.974E-03  0.974E-03
  -4.406  0.976E-03  0.976E-03
  -4.396  0.977E-03  0.977E-03
  -4.386  0.978E-03  0.978E-03
  -4.376  0.978E-03  0.978E-03
  -4.366  0.977E-03  0.977E-03
  -4.356  0.976E-03  0.976E-03
  -4.346  0.974E-03  0.974E-03
  -4.336  0.971E-03  0.971E-03
  -4.326  0.968E-03  0.968E-03
  -4.316  0.963E-03  0.963E-03
  -4.306  0.959E-03  0.959E-03
  -4.296  0.953E-03  0.953E-03
  -4.286  0.947E-03  0.947E-03
  -4.276  0.941E-03  0.941E-03
  -4.266  0.933E-03  0.933E-03
  -4.256  0.926E-03  0.926E-03
  -4.246  0.917E-03  0.917E-03
  -4.236  0.908E-03  0.908E-03
  -4.226  0.899E-03  0.899E-03
  -4.216  0.889E-03  0.889E-03
  -4.206  0.878E-03  0.878E-03
  -4.196  0.867E-03  0.867E-03
  -4.186  0.855E-03  0.855E-03
  -4.176  0.843E-03  0.843E-03
  -4.166  0.831E-03  0.831E-03
  -4.156  0.818E-03  0.818E-03
  -4.146  0.805E-03  0.805E-03
  -4.136  0.791E-03  0.791E-03
  -4.126  0.777E-03  0.777E-03
  -4.116  0.763E-03  0.763E-03
  -4.106  0.749E-03  0.749E-03
  -4.096  0.734E-03  0.734E-03
  -4.086  0.719E-03  0.719E-03
  -4.076  0.703E-03  0.703E-03
  -4.066  0.688E-03  0.688E-03
  -4.056  0.672E-03  0.672E-03
  -4.046  0.656E-03  0.656E-03
  -4.036  0.640E-03  0.640E-03
  -4.026  0.624E-03  0.624E-03
  -4.016  0.608E-03  0.608E-03
  -4.006  0.592E-03  0.592E-03
  -3.996  0.576E-03  0.576E-03
  -3.986  0.559E-03  0.559E-03
  -3.976  0.543E-03  0.543E-03
  -3.966  0.527E-03  0.527E-03
  -3.956  0.510E-03  0.510E-03
  -3.946  0.494E-03  0.494E-03
  -3.936  0.478E-03  0.478E-03
  -3.926  0.462E-03  0.462E-03
  -3.916  0.446E-03  0.446E-03
  -3.906  0.431E-03  0.431E-03
  -3.896  0.415E-03  0.415E-03
  -3.886  0.400E-03  0.400E-03
  -3.876  0.385E-03  0.385E-03
  -3.866  0.370E-03  0.370E-03
  -3.856  0.355E-03  0.355E-03
  -3.846  0.340E-03  0.340E-03
  -3.836  0.326E-03  0.326E-03
  -3.826  0.312E-03  0.312E-03
  -3.816  0.298E-03  0.298E-03
  -3.806  0.285E-03  0.285E-03
  -3.796  0.271E-03  0.271E-03
  -3.786  0.259E-03  0.259E-03
  -3.776  0.246E-03  0.246E-03
  -3.766  0.234E-03  0.234E-03
  -3.756  0.222E-03  0.222E-03
  -3.746  0.210E-03  0.210E-03
  -3.736  0.199E-03  0.199E-03
  -3.726  0.188E-03  0.188E-03
  -3.716  0.177E-03  0.177E-03
  -3.706  0.167E-03  0.167E-03
  -3.696  0.157E-03  0.157E-03
  -3.686  0.147E-03  0.147E-03
  -3.676  0.138E-03  0.138E-03
  -3.666  0.129E-03  0.129E-03
  -3.656  0.120E-03  0.120E-03
  -3.646  0.112E-03  0.112E-03
  -3.636  0.104E-03  0.104E-03
  -3.626  0.963E-04  0.963E-04
  -3.616  0.890E-04  0.890E-04
  -3.606  0.821E-04  0.821E-04
  -3.596  0.754E-04  0.754E-04
  -3.586  0.691E-04  0.691E-04
  -3.576  0.631E-04  0.631E-04
  -3.566  0.574E-04  0.574E-04
  -3.556  0.520E-04  0.520E-04
  -3.546  0.469E-04  0.469E-04
  -3.536  0.420E-04  0.420E-04
  -3.526  0.375E-04  0.375E-04
  -3.516  0.332E-04  0.332E-04
  -3.506  0.292E-04  0.292E-04
  -3.496  0.254E-04  0.254E-04
  -3.486  0.219E-04  0.219E-04
  -3.476  0.187E-04  0.187E-04
  -3.466  0.157E-04  0.157E-04
  -3.456  0.129E-04  0.129E-04
  -3.446  0.103E-04  0.103E-04
  -3.436  0.791E-05  0.791E-05
  -3.426  0.574E-05  0.574E-05
  -3.416  0.376E-05  0.376E-05
  -3.406  0.197E-05  0.197E-05
  -3.396  0.360E-06  0.360E-06
  -3.386 -0.109E-05 -0.109E-05
  -3.376 -0.237E-05 -0.237E-05
  -3.366 -0.350E-05 -0.350E-05
  -3.356 -0.449E-05 -0.449E-05
  -3.346 -0.534E-05 -0.534E-05
  -3.336 -0.607E-05 -0.607E-05
  -3.326 -0.667E-05 -0.667E-05
  -3.316 -0.716E-05 -0.716E-05
  -3.306 -0.754E-05 -0.754E-05
  -3.296 -0.783E-05 -0.783E-05
  -3.286 -0.802E-05 -0.802E-05
  -3.276 -0.812E-05 -0.812E-05
  -3.266 -0.815E-05 -0.815E-05
  -3.256 -0.810E-05 -0.810E-05
  -3.246 -0.799E-05 -0.799E-05
  -3.236 -0.782E-05 -0.782E-05
  -3.226 -0.759E-05 -0.759E-05
  -3.216 -0.731E-05 -0.731E-05
  -3.206 -0.699E-05 -0.699E-05
  -3.196 -0.663E-05 -0.663E-05
  -3.186 -0.624E-05 -0.624E-05
  -3.176 -0.581E-05 -0.581E-05
  -3.166 -0.536E-05 -0.536E-05
  -3.156 -0.489E-05 -0.489E-05
  -3.146 -0.440E-05 -0.440E-05
  -3.136 -0.390E-05 -0.390E-05
  -3.126 -0.339E-05 -0.339E-05
  -3.116 -0.287E-05 -0.287E-05
  -3.106 -0.235E-05 -0.235E-05
  -3.096 -0.183E-05 -0.183E-05
  -3.086 -0.130E-05 -0.130E-05
  -3.076 -0.787E-06 -0.787E-06
  -3.066 -0.276E-06 -0.276E-06
  -3.056  0.226E-06  0.226E-06
  -3.046  0.718E-06  0.718E-06
  -3.036  0.120E-05  0.120E-05
  -3.026  0.166E-05  0.166E-05
  -3.016  0.211E-05  0.211E-05
  -3.006  0.255E-05  0.255E-05
  -2.996  0.297E-05  0.297E-05
  -2.986  0.337E-05  0.337E-05
  -2.976  0.375E-05  0.375E-05
  -2.966  0.411E-05  0.411E-05
  -2.956  0.445E-05  0.445E-05
  -2.946  0.477E-05  0.477E-05
  -2.936  0.506E-05  0.506E-05
  -2.926  0.534E-05  0.534E-05
  -2.916  0.560E-05  0.560E-05
  -2.906  0.583E-05  0.583E-05
  -2.896  0.605E-05  0.605E-05
  -2.886  0.624E-05  0.624E-05
  -2.876  0.641E-05  0.641E-05
  -2.866  0.657E-05  0.657E-05
  -2.856  0.670E-05  0.670E-05
  -2.846  0.681E-05  0.681E-05
  -2.836  0.691E-05  0.691E-05
  -2.826  0.699E-05  0.699E-05
  -2.816  0.705E-05  0.705E-05
  -2.806  0.709E-05  0.709E-05
  -2.796  0.712E-05  0.712E-05
  -2.786  0.713E-05  0.713E-05
  -2.776  0.713E-05  0.713E-05
  -2.766  0.711E-05  0.711E-05
  -2.756  0.708E-05  0.708E-05
  -2.746  0.704E-05  0.704E-05
  -2.736  0.699E-05  0.699E-05
  -2.726  0.693E-05  0.693E-05
  -2.716  0.686E-05  0.686E-05
  -2.706  0.678E-05  0.678E-05
  -2.696  0.670E-05  0.670E-05
  -2.686  0.661E-05  0.661E-05
  -2.676  0.651E-05  0.651E-05
  -2.666  0.641E-05  0.641E-05
  -2.656  0.631E-05  0.631E-05
  -2.646  0.620E-05  0.620E-05
  -2.636  0.609E-05  0.609E-05
  -2.626  0.599E-05  0.599E-05
  -2.616  0.588E-05  0.588E-05
  -2.606  0.577E-05  0.577E-05
  -2.596  0.567E-05  0.567E-05
  -2.586  0.557E-05  0.557E-05
  -2.576  0.547E-05  0.547E-05
  -2.566  0.538E-05  0.538E-05
  -2.556  0.530E-05  0.530E-05
  -2.546  0.522E-05  0.522E-05
  -2.536  0.515E-05  0.515E-05
  -2.526  0.508E-05  0.508E-05
  -2.516  0.503E-05  0.503E-05
  -2.506  0.498E-05  0.498E-05
  -2.496  0.495E-05  0.495E-05
  -2.486  0.493E-05  0.493E-05
  -2.476  0.491E-05  0.491E-05
  -2.466  0.491E-05  0.491E-05
  -2.456  0.493E-05  0.493E-05
  -2.446  0.495E-05  0.495E-05
  -2.436  0.499E-05  0.499E-05
  -2.426  0.505E-05  0.505E-05
  -2.416  0.512E-05  0.512E-05
  -2.406  0.520E-05  0.520E-05
  -2.396  0.531E-05  0.531E-05
  -2.386  0.542E-05  0.542E-05
  -2.376  0.556E-05  0.556E-05
  -2.366  0.571E-05  0.571E-05
  -2.356  0.588E-05  0.588E-05
  -2.346  0.606E-05  0.606E-05
  -2.336  0.626E-05  0.626E-05
  -2.326  0.649E-05  0.649E-05
  -2.316  0.672E-05  0.672E-05
  -2.306  0.698E-05  0.698E-05
  -2.296  0.726E-05  0.726E-05
  -2.286  0.755E-05  0.755E-05
  -2.276  0.787E-05  0.787E-05
  -2.266  0.820E-05  0.820E-05
  -2.256  0.855E-05  0.855E-05
  -2.246  0.892E-05  0.892E-05
  -2.236  0.930E-05  0.930E-05
  -2.226  0.971E-05  0.971E-05
  -2.216  0.101E-04  0.101E-04
  -2.206  0.106E-04  0.106E-04
  -2.196  0.110E-04  0.110E-04
  -2.186  0.115E-04  0.115E-04
  -2.176  0.120E-04  0.120E-04
  -2.166  0.125E-04  0.125E-04
  -2.156  0.130E-04  0.130E-04
  -2.146  0.136E-04  0.136E-04
  -2.136  0.141E-04  0.141E-04
  -2.126  0.147E-04  0.147E-04
  -2.116  0.153E-04  0.153E-04
  -2.106  0.159E-04  0.159E-04
  -2.096  0.165E-04  0.165E-04
  -2.086  0.171E-04  0.171E-04
  -2.076  0.178E-04  0.178E-04
  -2.066  0.184E-04  0.184E-04
  -2.056  0.191E-04  0.191E-04
  -2.046  0.198E-04  0.198E-04
  -2.036  0.205E-04  0.205E-04
  -2.026  0.212E-04  0.212E-04
  -2.016  0.219E-04  0.219E-04
  -2.006  0.226E-04  0.226E-04
  -1.996  0.233E-04  0.233E-04
  -1.986  0.240E-04  0.240E-04
  -1.976  0.248E-04  0.248E-04
  -1.966  0.255E-04  0.255E-04
  -1.956  0.262E-04  0.262E-04
  -1.946  0.270E-04  0.270E-04
  -1.936  0.277E-04  0.277E-04
  -1.926  0.284E-04  0.284E-04
  -1.916  0.292E-04  0.292E-04
  -1.906  0.299E-04  0.299E-04
  -1.896  0.307E-04  0.307E-04
  -1.886  0.314E-04  0.314E-04
  -1.876  0.321E-04  0.321E-04
  -1.866  0.329E-04  0.329E-04
  -1.856  0.336E-04  0.336E-04
  -1.846  0.343E-04  0.343E-04
  -1.836  0.350E-04  0.350E-04
  -1.826  0.357E-04  0.357E-04
  -1.816  0.364E-04  0.364E-04
  -1.806  0.371E-04  0.371E-04
  -1.796  0.377E-04  0.377E-04
  -1.786  0.384E-04  0.384E-04
  -1.776  0.390E-04  0.390E-04
  -1.766  0.396E-04  0.396E-04
  -1.756  0.402E-04  0.402E-04
  -1.746  0.408E-04  0.408E-04
  -1.736  0.414E-04  0.414E-04
  -1.726  0.420E-04  0.420E-04
  -1.716  0.425E-04  0.425E-04
  -1.706  0.430E-04  0.430E-04
  -1.696  0.435E-04  0.435E-04
  -1.686  0.440E-04  0.440E-04
  -1.676  0.444E-04  0.444E-04
  -1.666  0.449E-04  0.449E-04
  -1.656  0.453E-04  0.453E-04
  -1.646  0.457E-04  0.457E-04
  -1.636  0.460E-04  0.460E-04
  -1.626  0.464E-04  0.464E-04
  -1.616  0.467E-04  0.467E-04
  -1.606  0.470E-04  0.470E-04
  -1.596  0.472E-04  0.472E-04
  -1.586  0.475E-04  0.475E-04
  -1.576  0.477E-04  0.477E-04
  -1.566  0.479E-04  0.479E-04
  -1.556  0.480E-04  0.480E-04
  -1.546  0.482E-04  0.482E-04
  -1.536  0.483E-04  0.483E-04
  -1.526  0.483E-04  0.483E-04
  -1.516  0.484E-04  0.484E-04
  -1.506  0.484E-04  0.484E-04
  -1.496  0.484E-04  0.484E-04
  -1.486  0.483E-04  0.483E-04
  -1.476  0.483E-04  0.483E-04
  -1.466  0.482E-04  0.482E-04
  -1.456  0.481E-04  0.481E-04
  -1.446  0.479E-04  0.479E-04
  -1.436  0.477E-04  0.477E-04
  -1.426  0.475E-04  0.475E-04
  -1.416  0.473E-04  0.473E-04
  -1.406  0.471E-04  0.471E-04
  -1.396  0.468E-04  0.468E-04
  -1.386  0.465E-04  0.465E-04
  -1.376  0.462E-04  0.462E-04
  -1.366  0.458E-04  0.458E-04
  -1.356  0.455E-04  0.455E-04
  -1.346  0.451E-04  0.451E-04
  -1.336  0.446E-04  0.446E-04
  -1.326  0.442E-04  0.442E-04
  -1.316  0.437E-04  0.437E-04
  -1.306  0.433E-04  0.433E-04
  -1.296  0.428E-04  0.428E-04
  -1.286  0.423E-04  0.423E-04
  -1.276  0.417E-04  0.417E-04
  -1.266  0.412E-04  0.412E-04
  -1.256  0.406E-04  0.406E-04
  -1.246  0.400E-04  0.400E-04
  -1.236  0.394E-04  0.394E-04
  -1.226  0.388E-04  0.388E-04
  -1.216  0.382E-04  0.382E-04
  -1.206  0.376E-04  0.376E-04
  -1.196  0.369E-04  0.369E-04
  -1.186  0.363E-04  0.363E-04
  -1.176  0.356E-04  0.356E-04
  -1.166  0.350E-04  0.350E-04
  -1.156  0.343E-04  0.343E-04
  -1.146  0.336E-04  0.336E-04
  -1.136  0.329E-04  0.329E-04
  -1.126  0.322E-04  0.322E-04
  -1.116  0.315E-04  0.315E-04
  -1.106  0.308E-04  0.308E-04
  -1.096  0.301E-04  0.301E-04
  -1.086  0.294E-04  0.294E-04
  -1.076  0.287E-04  0.287E-04
  -1.066  0.280E-04  0.280E-04
  -1.056  0.273E-04  0.273E-04
  -1.046  0.266E-04  0.266E-04
  -1.036  0.259E-04  0.259E-04
  -1.026  0.252E-04  0.252E-04
  -1.016  0.246E-04  0.246E-04
  -1.006  0.239E-04  0.239E-04
  -0.996  0.232E-04  0.232E-04
  -0.986  0.225E-04  0.225E-04
  -0.976  0.219E-04  0.219E-04
  -0.966  0.212E-04  0.212E-04
  -0.956  0.206E-04  0.206E-04
  -0.946  0.200E-04  0.200E-04
  -0.936  0.193E-04  0.193E-04
  -0.926  0.187E-04  0.187E-04
  -0.916  0.181E-04  0.181E-04
  -0.906  0.175E-04  0.175E-04
  -0.896  0.170E-04  0.170E-04
  -0.886  0.164E-04  0.164E-04
  -0.876  0.158E-04  0.158E-04
  -0.866  0.153E-04  0.153E-04
  -0.856  0.148E-04  0.148E-04
  -0.846  0.143E-04  0.143E-04
  -0.836  0.138E-04  0.138E-04
  -0.826  0.133E-04  0.133E-04
  -0.816  0.128E-04  0.128E-04
  -0.806  0.124E-04  0.124E-04
  -0.796  0.119E-04  0.119E-04
  -0.786  0.115E-04  0.115E-04
  -0.776  0.111E-04  0.111E-04
  -0.766  0.107E-04  0.107E-04
  -0.756  0.104E-04  0.104E-04
  -0.746  0.100E-04  0.100E-04
  -0.736  0.967E-05  0.967E-05
  -0.726  0.936E-05  0.936E-05
  -0.716  0.906E-05  0.906E-05
  -0.706  0.877E-05  0.877E-05
  -0.696  0.851E-05  0.851E-05
  -0.686  0.826E-05  0.826E-05
  -0.676  0.803E-05  0.803E-05
  -0.666  0.781E-05  0.781E-05
  -0.656  0.762E-05  0.762E-05
  -0.646  0.744E-05  0.744E-05
  -0.636  0.728E-05  0.728E-05
  -0.626  0.713E-05  0.713E-05
  -0.616  0.701E-05  0.701E-05
  -0.606  0.690E-05  0.690E-05
  -0.596  0.680E-05  0.680E-05
  -0.586  0.673E-05  0.673E-05
  -0.576  0.667E-05  0.667E-05
  -0.566  0.663E-05  0.663E-05
  -0.556  0.660E-05  0.660E-05
  -0.546  0.659E-05  0.659E-05
  -0.536  0.659E-05  0.659E-05
  -0.526  0.662E-05  0.662E-05
  -0.516  0.665E-05  0.665E-05
  -0.506  0.670E-05  0.670E-05
  -0.496  0.677E-05  0.677E-05
  -0.486  0.685E-05  0.685E-05
  -0.476  0.694E-05  0.694E-05
  -0.466  0.705E-05  0.705E-05
  -0.456  0.718E-05  0.718E-05
  -0.446  0.731E-05  0.731E-05
  -0.436  0.746E-05  0.746E-05
  -0.426  0.762E-05  0.762E-05
  -0.416  0.779E-05  0.779E-05
  -0.406  0.798E-05  0.798E-05
  -0.396  0.817E-05  0.817E-05
  -0.386  0.838E-05  0.838E-05
  -0.376  0.859E-05  0.859E-05
  -0.366  0.882E-05  0.882E-05
  -0.356  0.906E-05  0.906E-05
  -0.346  0.930E-05  0.930E-05
  -0.336  0.955E-05  0.955E-05
  -0.326  0.982E-05  0.982E-05
  -0.316  0.101E-04  0.101E-04
  -0.306  0.104E-04  0.104E-04
  -0.296  0.106E-04  0.106E-04
  -0.286  0.109E-04  0.109E-04
  -0.276  0.112E-04  0.112E-04
  -0.266  0.115E-04  0.115E-04
  -0.256  0.118E-04  0.118E-04
  -0.246  0.121E-04  0.121E-04
  -0.236  0.124E-04  0.124E-04
  -0.226  0.127E-04  0.127E-04
  -0.216  0.130E-04  0.130E-04
  -0.206  0.134E-04  0.134E-04
  -0.196  0.137E-04  0.137E-04
  -0.186  0.140E-04  0.140E-04
  -0.176  0.143E-04  0.143E-04
  -0.166  0.146E-04  0.146E-04
  -0.156  0.149E-04  0.149E-04
  -0.146  0.152E-04  0.152E-04
  -0.136  0.155E-04  0.155E-04
  -0.126  0.158E-04  0.158E-04
  -0.116  0.161E-04  0.161E-04
  -0.106  0.164E-04  0.164E-04
  -0.096  0.167E-04  0.167E-04
  -0.086  0.169E-04  0.169E-04
  -0.076  0.172E-04  0.172E-04
  -0.066  0.174E-04  0.174E-04
  -0.056  0.177E-04  0.177E-04
  -0.046  0.179E-04  0.179E-04
  -0.036  0.181E-04  0.181E-04
  -0.026  0.184E-04  0.184E-04
  -0.016  0.185E-04  0.185E-04
  -0.006  0.187E-04  0.187E-04
   0.004  0.189E-04  0.189E-04
   0.014  0.190E-04  0.190E-04
   0.024  0.192E-04  0.192E-04
   0.034  0.193E-04  0.193E-04
   0.044  0.194E-04  0.194E-04
   0.054  0.195E-04  0.195E-04
   0.064  0.195E-04  0.195E-04
   0.074  0.196E-04  0.196E-04
   0.084  0.196E-04  0.196E-04
   0.094  0.195E-04  0.195E-04
   0.104  0.195E-04  0.195E-04
   0.114  0.194E-04  0.194E-04
   0.124  0.193E-04  0.193E-04
   0.134  0.192E-04  0.192E-04
   0.144  0.190E-04  0.190E-04
   0.154  0.188E-04  0.188E-04
   0.164  0.186E-04  0.186E-04
   0.174  0.183E-04  0.183E-04
   0.184  0.180E-04  0.180E-04
   0.194  0.176E-04  0.176E-04
   0.204  0.172E-04  0.172E-04
   0.214  0.168E-04  0.168E-04
   0.224  0.163E-04  0.163E-04
   0.234  0.157E-04  0.157E-04
   0.244  0.151E-04  0.151E-04
   0.254  0.144E-04  0.144E-04
   0.264  0.136E-04  0.136E-04
   0.274  0.128E-04  0.128E-04
   0.284  0.119E-04  0.119E-04
   0.294  0.110E-04  0.110E-04
   0.304  0.994E-05  0.994E-05
   0.314  0.881E-05  0.881E-05
   0.324  0.759E-05  0.759E-05
   0.334  0.627E-05  0.627E-05
   0.344  0.486E-05  0.486E-05
   0.354  0.333E-05  0.333E-05
   0.364  0.169E-05  0.169E-05
   0.374 -0.695E-07 -0.695E-07
   0.384 -0.196E-05 -0.196E-05
   0.394 -0.398E-05 -0.398E-05
   0.404 -0.615E-05 -0.615E-05
   0.414 -0.847E-05 -0.847E-05
   0.424 -0.110E-04 -0.110E-04
   0.434 -0.136E-04 -0.136E-04
   0.444 -0.164E-04 -0.164E-04
   0.454 -0.195E-04 -0.195E-04
   0.464 -0.227E-04 -0.227E-04
   0.474 -0.261E-04 -0.261E-04
   0.484 -0.298E-04 -0.298E-04
   0.494 -0.337E-04 -0.337E-04
   0.504 -0.378E-04 -0.378E-04
   0.514 -0.423E-04 -0.423E-04
   0.524 -0.470E-04 -0.470E-04
   0.534 -0.520E-04 -0.520E-04
   0.544 -0.573E-04 -0.573E-04
   0.554 -0.629E-04 -0.629E-04
   0.564 -0.689E-04 -0.689E-04
   0.574 -0.752E-04 -0.752E-04
   0.584 -0.819E-04 -0.819E-04
   0.594 -0.890E-04 -0.890E-04
   0.604 -0.965E-04 -0.965E-04
   0.614 -0.105E-03 -0.105E-03
   0.624 -0.113E-03 -0.113E-03
   0.634 -0.122E-03 -0.122E-03
   0.644 -0.131E-03 -0.131E-03
   0.654 -0.141E-03 -0.141E-03
   0.664 -0.152E-03 -0.152E-03
   0.674 -0.163E-03 -0.163E-03
   0.684 -0.174E-03 -0.174E-03
   0.694 -0.187E-03 -0.187E-03
   0.704 -0.200E-03 -0.200E-03
   0.714 -0.213E-03 -0.213E-03
   0.724 -0.228E-03 -0.228E-03
   0.734 -0.243E-03 -0.243E-03
   0.744 -0.259E-03 -0.259E-03
   0.754 -0.275E-03 -0.275E-03
   0.764 -0.293E-03 -0.293E-03
   0.774 -0.311E-03 -0.311E-03
   0.784 -0.330E-03 -0.330E-03
   0.794 -0.350E-03 -0.350E-03
   0.804 -0.371E-03 -0.371E-03
   0.814 -0.393E-03 -0.393E-03
   0.824 -0.416E-03 -0.416E-03
   0.834 -0.440E-03 -0.440E-03
   0.844 -0.465E-03 -0.465E-03
   0.854 -0.491E-03 -0.491E-03
   0.864 -0.519E-03 -0.519E-03
   0.874 -0.547E-03 -0.547E-03
   0.884 -0.576E-03 -0.576E-03
   0.894 -0.607E-03 -0.607E-03
   0.904 -0.639E-03 -0.639E-03
   0.914 -0.672E-03 -0.672E-03
   0.924 -0.706E-03 -0.706E-03
   0.934 -0.742E-03 -0.742E-03
   0.944 -0.779E-03 -0.779E-03
   0.954 -0.817E-03 -0.817E-03
   0.964 -0.856E-03 -0.856E-03
   0.974 -0.896E-03 -0.896E-03
   0.984 -0.938E-03 -0.938E-03
   0.994 -0.981E-03 -0.981E-03
   1.004 -0.103E-02 -0.103E-02
   1.014 -0.107E-02 -0.107E-02
   1.024 -0.112E-02 -0.112E-02
   1.034 -0.117E-02 -0.117E-02
   1.044 -0.122E-02 -0.122E-02
   1.054 -0.127E-02 -0.127E-02
   1.064 -0.132E-02 -0.132E-02
   1.074 -0.137E-02 -0.137E-02
   1.084 -0.142E-02 -0.142E-02
   1.094 -0.148E-02 -0.148E-02
   1.104 -0.153E-02 -0.153E-02
   1.114 -0.159E-02 -0.159E-02
   1.124 -0.165E-02 -0.165E-02
   1.134 -0.171E-02 -0.171E-02
   1.144 -0.177E-02 -0.177E-02
   1.154 -0.182E-02 -0.182E-02
   1.164 -0.188E-02 -0.188E-02
   1.174 -0.194E-02 -0.194E-02
   1.184 -0.200E-02 -0.200E-02
   1.194 -0.206E-02 -0.206E-02
   1.204 -0.212E-02 -0.212E-02
   1.214 -0.218E-02 -0.218E-02
   1.224 -0.224E-02 -0.224E-02
   1.234 -0.230E-02 -0.230E-02
   1.244 -0.236E-02 -0.236E-02
   1.254 -0.242E-02 -0.242E-02
   1.264 -0.247E-02 -0.247E-02
   1.274 -0.252E-02 -0.252E-02
   1.284 -0.258E-02 -0.258E-02
   1.294 -0.263E-02 -0.263E-02
   1.304 -0.268E-02 -0.268E-02
   1.314 -0.272E-02 -0.272E-02
   1.324 -0.276E-02 -0.276E-02
   1.334 -0.280E-02 -0.280E-02
   1.344 -0.284E-02 -0.284E-02
   1.354 -0.287E-02 -0.287E-02
   1.364 -0.290E-02 -0.290E-02
   1.374 -0.293E-02 -0.293E-02
   1.384 -0.294E-02 -0.294E-02
   1.394 -0.296E-02 -0.296E-02
   1.404 -0.297E-02 -0.297E-02
   1.414 -0.297E-02 -0.297E-02
   1.424 -0.297E-02 -0.297E-02
   1.434 -0.296E-02 -0.296E-02
   1.444 -0.294E-02 -0.294E-02
   1.454 -0.292E-02 -0.292E-02
   1.464 -0.288E-02 -0.288E-02
   1.474 -0.284E-02 -0.284E-02
   1.484 -0.279E-02 -0.279E-02
   1.494 -0.273E-02 -0.273E-02
   1.504 -0.266E-02 -0.266E-02
   1.514 -0.258E-02 -0.258E-02
   1.524 -0.249E-02 -0.249E-02
   1.534 -0.239E-02 -0.239E-02
   1.544 -0.228E-02 -0.228E-02
   1.554 -0.215E-02 -0.215E-02
   1.564 -0.202E-02 -0.202E-02
   1.574 -0.187E-02 -0.187E-02
   1.584 -0.170E-02 -0.170E-02
   1.594 -0.152E-02 -0.152E-02
   1.604 -0.133E-02 -0.133E-02
   1.614 -0.112E-02 -0.112E-02
   1.624 -0.894E-03 -0.894E-03
   1.634 -0.654E-03 -0.654E-03
   1.644 -0.397E-03 -0.397E-03
   1.654 -0.123E-03 -0.123E-03
   1.664  0.168E-03  0.168E-03
   1.674  0.477E-03  0.477E-03
   1.684  0.804E-03  0.804E-03
   1.694  0.115E-02  0.115E-02
   1.704  0.151E-02  0.151E-02
   1.714  0.190E-02  0.190E-02
   1.724  0.230E-02  0.230E-02
   1.734  0.272E-02  0.272E-02
   1.744  0.317E-02  0.317E-02
   1.754  0.363E-02  0.363E-02
   1.764  0.412E-02  0.412E-02
   1.774  0.462E-02  0.462E-02
   1.784  0.515E-02  0.515E-02
   1.794  0.570E-02  0.570E-02
   1.804  0.626E-02  0.626E-02
   1.814  0.685E-02  0.685E-02
   1.824  0.747E-02  0.747E-02
   1.834  0.810E-02  0.810E-02
   1.844  0.875E-02  0.875E-02
   1.854  0.943E-02  0.943E-02
   1.864  0.101E-01  0.101E-01
   1.874  0.108E-01  0.108E-01
   1.884  0.116E-01  0.116E-01
   1.894  0.123E-01  0.123E-01
   1.904  0.131E-01  0.131E-01
   1.914  0.139E-01  0.139E-01
   1.924  0.147E-01  0.147E-01
   1.934  0.156E-01  0.156E-01
   1.944  0.164E-01  0.164E-01
   1.954  0.173E-01  0.173E-01
   1.964  0.182E-01  0.182E-01
   1.974  0.191E-01  0.191E-01
   1.984  0.201E-01  0.201E-01
   1.994  0.210E-01  0.210E-01
   2.004  0.220E-01  0.220E-01
   2.014  0.229E-01  0.229E-01
   2.024  0.239E-01  0.239E-01
   2.034  0.249E-01  0.249E-01
   2.044  0.260E-01  0.260E-01
   2.054  0.270E-01  0.270E-01
   2.064  0.280E-01  0.280E-01
   2.074  0.291E-01  0.291E-01
   2.084  0.301E-01  0.301E-01
   2.094  0.312E-01  0.312E-01
   2.104  0.323E-01  0.323E-01
   2.114  0.333E-01  0.333E-01
   2.124  0.344E-01  0.344E-01
   2.134  0.355E-01  0.355E-01
   2.144  0.366E-01  0.366E-01
   2.154  0.377E-01  0.377E-01
   2.164  0.388E-01  0.388E-01
   2.174  0.399E-01  0.399E-01
   2.184  0.410E-01  0.410E-01
   2.194  0.420E-01  0.420E-01
   2.204  0.431E-01  0.431E-01
   2.214  0.442E-01  0.442E-01
   2.224  0.453E-01  0.453E-01
   2.234  0.463E-01  0.463E-01
   2.244  0.474E-01  0.474E-01
   2.254  0.484E-01  0.484E-01
   2.264  0.494E-01  0.494E-01
   2.274  0.504E-01  0.504E-01
   2.284  0.514E-01  0.514E-01
   2.294  0.524E-01  0.524E-01
   2.304  0.534E-01  0.534E-01
   2.314  0.543E-01  0.543E-01
   2.324  0.552E-01  0.552E-01
   2.334  0.561E-01  0.561E-01
   2.344  0.570E-01  0.570E-01
   2.354  0.579E-01  0.579E-01
   2.364  0.587E-01  0.587E-01
   2.374  0.595E-01  0.595E-01
   2.384  0.603E-01  0.603E-01
   2.394  0.611E-01  0.611E-01
   2.404  0.618E-01  0.618E-01
   2.414  0.625E-01  0.625E-01
   2.424  0.631E-01  0.631E-01
   2.434  0.638E-01  0.638E-01
   2.444  0.644E-01  0.644E-01
   2.454  0.650E-01  0.650E-01
   2.464  0.655E-01  0.655E-01
   2.474  0.660E-01  0.660E-01
   2.484  0.665E-01  0.665E-01
   2.494  0.669E-01  0.669E-01
   2.504  0.673E-01  0.673E-01
   2.514  0.677E-01  0.677E-01
   2.524  0.680E-01  0.680E-01
   2.534  0.683E-01  0.683E-01
   2.544  0.686E-01  0.686E-01
   2.554  0.688E-01  0.688E-01
   2.564  0.690E-01  0.690E-01
   2.574  0.692E-01  0.692E-01
   2.584  0.693E-01  0.693E-01
   2.594  0.694E-01  0.694E-01
   2.604  0.694E-01  0.694E-01
   2.614  0.694E-01  0.694E-01
   2.624  0.694E-01  0.694E-01
   2.634  0.693E-01  0.693E-01
   2.644  0.692E-01  0.692E-01
   2.654  0.691E-01  0.691E-01
   2.664  0.689E-01  0.689E-01
   2.674  0.687E-01  0.687E-01
   2.684  0.684E-01  0.684E-01
   2.694  0.681E-01  0.681E-01
   2.704  0.678E-01  0.678E-01
   2.714  0.675E-01  0.675E-01
   2.724  0.671E-01  0.671E-01
   2.734  0.667E-01  0.667E-01
   2.744  0.662E-01  0.662E-01
   2.754  0.658E-01  0.658E-01
   2.764  0.652E-01  0.652E-01
   2.774  0.647E-01  0.647E-01
   2.784  0.642E-01  0.642E-01
   2.794  0.636E-01  0.636E-01
   2.804  0.629E-01  0.629E-01
   2.814  0.623E-01  0.623E-01
   2.824  0.616E-01  0.616E-01
   2.834  0.609E-01  0.609E-01
   2.844  0.602E-01  0.602E-01
   2.854  0.595E-01  0.595E-01
   2.864  0.587E-01  0.587E-01
   2.874  0.579E-01  0.579E-01
   2.884  0.571E-01  0.571E-01
   2.894  0.563E-01  0.563E-01
   2.904  0.555E-01  0.555E-01
   2.914  0.547E-01  0.547E-01
   2.924  0.538E-01  0.538E-01
   2.934  0.529E-01  0.529E-01
   2.944  0.520E-01  0.520E-01
   2.954  0.511E-01  0.511E-01
   2.964  0.502E-01  0.502E-01
   2.974  0.493E-01  0.493E-01
   2.984  0.484E-01  0.484E-01
   2.994  0.474E-01  0.474E-01
   3.004  0.465E-01  0.465E-01
   3.014  0.455E-01  0.455E-01
   3.024  0.446E-01  0.446E-01
   3.034  0.436E-01  0.436E-01
   3.044  0.426E-01  0.426E-01
   3.054  0.417E-01  0.417E-01
   3.064  0.407E-01  0.407E-01
   3.074  0.397E-01  0.397E-01
   3.084  0.388E-01  0.388E-01
   3.094  0.378E-01  0.378E-01
   3.104  0.368E-01  0.368E-01
   3.114  0.359E-01  0.359E-01
   3.124  0.349E-01  0.349E-01
   3.134  0.340E-01  0.340E-01
   3.144  0.330E-01  0.330E-01
   3.154  0.321E-01  0.321E-01
   3.164  0.312E-01  0.312E-01
   3.174  0.302E-01  0.302E-01
   3.184  0.293E-01  0.293E-01
   3.194  0.284E-01  0.284E-01
   3.204  0.275E-01  0.275E-01
   3.214  0.266E-01  0.266E-01
   3.224  0.257E-01  0.257E-01
   3.234  0.249E-01  0.249E-01
   3.244  0.240E-01  0.240E-01
   3.254  0.232E-01  0.232E-01
   3.264  0.223E-01  0.223E-01
   3.274  0.215E-01  0.215E-01
   3.284  0.207E-01  0.207E-01
   3.294  0.199E-01  0.199E-01
   3.304  0.191E-01  0.191E-01
   3.314  0.183E-01  0.183E-01
   3.324  0.176E-01  0.176E-01
   3.334  0.169E-01  0.169E-01
   3.344  0.161E-01  0.161E-01
   3.354  0.154E-01  0.154E-01
   3.364  0.147E-01  0.147E-01
   3.374  0.141E-01  0.141E-01
   3.384  0.134E-01  0.134E-01
   3.394  0.127E-01  0.127E-01
   3.404  0.121E-01  0.121E-01
   3.414  0.115E-01  0.115E-01
   3.424  0.109E-01  0.109E-01
   3.434  0.103E-01  0.103E-01
   3.444  0.974E-02  0.974E-02
   3.454  0.919E-02  0.919E-02
   3.464  0.865E-02  0.865E-02
   3.474  0.813E-02  0.813E-02
   3.484  0.763E-02  0.763E-02
   3.494  0.714E-02  0.714E-02
   3.504  0.666E-02  0.666E-02
   3.514  0.620E-02  0.620E-02
   3.524  0.576E-02  0.576E-02
   3.534  0.533E-02  0.533E-02
   3.544  0.491E-02  0.491E-02
   3.554  0.452E-02  0.452E-02
   3.564  0.413E-02  0.413E-02
   3.574  0.376E-02  0.376E-02
   3.584  0.341E-02  0.341E-02
   3.594  0.306E-02  0.306E-02
   3.604  0.274E-02  0.274E-02
   3.614  0.242E-02  0.242E-02
   3.624  0.212E-02  0.212E-02
   3.634  0.183E-02  0.183E-02
   3.644  0.156E-02  0.156E-02
   3.654  0.130E-02  0.130E-02
   3.664  0.105E-02  0.105E-02
   3.674  0.810E-03  0.810E-03
   3.684  0.584E-03  0.584E-03
   3.694  0.370E-03  0.370E-03
   3.704  0.167E-03  0.167E-03
   3.714 -0.245E-04 -0.245E-04
   3.724 -0.205E-03 -0.205E-03
   3.734 -0.376E-03 -0.376E-03
   3.744 -0.536E-03 -0.536E-03
   3.754 -0.686E-03 -0.686E-03
   3.764 -0.827E-03 -0.827E-03
   3.774 -0.959E-03 -0.959E-03
   3.784 -0.108E-02 -0.108E-02
   3.794 -0.119E-02 -0.119E-02
   3.804 -0.130E-02 -0.130E-02
   3.814 -0.140E-02 -0.140E-02
   3.824 -0.149E-02 -0.149E-02
   3.834 -0.157E-02 -0.157E-02
   3.844 -0.164E-02 -0.164E-02
   3.854 -0.171E-02 -0.171E-02
   3.864 -0.177E-02 -0.177E-02
   3.874 -0.182E-02 -0.182E-02
   3.884 -0.187E-02 -0.187E-02
   3.894 -0.191E-02 -0.191E-02
   3.904 -0.195E-02 -0.195E-02
   3.914 -0.198E-02 -0.198E-02
   3.924 -0.201E-02 -0.201E-02
   3.934 -0.203E-02 -0.203E-02
   3.944 -0.204E-02 -0.204E-02
   3.954 -0.205E-02 -0.205E-02
   3.964 -0.206E-02 -0.206E-02
   3.974 -0.207E-02 -0.207E-02
   3.984 -0.206E-02 -0.206E-02
   3.994 -0.206E-02 -0.206E-02
   4.004 -0.205E-02 -0.205E-02
   4.014 -0.204E-02 -0.204E-02
   4.024 -0.203E-02 -0.203E-02
   4.034 -0.201E-02 -0.201E-02
   4.044 -0.200E-02 -0.200E-02
   4.054 -0.198E-02 -0.198E-02
   4.064 -0.195E-02 -0.195E-02
   4.074 -0.193E-02 -0.193E-02
   4.084 -0.190E-02 -0.190E-02
   4.094 -0.187E-02 -0.187E-02
   4.104 -0.184E-02 -0.184E-02
   4.114 -0.181E-02 -0.181E-02
   4.124 -0.178E-02 -0.178E-02
   4.134 -0.175E-02 -0.175E-02
   4.144 -0.171E-02 -0.171E-02
   4.154 -0.168E-02 -0.168E-02
   4.164 -0.164E-02 -0.164E-02
   4.174 -0.160E-02 -0.160E-02
   4.184 -0.157E-02 -0.157E-02
   4.194 -0.153E-02 -0.153E-02
   4.204 -0.149E-02 -0.149E-02
   4.214 -0.145E-02 -0.145E-02
   4.224 -0.141E-02 -0.141E-02
   4.234 -0.138E-02 -0.138E-02
   4.244 -0.134E-02 -0.134E-02
   4.254 -0.130E-02 -0.130E-02
   4.264 -0.126E-02 -0.126E-02
   4.274 -0.122E-02 -0.122E-02
   4.284 -0.119E-02 -0.119E-02
   4.294 -0.115E-02 -0.115E-02
   4.304 -0.111E-02 -0.111E-02
   4.314 -0.108E-02 -0.108E-02
   4.324 -0.104E-02 -0.104E-02
   4.334 -0.101E-02 -0.101E-02
   4.344 -0.972E-03 -0.972E-03
   4.354 -0.938E-03 -0.938E-03
   4.364 -0.905E-03 -0.905E-03
   4.374 -0.872E-03 -0.872E-03
   4.384 -0.840E-03 -0.840E-03
   4.394 -0.808E-03 -0.808E-03
   4.404 -0.778E-03 -0.778E-03
   4.414 -0.748E-03 -0.748E-03
   4.424 -0.719E-03 -0.719E-03
   4.434 -0.690E-03 -0.690E-03
   4.444 -0.663E-03 -0.663E-03
   4.454 -0.636E-03 -0.636E-03
   4.464 -0.609E-03 -0.609E-03
   4.474 -0.584E-03 -0.584E-03
   4.484 -0.559E-03 -0.559E-03
   4.494 -0.535E-03 -0.535E-03
   4.504 -0.512E-03 -0.512E-03
   4.514 -0.489E-03 -0.489E-03
   4.524 -0.468E-03 -0.468E-03
   4.534 -0.447E-03 -0.447E-03
   4.544 -0.426E-03 -0.426E-03
   4.554 -0.407E-03 -0.407E-03
   4.564 -0.388E-03 -0.388E-03
   4.574 -0.369E-03 -0.369E-03
   4.584 -0.352E-03 -0.352E-03
   4.594 -0.335E-03 -0.335E-03
   4.604 -0.319E-03 -0.319E-03
   4.614 -0.303E-03 -0.303E-03
   4.624 -0.288E-03 -0.288E-03
   4.634 -0.274E-03 -0.274E-03
   4.644 -0.260E-03 -0.260E-03
   4.654 -0.247E-03 -0.247E-03
   4.664 -0.234E-03 -0.234E-03
   4.674 -0.222E-03 -0.222E-03
   4.684 -0.210E-03 -0.210E-03
   4.694 -0.199E-03 -0.199E-03
   4.704 -0.188E-03 -0.188E-03
   4.714 -0.178E-03 -0.178E-03
   4.724 -0.168E-03 -0.168E-03
   4.734 -0.159E-03 -0.159E-03
   4.744 -0.150E-03 -0.150E-03
   4.754 -0.142E-03 -0.142E-03
   4.764 -0.134E-03 -0.134E-03
   4.774 -0.126E-03 -0.126E-03
   4.784 -0.119E-03 -0.119E-03
   4.794 -0.112E-03 -0.112E-03
   4.804 -0.106E-03 -0.106E-03
   4.814 -0.995E-04 -0.995E-04
   4.824 -0.937E-04 -0.937E-04
   4.834 -0.881E-04 -0.881E-04
   4.844 -0.828E-04 -0.828E-04
   4.854 -0.778E-04 -0.778E-04
   4.864 -0.731E-04 -0.731E-04
   4.874 -0.686E-04 -0.686E-04
   4.884 -0.643E-04 -0.643E-04
   4.894 -0.603E-04 -0.603E-04
   4.904 -0.565E-04 -0.565E-04
   4.914 -0.530E-04 -0.530E-04
   4.924 -0.496E-04 -0.496E-04
   4.934 -0.464E-04 -0.464E-04
   4.944 -0.434E-04 -0.434E-04
   4.954 -0.406E-04 -0.406E-04
   4.964 -0.379E-04 -0.379E-04
   4.974 -0.354E-04 -0.354E-04
   4.984 -0.331E-04 -0.331E-04
   4.994 -0.309E-04 -0.309E-04
   5.004 -0.288E-04 -0.288E-04
   5.014 -0.269E-04 -0.269E-04
   5.024 -0.250E-04 -0.250E-04
   5.034 -0.233E-04 -0.233E-04
   5.044 -0.217E-04 -0.217E-04
   5.054 -0.202E-04 -0.202E-04
   5.064 -0.188E-04 -0.188E-04
   5.074 -0.175E-04 -0.175E-04
   5.084 -0.162E-04 -0.162E-04
   5.094 -0.151E-04 -0.151E-04
   5.104 -0.140E-04 -0.140E-04
   5.114 -0.130E-04 -0.130E-04
   5.124 -0.120E-04 -0.120E-04
   5.134 -0.112E-04 -0.112E-04
   5.144 -0.104E-04 -0.104E-04
   5.154 -0.959E-05 -0.959E-05
   5.164 -0.888E-05 -0.888E-05
   5.174 -0.821E-05 -0.821E-05
   5.184 -0.760E-05 -0.760E-05
   5.194 -0.702E-05 -0.702E-05
   5.204 -0.649E-05 -0.649E-05
   5.214 -0.600E-05 -0.600E-05
   5.224 -0.554E-05 -0.554E-05
   5.234 -0.511E-05 -0.511E-05
   5.244 -0.471E-05 -0.471E-05
   5.254 -0.434E-05 -0.434E-05
   5.264 -0.400E-05 -0.400E-05
   5.274 -0.369E-05 -0.369E-05
   5.284 -0.339E-05 -0.339E-05
   5.294 -0.312E-05 -0.312E-05
