# E (eV)   ldos(E)   pdos(E)   
 -27.116 -0.308E-06 -0.308E-06
 -27.106 -0.332E-06 -0.332E-06
 -27.096 -0.358E-06 -0.358E-06
 -27.086 -0.386E-06 -0.386E-06
 -27.076 -0.416E-06 -0.416E-06
 -27.066 -0.448E-06 -0.448E-06
 -27.056 -0.483E-06 -0.483E-06
 -27.046 -0.520E-06 -0.520E-06
 -27.036 -0.559E-06 -0.559E-06
 -27.026 -0.601E-06 -0.601E-06
 -27.016 -0.645E-06 -0.645E-06
 -27.006 -0.693E-06 -0.693E-06
 -26.996 -0.744E-06 -0.744E-06
 -26.986 -0.798E-06 -0.798E-06
 -26.976 -0.856E-06 -0.856E-06
 -26.966 -0.917E-06 -0.917E-06
 -26.956 -0.982E-06 -0.982E-06
 -26.946 -0.105E-05 -0.105E-05
 -26.936 -0.112E-05 -0.112E-05
 -26.926 -0.120E-05 -0.120E-05
 -26.916 -0.129E-05 -0.129E-05
 -26.906 -0.137E-05 -0.137E-05
 -26.896 -0.147E-05 -0.147E-05
 -26.886 -0.156E-05 -0.156E-05
 -26.876 -0.167E-05 -0.167E-05
 -26.866 -0.178E-05 -0.178E-05
 -26.856 -0.189E-05 -0.189E-05
 -26.846 -0.202E-05 -0.202E-05
 -26.836 -0.214E-05 -0.214E-05
 -26.826 -0.228E-05 -0.228E-05
 -26.816 -0.242E-05 -0.242E-05
 -26.806 -0.257E-05 -0.257E-05
 -26.796 -0.273E-05 -0.273E-05
 -26.786 -0.290E-05 -0.290E-05
 -26.776 -0.307E-05 -0.307E-05
 -26.766 -0.326E-05 -0.326E-05
 -26.756 -0.345E-05 -0.345E-05
 -26.746 -0.365E-05 -0.365E-05
 -26.736 -0.386E-05 -0.386E-05
 -26.726 -0.409E-05 -0.409E-05
 -26.716 -0.432E-05 -0.432E-05
 -26.706 -0.456E-05 -0.456E-05
 -26.696 -0.481E-05 -0.481E-05
 -26.686 -0.507E-05 -0.507E-05
 -26.676 -0.535E-05 -0.535E-05
 -26.666 -0.564E-05 -0.564E-05
 -26.656 -0.593E-05 -0.593E-05
 -26.646 -0.624E-05 -0.624E-05
 -26.636 -0.656E-05 -0.656E-05
 -26.626 -0.690E-05 -0.690E-05
 -26.616 -0.724E-05 -0.724E-05
 -26.606 -0.760E-05 -0.760E-05
 -26.596 -0.797E-05 -0.797E-05
 -26.586 -0.835E-05 -0.835E-05
 -26.576 -0.875E-05 -0.875E-05
 -26.566 -0.916E-05 -0.916E-05
 -26.556 -0.958E-05 -0.958E-05
 -26.546 -0.100E-04 -0.100E-04
 -26.536 -0.105E-04 -0.105E-04
 -26.526 -0.109E-04 -0.109E-04
 -26.516 -0.114E-04 -0.114E-04
 -26.506 -0.119E-04 -0.119E-04
 -26.496 -0.124E-04 -0.124E-04
 -26.486 -0.129E-04 -0.129E-04
 -26.476 -0.134E-04 -0.134E-04
 -26.466 -0.139E-04 -0.139E-04
 -26.456 -0.144E-04 -0.144E-04
 -26.446 -0.150E-04 -0.150E-04
 -26.436 -0.155E-04 -0.155E-04
 -26.426 -0.161E-04 -0.161E-04
 -26.416 -0.167E-04 -0.167E-04
 -26.406 -0.172E-04 -0.172E-04
 -26.396 -0.178E-04 -0.178E-04
 -26.386 -0.184E-04 -0.184E-04
 -26.376 -0.190E-04 -0.190E-04
 -26.366 -0.195E-04 -0.195E-04
 -26.356 -0.201E-04 -0.201E-04
 -26.346 -0.207E-04 -0.207E-04
 -26.336 -0.213E-04 -0.213E-04
 -26.326 -0.218E-04 -0.218E-04
 -26.316 -0.224E-04 -0.224E-04
 -26.306 -0.230E-04 -0.230E-04
 -26.296 -0.235E-04 -0.235E-04
 -26.286 -0.240E-04 -0.240E-04
 -26.276 -0.245E-04 -0.245E-04
 -26.266 -0.250E-04 -0.250E-04
 -26.256 -0.255E-04 -0.255E-04
 -26.246 -0.259E-04 -0.259E-04
 -26.236 -0.264E-04 -0.264E-04
 -26.226 -0.267E-04 -0.267E-04
 -26.216 -0.271E-04 -0.271E-04
 -26.206 -0.274E-04 -0.274E-04
 -26.196 -0.277E-04 -0.277E-04
 -26.186 -0.279E-04 -0.279E-04
 -26.176 -0.281E-04 -0.281E-04
 -26.166 -0.283E-04 -0.283E-04
 -26.156 -0.284E-04 -0.284E-04
 -26.146 -0.284E-04 -0.284E-04
 -26.136 -0.284E-04 -0.284E-04
 -26.126 -0.283E-04 -0.283E-04
 -26.116 -0.281E-04 -0.281E-04
 -26.106 -0.279E-04 -0.279E-04
 -26.096 -0.276E-04 -0.276E-04
 -26.086 -0.272E-04 -0.272E-04
 -26.076 -0.267E-04 -0.267E-04
 -26.066 -0.261E-04 -0.261E-04
 -26.056 -0.255E-04 -0.255E-04
 -26.046 -0.247E-04 -0.247E-04
 -26.036 -0.238E-04 -0.238E-04
 -26.026 -0.228E-04 -0.228E-04
 -26.016 -0.217E-04 -0.217E-04
 -26.006 -0.205E-04 -0.205E-04
 -25.996 -0.192E-04 -0.192E-04
 -25.986 -0.177E-04 -0.177E-04
 -25.976 -0.161E-04 -0.161E-04
 -25.966 -0.144E-04 -0.144E-04
 -25.956 -0.125E-04 -0.125E-04
 -25.946 -0.105E-04 -0.105E-04
 -25.936 -0.829E-05 -0.829E-05
 -25.926 -0.596E-05 -0.596E-05
 -25.916 -0.348E-05 -0.348E-05
 -25.906 -0.829E-06 -0.829E-06
 -25.896  0.198E-05  0.198E-05
 -25.886  0.497E-05  0.497E-05
 -25.876  0.812E-05  0.812E-05
 -25.866  0.115E-04  0.115E-04
 -25.856  0.150E-04  0.150E-04
 -25.846  0.187E-04  0.187E-04
 -25.836  0.225E-04  0.225E-04
 -25.826  0.266E-04  0.266E-04
 -25.816  0.309E-04  0.309E-04
 -25.806  0.353E-04  0.353E-04
 -25.796  0.399E-04  0.399E-04
 -25.786  0.448E-04  0.448E-04
 -25.776  0.498E-04  0.498E-04
 -25.766  0.550E-04  0.550E-04
 -25.756  0.604E-04  0.604E-04
 -25.746  0.660E-04  0.660E-04
 -25.736  0.718E-04  0.718E-04
 -25.726  0.778E-04  0.778E-04
 -25.716  0.839E-04  0.839E-04
 -25.706  0.903E-04  0.903E-04
 -25.696  0.968E-04  0.968E-04
 -25.686  0.104E-03  0.104E-03
 -25.676  0.110E-03  0.110E-03
 -25.666  0.118E-03  0.118E-03
 -25.656  0.125E-03  0.125E-03
 -25.646  0.132E-03  0.132E-03
 -25.636  0.140E-03  0.140E-03
 -25.626  0.148E-03  0.148E-03
 -25.616  0.155E-03  0.155E-03
 -25.606  0.163E-03  0.163E-03
 -25.596  0.172E-03  0.172E-03
 -25.586  0.180E-03  0.180E-03
 -25.576  0.188E-03  0.188E-03
 -25.566  0.197E-03  0.197E-03
 -25.556  0.205E-03  0.205E-03
 -25.546  0.214E-03  0.214E-03
 -25.536  0.223E-03  0.223E-03
 -25.526  0.232E-03  0.232E-03
 -25.516  0.241E-03  0.241E-03
 -25.506  0.250E-03  0.250E-03
 -25.496  0.259E-03  0.259E-03
 -25.486  0.268E-03  0.268E-03
 -25.476  0.277E-03  0.277E-03
 -25.466  0.286E-03  0.286E-03
 -25.456  0.295E-03  0.295E-03
 -25.446  0.304E-03  0.304E-03
 -25.436  0.314E-03  0.314E-03
 -25.426  0.323E-03  0.323E-03
 -25.416  0.332E-03  0.332E-03
 -25.406  0.340E-03  0.340E-03
 -25.396  0.349E-03  0.349E-03
 -25.386  0.358E-03  0.358E-03
 -25.376  0.367E-03  0.367E-03
 -25.366  0.375E-03  0.375E-03
 -25.356  0.384E-03  0.384E-03
 -25.346  0.392E-03  0.392E-03
 -25.336  0.400E-03  0.400E-03
 -25.326  0.408E-03  0.408E-03
 -25.316  0.416E-03  0.416E-03
 -25.306  0.423E-03  0.423E-03
 -25.296  0.431E-03  0.431E-03
 -25.286  0.438E-03  0.438E-03
 -25.276  0.445E-03  0.445E-03
 -25.266  0.451E-03  0.451E-03
 -25.256  0.458E-03  0.458E-03
 -25.246  0.464E-03  0.464E-03
 -25.236  0.470E-03  0.470E-03
 -25.226  0.475E-03  0.475E-03
 -25.216  0.480E-03  0.480E-03
 -25.206  0.485E-03  0.485E-03
 -25.196  0.490E-03  0.490E-03
 -25.186  0.494E-03  0.494E-03
 -25.176  0.498E-03  0.498E-03
 -25.166  0.502E-03  0.502E-03
 -25.156  0.505E-03  0.505E-03
 -25.146  0.508E-03  0.508E-03
 -25.136  0.511E-03  0.511E-03
 -25.126  0.513E-03  0.513E-03
 -25.116  0.515E-03  0.515E-03
 -25.106  0.517E-03  0.517E-03
 -25.096  0.518E-03  0.518E-03
 -25.086  0.519E-03  0.519E-03
 -25.076  0.519E-03  0.519E-03
 -25.066  0.519E-03  0.519E-03
 -25.056  0.519E-03  0.519E-03
 -25.046  0.518E-03  0.518E-03
 -25.036  0.517E-03  0.517E-03
 -25.026  0.516E-03  0.516E-03
 -25.016  0.514E-03  0.514E-03
 -25.006  0.512E-03  0.512E-03
 -24.996  0.509E-03  0.509E-03
 -24.986  0.506E-03  0.506E-03
 -24.976  0.503E-03  0.503E-03
 -24.966  0.499E-03  0.499E-03
 -24.956  0.495E-03  0.495E-03
 -24.946  0.491E-03  0.491E-03
 -24.936  0.487E-03  0.487E-03
 -24.926  0.482E-03  0.482E-03
 -24.916  0.476E-03  0.476E-03
 -24.906  0.471E-03  0.471E-03
 -24.896  0.465E-03  0.465E-03
 -24.886  0.459E-03  0.459E-03
 -24.876  0.453E-03  0.453E-03
 -24.866  0.446E-03  0.446E-03
 -24.856  0.439E-03  0.439E-03
 -24.846  0.432E-03  0.432E-03
 -24.836  0.425E-03  0.425E-03
 -24.826  0.417E-03  0.417E-03
 -24.816  0.410E-03  0.410E-03
 -24.806  0.402E-03  0.402E-03
 -24.796  0.394E-03  0.394E-03
 -24.786  0.386E-03  0.386E-03
 -24.776  0.377E-03  0.377E-03
 -24.766  0.369E-03  0.369E-03
 -24.756  0.360E-03  0.360E-03
 -24.746  0.351E-03  0.351E-03
 -24.736  0.343E-03  0.343E-03
 -24.726  0.334E-03  0.334E-03
 -24.716  0.325E-03  0.325E-03
 -24.706  0.316E-03  0.316E-03
 -24.696  0.307E-03  0.307E-03
 -24.686  0.297E-03  0.297E-03
 -24.676  0.288E-03  0.288E-03
 -24.666  0.279E-03  0.279E-03
 -24.656  0.270E-03  0.270E-03
 -24.646  0.261E-03  0.261E-03
 -24.636  0.252E-03  0.252E-03
 -24.626  0.243E-03  0.243E-03
 -24.616  0.234E-03  0.234E-03
 -24.606  0.225E-03  0.225E-03
 -24.596  0.216E-03  0.216E-03
 -24.586  0.208E-03  0.208E-03
 -24.576  0.199E-03  0.199E-03
 -24.566  0.190E-03  0.190E-03
 -24.556  0.182E-03  0.182E-03
 -24.546  0.174E-03  0.174E-03
 -24.536  0.165E-03  0.165E-03
 -24.526  0.157E-03  0.157E-03
 -24.516  0.149E-03  0.149E-03
 -24.506  0.142E-03  0.142E-03
 -24.496  0.134E-03  0.134E-03
 -24.486  0.127E-03  0.127E-03
 -24.476  0.119E-03  0.119E-03
 -24.466  0.112E-03  0.112E-03
 -24.456  0.105E-03  0.105E-03
 -24.446  0.984E-04  0.984E-04
 -24.436  0.918E-04  0.918E-04
 -24.426  0.854E-04  0.854E-04
 -24.416  0.792E-04  0.792E-04
 -24.406  0.732E-04  0.732E-04
 -24.396  0.673E-04  0.673E-04
 -24.386  0.617E-04  0.617E-04
 -24.376  0.562E-04  0.562E-04
 -24.366  0.510E-04  0.510E-04
 -24.356  0.459E-04  0.459E-04
 -24.346  0.411E-04  0.411E-04
 -24.336  0.364E-04  0.364E-04
 -24.326  0.319E-04  0.319E-04
 -24.316  0.276E-04  0.276E-04
 -24.306  0.235E-04  0.235E-04
 -24.296  0.196E-04  0.196E-04
 -24.286  0.158E-04  0.158E-04
 -24.276  0.123E-04  0.123E-04
 -24.266  0.890E-05  0.890E-05
 -24.256  0.570E-05  0.570E-05
 -24.246  0.268E-05  0.268E-05
 -24.236 -0.178E-06 -0.178E-06
 -24.226 -0.287E-05 -0.287E-05
 -24.216 -0.539E-05 -0.539E-05
 -24.206 -0.775E-05 -0.775E-05
 -24.196 -0.997E-05 -0.997E-05
 -24.186 -0.120E-04 -0.120E-04
 -24.176 -0.139E-04 -0.139E-04
 -24.166 -0.157E-04 -0.157E-04
 -24.156 -0.173E-04 -0.173E-04
 -24.146 -0.188E-04 -0.188E-04
 -24.136 -0.202E-04 -0.202E-04
 -24.126 -0.215E-04 -0.215E-04
 -24.116 -0.226E-04 -0.226E-04
 -24.106 -0.236E-04 -0.236E-04
 -24.096 -0.245E-04 -0.245E-04
 -24.086 -0.253E-04 -0.253E-04
 -24.076 -0.260E-04 -0.260E-04
 -24.066 -0.266E-04 -0.266E-04
 -24.056 -0.271E-04 -0.271E-04
 -24.046 -0.275E-04 -0.275E-04
 -24.036 -0.278E-04 -0.278E-04
 -24.026 -0.281E-04 -0.281E-04
 -24.016 -0.283E-04 -0.283E-04
 -24.006 -0.284E-04 -0.284E-04
 -23.996 -0.284E-04 -0.284E-04
 -23.986 -0.284E-04 -0.284E-04
 -23.976 -0.283E-04 -0.283E-04
 -23.966 -0.282E-04 -0.282E-04
 -23.956 -0.280E-04 -0.280E-04
 -23.946 -0.278E-04 -0.278E-04
 -23.936 -0.275E-04 -0.275E-04
 -23.926 -0.272E-04 -0.272E-04
 -23.916 -0.268E-04 -0.268E-04
 -23.906 -0.265E-04 -0.265E-04
 -23.896 -0.260E-04 -0.260E-04
 -23.886 -0.256E-04 -0.256E-04
 -23.876 -0.251E-04 -0.251E-04
 -23.866 -0.247E-04 -0.247E-04
 -23.856 -0.241E-04 -0.241E-04
 -23.846 -0.236E-04 -0.236E-04
 -23.836 -0.231E-04 -0.231E-04
 -23.826 -0.225E-04 -0.225E-04
 -23.816 -0.220E-04 -0.220E-04
 -23.806 -0.214E-04 -0.214E-04
 -23.796 -0.208E-04 -0.208E-04
 -23.786 -0.203E-04 -0.203E-04
 -23.776 -0.197E-04 -0.197E-04
 -23.766 -0.191E-04 -0.191E-04
 -23.756 -0.185E-04 -0.185E-04
 -23.746 -0.179E-04 -0.179E-04
 -23.736 -0.174E-04 -0.174E-04
 -23.726 -0.168E-04 -0.168E-04
 -23.716 -0.162E-04 -0.162E-04
 -23.706 -0.157E-04 -0.157E-04
 -23.696 -0.151E-04 -0.151E-04
 -23.686 -0.146E-04 -0.146E-04
 -23.676 -0.140E-04 -0.140E-04
 -23.666 -0.135E-04 -0.135E-04
 -23.656 -0.130E-04 -0.130E-04
 -23.646 -0.125E-04 -0.125E-04
 -23.636 -0.120E-04 -0.120E-04
 -23.626 -0.115E-04 -0.115E-04
 -23.616 -0.110E-04 -0.110E-04
 -23.606 -0.106E-04 -0.106E-04
 -23.596 -0.101E-04 -0.101E-04
 -23.586 -0.968E-05 -0.968E-05
 -23.576 -0.926E-05 -0.926E-05
 -23.566 -0.885E-05 -0.885E-05
 -23.556 -0.845E-05 -0.845E-05
 -23.546 -0.806E-05 -0.806E-05
 -23.536 -0.769E-05 -0.769E-05
 -23.526 -0.733E-05 -0.733E-05
 -23.516 -0.698E-05 -0.698E-05
 -23.506 -0.664E-05 -0.664E-05
 -23.496 -0.632E-05 -0.632E-05
 -23.486 -0.600E-05 -0.600E-05
 -23.476 -0.570E-05 -0.570E-05
 -23.466 -0.542E-05 -0.542E-05
 -23.456 -0.514E-05 -0.514E-05
 -23.446 -0.487E-05 -0.487E-05
 -23.436 -0.462E-05 -0.462E-05
 -23.426 -0.437E-05 -0.437E-05
 -23.416 -0.414E-05 -0.414E-05
 -23.406 -0.392E-05 -0.392E-05
 -23.396 -0.370E-05 -0.370E-05
 -23.386 -0.350E-05 -0.350E-05
 -23.376 -0.330E-05 -0.330E-05
 -23.366 -0.312E-05 -0.312E-05
 -23.356 -0.294E-05 -0.294E-05
 -23.346 -0.277E-05 -0.277E-05
 -23.336 -0.261E-05 -0.261E-05
 -23.326 -0.246E-05 -0.246E-05
 -23.316 -0.231E-05 -0.231E-05
 -23.306 -0.218E-05 -0.218E-05
 -23.296 -0.205E-05 -0.205E-05
 -23.286 -0.192E-05 -0.192E-05
 -23.276 -0.180E-05 -0.180E-05
 -23.266 -0.169E-05 -0.169E-05
 -23.256 -0.159E-05 -0.159E-05
 -23.246 -0.149E-05 -0.149E-05
 -23.236 -0.139E-05 -0.139E-05
 -23.226 -0.131E-05 -0.131E-05
 -23.216 -0.122E-05 -0.122E-05
 -23.206 -0.114E-05 -0.114E-05
 -23.196 -0.107E-05 -0.107E-05
 -23.186 -0.998E-06 -0.998E-06
 -23.176 -0.932E-06 -0.932E-06
 -23.166 -0.870E-06 -0.870E-06
 -23.156 -0.812E-06 -0.812E-06
 -23.146 -0.757E-06 -0.757E-06
 -23.136 -0.705E-06 -0.705E-06
 -23.126 -0.657E-06 -0.657E-06
 -23.116 -0.612E-06 -0.612E-06
 -23.106 -0.569E-06 -0.569E-06
 -23.096 -0.529E-06 -0.529E-06
 -23.086 -0.492E-06 -0.492E-06
 -23.076 -0.457E-06 -0.457E-06
 -23.066 -0.425E-06 -0.425E-06
 -23.056 -0.394E-06 -0.394E-06
 -23.046 -0.366E-06 -0.366E-06
 -23.036 -0.339E-06 -0.339E-06
 -23.026 -0.315E-06 -0.315E-06
 -23.016 -0.292E-06 -0.292E-06
 -23.006 -0.270E-06 -0.270E-06
 -22.996 -0.250E-06 -0.250E-06
 -22.986 -0.232E-06 -0.232E-06
 -22.976 -0.215E-06 -0.215E-06
 -22.966 -0.199E-06 -0.199E-06
 -22.956 -0.184E-06 -0.184E-06
 -22.946 -0.171E-06 -0.171E-06
 -22.936 -0.158E-06 -0.158E-06
 -22.926 -0.147E-06 -0.147E-06
 -22.916 -0.136E-06 -0.136E-06
 -22.906 -0.126E-06 -0.126E-06
 -22.896 -0.117E-06 -0.117E-06
 -22.886 -0.109E-06 -0.109E-06
 -22.876 -0.101E-06 -0.101E-06
 -22.866 -0.947E-07 -0.947E-07
 -22.856 -0.886E-07 -0.886E-07
 -22.846 -0.832E-07 -0.832E-07
 -22.836 -0.783E-07 -0.783E-07
 -22.826 -0.740E-07 -0.740E-07
 -22.816 -0.703E-07 -0.703E-07
 -22.806 -0.671E-07 -0.671E-07
 -22.796 -0.644E-07 -0.644E-07
 -22.786 -0.623E-07 -0.623E-07
 -22.776 -0.606E-07 -0.606E-07
 -22.766 -0.594E-07 -0.594E-07
 -22.756 -0.587E-07 -0.587E-07
 -22.746 -0.585E-07 -0.585E-07
 -22.736 -0.588E-07 -0.588E-07
 -22.726 -0.595E-07 -0.595E-07
 -22.716 -0.608E-07 -0.608E-07
 -22.706 -0.626E-07 -0.626E-07
 -22.696 -0.649E-07 -0.649E-07
 -22.686 -0.677E-07 -0.677E-07
 -22.676 -0.712E-07 -0.712E-07
 -22.666 -0.752E-07 -0.752E-07
 -22.656 -0.798E-07 -0.798E-07
 -22.646 -0.851E-07 -0.851E-07
 -22.636 -0.911E-07 -0.911E-07
 -22.626 -0.978E-07 -0.978E-07
 -22.616 -0.105E-06 -0.105E-06
 -22.606 -0.114E-06 -0.114E-06
 -22.596 -0.123E-06 -0.123E-06
 -22.586 -0.133E-06 -0.133E-06
 -22.576 -0.144E-06 -0.144E-06
 -22.566 -0.156E-06 -0.156E-06
 -22.556 -0.170E-06 -0.170E-06
 -22.546 -0.184E-06 -0.184E-06
 -22.536 -0.200E-06 -0.200E-06
 -22.526 -0.218E-06 -0.218E-06
 -22.516 -0.237E-06 -0.237E-06
 -22.506 -0.257E-06 -0.257E-06
 -22.496 -0.280E-06 -0.280E-06
 -22.486 -0.304E-06 -0.304E-06
 -22.476 -0.330E-06 -0.330E-06
 -22.466 -0.359E-06 -0.359E-06
 -22.456 -0.389E-06 -0.389E-06
 -22.446 -0.423E-06 -0.423E-06
 -22.436 -0.458E-06 -0.458E-06
 -22.426 -0.497E-06 -0.497E-06
 -22.416 -0.539E-06 -0.539E-06
 -22.406 -0.584E-06 -0.584E-06
 -22.396 -0.633E-06 -0.633E-06
 -22.386 -0.685E-06 -0.685E-06
 -22.376 -0.742E-06 -0.742E-06
 -22.366 -0.802E-06 -0.802E-06
 -22.356 -0.867E-06 -0.867E-06
 -22.346 -0.937E-06 -0.937E-06
 -22.336 -0.101E-05 -0.101E-05
 -22.326 -0.109E-05 -0.109E-05
 -22.316 -0.118E-05 -0.118E-05
 -22.306 -0.127E-05 -0.127E-05
 -22.296 -0.137E-05 -0.137E-05
 -22.286 -0.148E-05 -0.148E-05
 -22.276 -0.159E-05 -0.159E-05
 -22.266 -0.171E-05 -0.171E-05
 -22.256 -0.184E-05 -0.184E-05
 -22.246 -0.198E-05 -0.198E-05
 -22.236 -0.213E-05 -0.213E-05
 -22.226 -0.229E-05 -0.229E-05
 -22.216 -0.246E-05 -0.246E-05
 -22.206 -0.264E-05 -0.264E-05
 -22.196 -0.283E-05 -0.283E-05
 -22.186 -0.303E-05 -0.303E-05
 -22.176 -0.325E-05 -0.325E-05
 -22.166 -0.347E-05 -0.347E-05
 -22.156 -0.372E-05 -0.372E-05
 -22.146 -0.398E-05 -0.398E-05
 -22.136 -0.425E-05 -0.425E-05
 -22.126 -0.454E-05 -0.454E-05
 -22.116 -0.485E-05 -0.485E-05
 -22.106 -0.518E-05 -0.518E-05
 -22.096 -0.552E-05 -0.552E-05
 -22.086 -0.589E-05 -0.589E-05
 -22.076 -0.627E-05 -0.627E-05
 -22.066 -0.668E-05 -0.668E-05
 -22.056 -0.711E-05 -0.711E-05
 -22.046 -0.756E-05 -0.756E-05
 -22.036 -0.804E-05 -0.804E-05
 -22.026 -0.854E-05 -0.854E-05
 -22.016 -0.907E-05 -0.907E-05
 -22.006 -0.963E-05 -0.963E-05
 -21.996 -0.102E-04 -0.102E-04
 -21.986 -0.108E-04 -0.108E-04
 -21.976 -0.115E-04 -0.115E-04
 -21.966 -0.121E-04 -0.121E-04
 -21.956 -0.129E-04 -0.129E-04
 -21.946 -0.136E-04 -0.136E-04
 -21.936 -0.144E-04 -0.144E-04
 -21.926 -0.152E-04 -0.152E-04
 -21.916 -0.160E-04 -0.160E-04
 -21.906 -0.169E-04 -0.169E-04
 -21.896 -0.178E-04 -0.178E-04
 -21.886 -0.188E-04 -0.188E-04
 -21.876 -0.198E-04 -0.198E-04
 -21.866 -0.208E-04 -0.208E-04
 -21.856 -0.219E-04 -0.219E-04
 -21.846 -0.230E-04 -0.230E-04
 -21.836 -0.242E-04 -0.242E-04
 -21.826 -0.254E-04 -0.254E-04
 -21.816 -0.267E-04 -0.267E-04
 -21.806 -0.280E-04 -0.280E-04
 -21.796 -0.293E-04 -0.293E-04
 -21.786 -0.307E-04 -0.307E-04
 -21.776 -0.321E-04 -0.321E-04
 -21.766 -0.336E-04 -0.336E-04
 -21.756 -0.351E-04 -0.351E-04
 -21.746 -0.367E-04 -0.367E-04
 -21.736 -0.383E-04 -0.383E-04
 -21.726 -0.399E-04 -0.399E-04
 -21.716 -0.416E-04 -0.416E-04
 -21.706 -0.434E-04 -0.434E-04
 -21.696 -0.451E-04 -0.451E-04
 -21.686 -0.469E-04 -0.469E-04
 -21.676 -0.488E-04 -0.488E-04
 -21.666 -0.507E-04 -0.507E-04
 -21.656 -0.526E-04 -0.526E-04
 -21.646 -0.545E-04 -0.545E-04
 -21.636 -0.565E-04 -0.565E-04
 -21.626 -0.585E-04 -0.585E-04
 -21.616 -0.605E-04 -0.605E-04
 -21.606 -0.626E-04 -0.626E-04
 -21.596 -0.646E-04 -0.646E-04
 -21.586 -0.667E-04 -0.667E-04
 -21.576 -0.688E-04 -0.688E-04
 -21.566 -0.709E-04 -0.709E-04
 -21.556 -0.730E-04 -0.730E-04
 -21.546 -0.751E-04 -0.751E-04
 -21.536 -0.772E-04 -0.772E-04
 -21.526 -0.792E-04 -0.792E-04
 -21.516 -0.813E-04 -0.813E-04
 -21.506 -0.833E-04 -0.833E-04
 -21.496 -0.853E-04 -0.853E-04
 -21.486 -0.872E-04 -0.872E-04
 -21.476 -0.891E-04 -0.891E-04
 -21.466 -0.910E-04 -0.910E-04
 -21.456 -0.928E-04 -0.928E-04
 -21.446 -0.946E-04 -0.946E-04
 -21.436 -0.962E-04 -0.962E-04
 -21.426 -0.978E-04 -0.978E-04
 -21.416 -0.993E-04 -0.993E-04
 -21.406 -0.101E-03 -0.101E-03
 -21.396 -0.102E-03 -0.102E-03
 -21.386 -0.103E-03 -0.103E-03
 -21.376 -0.104E-03 -0.104E-03
 -21.366 -0.105E-03 -0.105E-03
 -21.356 -0.106E-03 -0.106E-03
 -21.346 -0.107E-03 -0.107E-03
 -21.336 -0.107E-03 -0.107E-03
 -21.326 -0.108E-03 -0.108E-03
 -21.316 -0.108E-03 -0.108E-03
 -21.306 -0.108E-03 -0.108E-03
 -21.296 -0.108E-03 -0.108E-03
 -21.286 -0.107E-03 -0.107E-03
 -21.276 -0.107E-03 -0.107E-03
 -21.266 -0.106E-03 -0.106E-03
 -21.256 -0.105E-03 -0.105E-03
 -21.246 -0.104E-03 -0.104E-03
 -21.236 -0.103E-03 -0.103E-03
 -21.226 -0.101E-03 -0.101E-03
 -21.216 -0.992E-04 -0.992E-04
 -21.206 -0.972E-04 -0.972E-04
 -21.196 -0.950E-04 -0.950E-04
 -21.186 -0.925E-04 -0.925E-04
 -21.176 -0.899E-04 -0.899E-04
 -21.166 -0.871E-04 -0.871E-04
 -21.156 -0.840E-04 -0.840E-04
 -21.146 -0.808E-04 -0.808E-04
 -21.136 -0.774E-04 -0.774E-04
 -21.126 -0.738E-04 -0.738E-04
 -21.116 -0.700E-04 -0.700E-04
 -21.106 -0.661E-04 -0.661E-04
 -21.096 -0.621E-04 -0.621E-04
 -21.086 -0.580E-04 -0.580E-04
 -21.076 -0.537E-04 -0.537E-04
 -21.066 -0.495E-04 -0.495E-04
 -21.056 -0.452E-04 -0.452E-04
 -21.046 -0.408E-04 -0.408E-04
 -21.036 -0.366E-04 -0.366E-04
 -21.026 -0.324E-04 -0.324E-04
 -21.016 -0.282E-04 -0.282E-04
 -21.006 -0.243E-04 -0.243E-04
 -20.996 -0.205E-04 -0.205E-04
 -20.986 -0.170E-04 -0.170E-04
 -20.976 -0.138E-04 -0.138E-04
 -20.966 -0.109E-04 -0.109E-04
 -20.956 -0.846E-05 -0.846E-05
 -20.946 -0.650E-05 -0.650E-05
 -20.936 -0.508E-05 -0.508E-05
 -20.926 -0.429E-05 -0.429E-05
 -20.916 -0.419E-05 -0.419E-05
 -20.906 -0.488E-05 -0.488E-05
 -20.896 -0.644E-05 -0.644E-05
 -20.886 -0.895E-05 -0.895E-05
 -20.876 -0.125E-04 -0.125E-04
 -20.866 -0.172E-04 -0.172E-04
 -20.856 -0.232E-04 -0.232E-04
 -20.846 -0.305E-04 -0.305E-04
 -20.836 -0.393E-04 -0.393E-04
 -20.826 -0.497E-04 -0.497E-04
 -20.816 -0.618E-04 -0.618E-04
 -20.806 -0.757E-04 -0.757E-04
 -20.796 -0.916E-04 -0.916E-04
 -20.786 -0.110E-03 -0.110E-03
 -20.776 -0.130E-03 -0.130E-03
 -20.766 -0.152E-03 -0.152E-03
 -20.756 -0.177E-03 -0.177E-03
 -20.746 -0.205E-03 -0.205E-03
 -20.736 -0.236E-03 -0.236E-03
 -20.726 -0.269E-03 -0.269E-03
 -20.716 -0.306E-03 -0.306E-03
 -20.706 -0.346E-03 -0.346E-03
 -20.696 -0.389E-03 -0.389E-03
 -20.686 -0.436E-03 -0.436E-03
 -20.676 -0.486E-03 -0.486E-03
 -20.666 -0.540E-03 -0.540E-03
 -20.656 -0.599E-03 -0.599E-03
 -20.646 -0.661E-03 -0.661E-03
 -20.636 -0.728E-03 -0.728E-03
 -20.626 -0.800E-03 -0.800E-03
 -20.616 -0.876E-03 -0.876E-03
 -20.606 -0.956E-03 -0.956E-03
 -20.596 -0.104E-02 -0.104E-02
 -20.586 -0.113E-02 -0.113E-02
 -20.576 -0.123E-02 -0.123E-02
 -20.566 -0.133E-02 -0.133E-02
 -20.556 -0.144E-02 -0.144E-02
 -20.546 -0.155E-02 -0.155E-02
 -20.536 -0.167E-02 -0.167E-02
 -20.526 -0.179E-02 -0.179E-02
 -20.516 -0.192E-02 -0.192E-02
 -20.506 -0.205E-02 -0.205E-02
 -20.496 -0.219E-02 -0.219E-02
 -20.486 -0.234E-02 -0.234E-02
 -20.476 -0.249E-02 -0.249E-02
 -20.466 -0.265E-02 -0.265E-02
 -20.456 -0.281E-02 -0.281E-02
 -20.446 -0.298E-02 -0.298E-02
 -20.436 -0.316E-02 -0.316E-02
 -20.426 -0.334E-02 -0.334E-02
 -20.416 -0.353E-02 -0.353E-02
 -20.406 -0.372E-02 -0.372E-02
 -20.396 -0.392E-02 -0.392E-02
 -20.386 -0.412E-02 -0.412E-02
 -20.376 -0.432E-02 -0.432E-02
 -20.366 -0.453E-02 -0.453E-02
 -20.356 -0.475E-02 -0.475E-02
 -20.346 -0.497E-02 -0.497E-02
 -20.336 -0.519E-02 -0.519E-02
 -20.326 -0.541E-02 -0.541E-02
 -20.316 -0.564E-02 -0.564E-02
 -20.306 -0.587E-02 -0.587E-02
 -20.296 -0.610E-02 -0.610E-02
 -20.286 -0.633E-02 -0.633E-02
 -20.276 -0.656E-02 -0.656E-02
 -20.266 -0.679E-02 -0.679E-02
 -20.256 -0.702E-02 -0.702E-02
 -20.246 -0.725E-02 -0.725E-02
 -20.236 -0.748E-02 -0.748E-02
 -20.226 -0.770E-02 -0.770E-02
 -20.216 -0.792E-02 -0.792E-02
 -20.206 -0.813E-02 -0.813E-02
 -20.196 -0.833E-02 -0.833E-02
 -20.186 -0.853E-02 -0.853E-02
 -20.176 -0.872E-02 -0.872E-02
 -20.166 -0.890E-02 -0.890E-02
 -20.156 -0.907E-02 -0.907E-02
 -20.146 -0.923E-02 -0.923E-02
 -20.136 -0.937E-02 -0.937E-02
 -20.126 -0.950E-02 -0.950E-02
 -20.116 -0.961E-02 -0.961E-02
 -20.106 -0.970E-02 -0.970E-02
 -20.096 -0.978E-02 -0.978E-02
 -20.086 -0.983E-02 -0.983E-02
 -20.076 -0.986E-02 -0.986E-02
 -20.066 -0.987E-02 -0.987E-02
 -20.056 -0.985E-02 -0.985E-02
 -20.046 -0.981E-02 -0.981E-02
 -20.036 -0.973E-02 -0.973E-02
 -20.026 -0.963E-02 -0.963E-02
 -20.016 -0.949E-02 -0.949E-02
 -20.006 -0.932E-02 -0.932E-02
 -19.996 -0.911E-02 -0.911E-02
 -19.986 -0.886E-02 -0.886E-02
 -19.976 -0.857E-02 -0.857E-02
 -19.966 -0.824E-02 -0.824E-02
 -19.956 -0.787E-02 -0.787E-02
 -19.946 -0.745E-02 -0.745E-02
 -19.936 -0.699E-02 -0.699E-02
 -19.926 -0.647E-02 -0.647E-02
 -19.916 -0.590E-02 -0.590E-02
 -19.906 -0.528E-02 -0.528E-02
 -19.896 -0.461E-02 -0.461E-02
 -19.886 -0.387E-02 -0.387E-02
 -19.876 -0.308E-02 -0.308E-02
 -19.866 -0.223E-02 -0.223E-02
 -19.856 -0.132E-02 -0.132E-02
 -19.846 -0.341E-03 -0.341E-03
 -19.836  0.702E-03  0.702E-03
 -19.826  0.181E-02  0.181E-02
 -19.816  0.299E-02  0.299E-02
 -19.806  0.424E-02  0.424E-02
 -19.796  0.556E-02  0.556E-02
 -19.786  0.695E-02  0.695E-02
 -19.776  0.841E-02  0.841E-02
 -19.766  0.995E-02  0.995E-02
 -19.756  0.116E-01  0.116E-01
 -19.746  0.133E-01  0.133E-01
 -19.736  0.150E-01  0.150E-01
 -19.726  0.169E-01  0.169E-01
 -19.716  0.188E-01  0.188E-01
 -19.706  0.208E-01  0.208E-01
 -19.696  0.229E-01  0.229E-01
 -19.686  0.250E-01  0.250E-01
 -19.676  0.272E-01  0.272E-01
 -19.666  0.296E-01  0.296E-01
 -19.656  0.319E-01  0.319E-01
 -19.646  0.344E-01  0.344E-01
 -19.636  0.369E-01  0.369E-01
 -19.626  0.396E-01  0.396E-01
 -19.616  0.422E-01  0.422E-01
 -19.606  0.450E-01  0.450E-01
 -19.596  0.478E-01  0.478E-01
 -19.586  0.507E-01  0.507E-01
 -19.576  0.537E-01  0.537E-01
 -19.566  0.567E-01  0.567E-01
 -19.556  0.598E-01  0.598E-01
 -19.546  0.630E-01  0.630E-01
 -19.536  0.662E-01  0.662E-01
 -19.526  0.694E-01  0.694E-01
 -19.516  0.727E-01  0.727E-01
 -19.506  0.761E-01  0.761E-01
 -19.496  0.795E-01  0.795E-01
 -19.486  0.830E-01  0.830E-01
 -19.476  0.865E-01  0.865E-01
 -19.466  0.900E-01  0.900E-01
 -19.456  0.935E-01  0.935E-01
 -19.446  0.971E-01  0.971E-01
 -19.436  0.101E+00  0.101E+00
 -19.426  0.104E+00  0.104E+00
 -19.416  0.108E+00  0.108E+00
 -19.406  0.112E+00  0.112E+00
 -19.396  0.115E+00  0.115E+00
 -19.386  0.119E+00  0.119E+00
 -19.376  0.123E+00  0.123E+00
 -19.366  0.126E+00  0.126E+00
 -19.356  0.130E+00  0.130E+00
 -19.346  0.133E+00  0.133E+00
 -19.336  0.137E+00  0.137E+00
 -19.326  0.140E+00  0.140E+00
 -19.316  0.144E+00  0.144E+00
 -19.306  0.147E+00  0.147E+00
 -19.296  0.151E+00  0.151E+00
 -19.286  0.154E+00  0.154E+00
 -19.276  0.157E+00  0.157E+00
 -19.266  0.161E+00  0.161E+00
 -19.256  0.164E+00  0.164E+00
 -19.246  0.167E+00  0.167E+00
 -19.236  0.170E+00  0.170E+00
 -19.226  0.173E+00  0.173E+00
 -19.216  0.176E+00  0.176E+00
 -19.206  0.178E+00  0.178E+00
 -19.196  0.181E+00  0.181E+00
 -19.186  0.184E+00  0.184E+00
 -19.176  0.186E+00  0.186E+00
 -19.166  0.188E+00  0.188E+00
 -19.156  0.191E+00  0.191E+00
 -19.146  0.193E+00  0.193E+00
 -19.136  0.195E+00  0.195E+00
 -19.126  0.196E+00  0.196E+00
 -19.116  0.198E+00  0.198E+00
 -19.106  0.200E+00  0.200E+00
 -19.096  0.201E+00  0.201E+00
 -19.086  0.202E+00  0.202E+00
 -19.076  0.204E+00  0.204E+00
 -19.066  0.205E+00  0.205E+00
 -19.056  0.205E+00  0.205E+00
 -19.046  0.206E+00  0.206E+00
 -19.036  0.207E+00  0.207E+00
 -19.026  0.207E+00  0.207E+00
 -19.016  0.207E+00  0.207E+00
 -19.006  0.208E+00  0.208E+00
 -18.996  0.208E+00  0.208E+00
 -18.986  0.207E+00  0.207E+00
 -18.976  0.207E+00  0.207E+00
 -18.966  0.207E+00  0.207E+00
 -18.956  0.206E+00  0.206E+00
 -18.946  0.205E+00  0.205E+00
 -18.936  0.204E+00  0.204E+00
 -18.926  0.203E+00  0.203E+00
 -18.916  0.202E+00  0.202E+00
 -18.906  0.201E+00  0.201E+00
 -18.896  0.199E+00  0.199E+00
 -18.886  0.198E+00  0.198E+00
 -18.876  0.196E+00  0.196E+00
 -18.866  0.194E+00  0.194E+00
 -18.856  0.192E+00  0.192E+00
 -18.846  0.190E+00  0.190E+00
 -18.836  0.188E+00  0.188E+00
 -18.826  0.185E+00  0.185E+00
 -18.816  0.183E+00  0.183E+00
 -18.806  0.180E+00  0.180E+00
 -18.796  0.178E+00  0.178E+00
 -18.786  0.175E+00  0.175E+00
 -18.776  0.172E+00  0.172E+00
 -18.766  0.169E+00  0.169E+00
 -18.756  0.166E+00  0.166E+00
 -18.746  0.163E+00  0.163E+00
 -18.736  0.159E+00  0.159E+00
 -18.726  0.156E+00  0.156E+00
 -18.716  0.153E+00  0.153E+00
 -18.706  0.149E+00  0.149E+00
 -18.696  0.146E+00  0.146E+00
 -18.686  0.142E+00  0.142E+00
 -18.676  0.139E+00  0.139E+00
 -18.666  0.135E+00  0.135E+00
 -18.656  0.131E+00  0.131E+00
 -18.646  0.128E+00  0.128E+00
 -18.636  0.124E+00  0.124E+00
 -18.626  0.120E+00  0.120E+00
 -18.616  0.117E+00  0.117E+00
 -18.606  0.113E+00  0.113E+00
 -18.596  0.109E+00  0.109E+00
 -18.586  0.105E+00  0.105E+00
 -18.576  0.102E+00  0.102E+00
 -18.566  0.978E-01  0.978E-01
 -18.556  0.941E-01  0.941E-01
 -18.546  0.903E-01  0.903E-01
 -18.536  0.866E-01  0.866E-01
 -18.526  0.829E-01  0.829E-01
 -18.516  0.793E-01  0.793E-01
 -18.506  0.757E-01  0.757E-01
 -18.496  0.721E-01  0.721E-01
 -18.486  0.685E-01  0.685E-01
 -18.476  0.650E-01  0.650E-01
 -18.466  0.615E-01  0.615E-01
 -18.456  0.581E-01  0.581E-01
 -18.446  0.547E-01  0.547E-01
 -18.436  0.514E-01  0.514E-01
 -18.426  0.481E-01  0.481E-01
 -18.416  0.449E-01  0.449E-01
 -18.406  0.417E-01  0.417E-01
 -18.396  0.386E-01  0.386E-01
 -18.386  0.356E-01  0.356E-01
 -18.376  0.326E-01  0.326E-01
 -18.366  0.297E-01  0.297E-01
 -18.356  0.269E-01  0.269E-01
 -18.346  0.241E-01  0.241E-01
 -18.336  0.214E-01  0.214E-01
 -18.326  0.187E-01  0.187E-01
 -18.316  0.162E-01  0.162E-01
 -18.306  0.137E-01  0.137E-01
 -18.296  0.112E-01  0.112E-01
 -18.286  0.884E-02  0.884E-02
 -18.276  0.655E-02  0.655E-02
 -18.266  0.432E-02  0.432E-02
 -18.256  0.216E-02  0.216E-02
 -18.246  0.670E-04  0.670E-04
 -18.236 -0.195E-02 -0.195E-02
 -18.226 -0.390E-02 -0.390E-02
 -18.216 -0.579E-02 -0.579E-02
 -18.206 -0.760E-02 -0.760E-02
 -18.196 -0.934E-02 -0.934E-02
 -18.186 -0.110E-01 -0.110E-01
 -18.176 -0.126E-01 -0.126E-01
 -18.166 -0.142E-01 -0.142E-01
 -18.156 -0.156E-01 -0.156E-01
 -18.146 -0.171E-01 -0.171E-01
 -18.136 -0.184E-01 -0.184E-01
 -18.126 -0.197E-01 -0.197E-01
 -18.116 -0.209E-01 -0.209E-01
 -18.106 -0.220E-01 -0.220E-01
 -18.096 -0.231E-01 -0.231E-01
 -18.086 -0.241E-01 -0.241E-01
 -18.076 -0.251E-01 -0.251E-01
 -18.066 -0.260E-01 -0.260E-01
 -18.056 -0.268E-01 -0.268E-01
 -18.046 -0.275E-01 -0.275E-01
 -18.036 -0.282E-01 -0.282E-01
 -18.026 -0.289E-01 -0.289E-01
 -18.016 -0.294E-01 -0.294E-01
 -18.006 -0.299E-01 -0.299E-01
 -17.996 -0.304E-01 -0.304E-01
 -17.986 -0.307E-01 -0.307E-01
 -17.976 -0.310E-01 -0.310E-01
 -17.966 -0.313E-01 -0.313E-01
 -17.956 -0.314E-01 -0.314E-01
 -17.946 -0.315E-01 -0.315E-01
 -17.936 -0.316E-01 -0.316E-01
 -17.926 -0.315E-01 -0.315E-01
 -17.916 -0.314E-01 -0.314E-01
 -17.906 -0.312E-01 -0.312E-01
 -17.896 -0.309E-01 -0.309E-01
 -17.886 -0.306E-01 -0.306E-01
 -17.876 -0.302E-01 -0.302E-01
 -17.866 -0.297E-01 -0.297E-01
 -17.856 -0.291E-01 -0.291E-01
 -17.846 -0.284E-01 -0.284E-01
 -17.836 -0.277E-01 -0.277E-01
 -17.826 -0.268E-01 -0.268E-01
 -17.816 -0.259E-01 -0.259E-01
 -17.806 -0.249E-01 -0.249E-01
 -17.796 -0.237E-01 -0.237E-01
 -17.786 -0.225E-01 -0.225E-01
 -17.776 -0.212E-01 -0.212E-01
 -17.766 -0.198E-01 -0.198E-01
 -17.756 -0.183E-01 -0.183E-01
 -17.746 -0.166E-01 -0.166E-01
 -17.736 -0.149E-01 -0.149E-01
 -17.726 -0.131E-01 -0.131E-01
 -17.716 -0.111E-01 -0.111E-01
 -17.706 -0.904E-02 -0.904E-02
 -17.696 -0.686E-02 -0.686E-02
 -17.686 -0.456E-02 -0.456E-02
 -17.676 -0.214E-02 -0.214E-02
 -17.666  0.396E-03  0.396E-03
 -17.656  0.306E-02  0.306E-02
 -17.646  0.584E-02  0.584E-02
 -17.636  0.875E-02  0.875E-02
 -17.626  0.118E-01  0.118E-01
 -17.616  0.149E-01  0.149E-01
 -17.606  0.182E-01  0.182E-01
 -17.596  0.217E-01  0.217E-01
 -17.586  0.252E-01  0.252E-01
 -17.576  0.289E-01  0.289E-01
 -17.566  0.327E-01  0.327E-01
 -17.556  0.366E-01  0.366E-01
 -17.546  0.407E-01  0.407E-01
 -17.536  0.449E-01  0.449E-01
 -17.526  0.492E-01  0.492E-01
 -17.516  0.536E-01  0.536E-01
 -17.506  0.582E-01  0.582E-01
 -17.496  0.629E-01  0.629E-01
 -17.486  0.677E-01  0.677E-01
 -17.476  0.727E-01  0.727E-01
 -17.466  0.777E-01  0.777E-01
 -17.456  0.829E-01  0.829E-01
 -17.446  0.881E-01  0.881E-01
 -17.436  0.935E-01  0.935E-01
 -17.426  0.990E-01  0.990E-01
 -17.416  0.105E+00  0.105E+00
 -17.406  0.110E+00  0.110E+00
 -17.396  0.116E+00  0.116E+00
 -17.386  0.122E+00  0.122E+00
 -17.376  0.128E+00  0.128E+00
 -17.366  0.134E+00  0.134E+00
 -17.356  0.140E+00  0.140E+00
 -17.346  0.146E+00  0.146E+00
 -17.336  0.152E+00  0.152E+00
 -17.326  0.158E+00  0.158E+00
 -17.316  0.165E+00  0.165E+00
 -17.306  0.171E+00  0.171E+00
 -17.296  0.177E+00  0.177E+00
 -17.286  0.184E+00  0.184E+00
 -17.276  0.190E+00  0.190E+00
 -17.266  0.197E+00  0.197E+00
 -17.256  0.203E+00  0.203E+00
 -17.246  0.209E+00  0.209E+00
 -17.236  0.216E+00  0.216E+00
 -17.226  0.222E+00  0.222E+00
 -17.216  0.228E+00  0.228E+00
 -17.206  0.235E+00  0.235E+00
 -17.196  0.241E+00  0.241E+00
 -17.186  0.247E+00  0.247E+00
 -17.176  0.253E+00  0.253E+00
 -17.166  0.259E+00  0.259E+00
 -17.156  0.265E+00  0.265E+00
 -17.146  0.271E+00  0.271E+00
 -17.136  0.277E+00  0.277E+00
 -17.126  0.283E+00  0.283E+00
 -17.116  0.288E+00  0.288E+00
 -17.106  0.293E+00  0.293E+00
 -17.096  0.299E+00  0.299E+00
 -17.086  0.304E+00  0.304E+00
 -17.076  0.309E+00  0.309E+00
 -17.066  0.314E+00  0.314E+00
 -17.056  0.318E+00  0.318E+00
 -17.046  0.323E+00  0.323E+00
 -17.036  0.327E+00  0.327E+00
 -17.026  0.331E+00  0.331E+00
 -17.016  0.335E+00  0.335E+00
 -17.006  0.339E+00  0.339E+00
 -16.996  0.343E+00  0.343E+00
 -16.986  0.346E+00  0.346E+00
 -16.976  0.349E+00  0.349E+00
 -16.966  0.352E+00  0.352E+00
 -16.956  0.355E+00  0.355E+00
 -16.946  0.357E+00  0.357E+00
 -16.936  0.360E+00  0.360E+00
 -16.926  0.362E+00  0.362E+00
 -16.916  0.364E+00  0.364E+00
 -16.906  0.365E+00  0.365E+00
 -16.896  0.367E+00  0.367E+00
 -16.886  0.368E+00  0.368E+00
 -16.876  0.369E+00  0.369E+00
 -16.866  0.369E+00  0.369E+00
 -16.856  0.370E+00  0.370E+00
 -16.846  0.370E+00  0.370E+00
 -16.836  0.370E+00  0.370E+00
 -16.826  0.370E+00  0.370E+00
 -16.816  0.369E+00  0.369E+00
 -16.806  0.369E+00  0.369E+00
 -16.796  0.368E+00  0.368E+00
 -16.786  0.367E+00  0.367E+00
 -16.776  0.366E+00  0.366E+00
 -16.766  0.364E+00  0.364E+00
 -16.756  0.362E+00  0.362E+00
 -16.746  0.361E+00  0.361E+00
 -16.736  0.358E+00  0.358E+00
 -16.726  0.356E+00  0.356E+00
 -16.716  0.354E+00  0.354E+00
 -16.706  0.351E+00  0.351E+00
 -16.696  0.348E+00  0.348E+00
 -16.686  0.345E+00  0.345E+00
 -16.676  0.342E+00  0.342E+00
 -16.666  0.339E+00  0.339E+00
 -16.656  0.336E+00  0.336E+00
 -16.646  0.332E+00  0.332E+00
 -16.636  0.328E+00  0.328E+00
 -16.626  0.324E+00  0.324E+00
 -16.616  0.321E+00  0.321E+00
 -16.606  0.317E+00  0.317E+00
 -16.596  0.312E+00  0.312E+00
 -16.586  0.308E+00  0.308E+00
 -16.576  0.304E+00  0.304E+00
 -16.566  0.300E+00  0.300E+00
 -16.556  0.295E+00  0.295E+00
 -16.546  0.291E+00  0.291E+00
 -16.536  0.286E+00  0.286E+00
 -16.526  0.281E+00  0.281E+00
 -16.516  0.277E+00  0.277E+00
 -16.506  0.272E+00  0.272E+00
 -16.496  0.267E+00  0.267E+00
 -16.486  0.263E+00  0.263E+00
 -16.476  0.258E+00  0.258E+00
 -16.466  0.253E+00  0.253E+00
 -16.456  0.248E+00  0.248E+00
 -16.446  0.244E+00  0.244E+00
 -16.436  0.239E+00  0.239E+00
 -16.426  0.234E+00  0.234E+00
 -16.416  0.230E+00  0.230E+00
 -16.406  0.225E+00  0.225E+00
 -16.396  0.220E+00  0.220E+00
 -16.386  0.216E+00  0.216E+00
 -16.376  0.211E+00  0.211E+00
 -16.366  0.207E+00  0.207E+00
 -16.356  0.202E+00  0.202E+00
 -16.346  0.198E+00  0.198E+00
 -16.336  0.193E+00  0.193E+00
 -16.326  0.189E+00  0.189E+00
 -16.316  0.185E+00  0.185E+00
 -16.306  0.181E+00  0.181E+00
 -16.296  0.177E+00  0.177E+00
 -16.286  0.172E+00  0.172E+00
 -16.276  0.169E+00  0.169E+00
 -16.266  0.165E+00  0.165E+00
 -16.256  0.161E+00  0.161E+00
 -16.246  0.157E+00  0.157E+00
 -16.236  0.153E+00  0.153E+00
 -16.226  0.150E+00  0.150E+00
 -16.216  0.146E+00  0.146E+00
 -16.206  0.143E+00  0.143E+00
 -16.196  0.139E+00  0.139E+00
 -16.186  0.136E+00  0.136E+00
 -16.176  0.133E+00  0.133E+00
 -16.166  0.129E+00  0.129E+00
 -16.156  0.126E+00  0.126E+00
 -16.146  0.123E+00  0.123E+00
 -16.136  0.120E+00  0.120E+00
 -16.126  0.117E+00  0.117E+00
 -16.116  0.114E+00  0.114E+00
 -16.106  0.112E+00  0.112E+00
 -16.096  0.109E+00  0.109E+00
 -16.086  0.106E+00  0.106E+00
 -16.076  0.104E+00  0.104E+00
 -16.066  0.101E+00  0.101E+00
 -16.056  0.985E-01  0.985E-01
 -16.046  0.961E-01  0.961E-01
 -16.036  0.937E-01  0.937E-01
 -16.026  0.913E-01  0.913E-01
 -16.016  0.890E-01  0.890E-01
 -16.006  0.868E-01  0.868E-01
 -15.996  0.846E-01  0.846E-01
 -15.986  0.824E-01  0.824E-01
 -15.976  0.803E-01  0.803E-01
 -15.966  0.782E-01  0.782E-01
 -15.956  0.761E-01  0.761E-01
 -15.946  0.741E-01  0.741E-01
 -15.936  0.722E-01  0.722E-01
 -15.926  0.702E-01  0.702E-01
 -15.916  0.683E-01  0.683E-01
 -15.906  0.664E-01  0.664E-01
 -15.896  0.646E-01  0.646E-01
 -15.886  0.628E-01  0.628E-01
 -15.876  0.610E-01  0.610E-01
 -15.866  0.592E-01  0.592E-01
 -15.856  0.575E-01  0.575E-01
 -15.846  0.558E-01  0.558E-01
 -15.836  0.541E-01  0.541E-01
 -15.826  0.524E-01  0.524E-01
 -15.816  0.508E-01  0.508E-01
 -15.806  0.491E-01  0.491E-01
 -15.796  0.475E-01  0.475E-01
 -15.786  0.460E-01  0.460E-01
 -15.776  0.444E-01  0.444E-01
 -15.766  0.428E-01  0.428E-01
 -15.756  0.413E-01  0.413E-01
 -15.746  0.398E-01  0.398E-01
 -15.736  0.383E-01  0.383E-01
 -15.726  0.369E-01  0.369E-01
 -15.716  0.354E-01  0.354E-01
 -15.706  0.340E-01  0.340E-01
 -15.696  0.326E-01  0.326E-01
 -15.686  0.312E-01  0.312E-01
 -15.676  0.298E-01  0.298E-01
 -15.666  0.285E-01  0.285E-01
 -15.656  0.271E-01  0.271E-01
 -15.646  0.258E-01  0.258E-01
 -15.636  0.245E-01  0.245E-01
 -15.626  0.232E-01  0.232E-01
 -15.616  0.220E-01  0.220E-01
 -15.606  0.207E-01  0.207E-01
 -15.596  0.195E-01  0.195E-01
 -15.586  0.183E-01  0.183E-01
 -15.576  0.172E-01  0.172E-01
 -15.566  0.160E-01  0.160E-01
 -15.556  0.149E-01  0.149E-01
 -15.546  0.138E-01  0.138E-01
 -15.536  0.127E-01  0.127E-01
 -15.526  0.116E-01  0.116E-01
 -15.516  0.106E-01  0.106E-01
 -15.506  0.958E-02  0.958E-02
 -15.496  0.858E-02  0.858E-02
 -15.486  0.761E-02  0.761E-02
 -15.476  0.666E-02  0.666E-02
 -15.466  0.574E-02  0.574E-02
 -15.456  0.483E-02  0.483E-02
 -15.446  0.395E-02  0.395E-02
 -15.436  0.309E-02  0.309E-02
 -15.426  0.226E-02  0.226E-02
 -15.416  0.145E-02  0.145E-02
 -15.406  0.658E-03  0.658E-03
 -15.396 -0.110E-03 -0.110E-03
 -15.386 -0.856E-03 -0.856E-03
 -15.376 -0.158E-02 -0.158E-02
 -15.366 -0.228E-02 -0.228E-02
 -15.356 -0.296E-02 -0.296E-02
 -15.346 -0.362E-02 -0.362E-02
 -15.336 -0.426E-02 -0.426E-02
 -15.326 -0.488E-02 -0.488E-02
 -15.316 -0.548E-02 -0.548E-02
 -15.306 -0.606E-02 -0.606E-02
 -15.296 -0.662E-02 -0.662E-02
 -15.286 -0.717E-02 -0.717E-02
 -15.276 -0.769E-02 -0.769E-02
 -15.266 -0.820E-02 -0.820E-02
 -15.256 -0.869E-02 -0.869E-02
 -15.246 -0.916E-02 -0.916E-02
 -15.236 -0.962E-02 -0.962E-02
 -15.226 -0.101E-01 -0.101E-01
 -15.216 -0.105E-01 -0.105E-01
 -15.206 -0.109E-01 -0.109E-01
 -15.196 -0.113E-01 -0.113E-01
 -15.186 -0.117E-01 -0.117E-01
 -15.176 -0.120E-01 -0.120E-01
 -15.166 -0.124E-01 -0.124E-01
 -15.156 -0.127E-01 -0.127E-01
 -15.146 -0.131E-01 -0.131E-01
 -15.136 -0.134E-01 -0.134E-01
 -15.126 -0.137E-01 -0.137E-01
 -15.116 -0.140E-01 -0.140E-01
 -15.106 -0.143E-01 -0.143E-01
 -15.096 -0.145E-01 -0.145E-01
 -15.086 -0.148E-01 -0.148E-01
 -15.076 -0.150E-01 -0.150E-01
 -15.066 -0.153E-01 -0.153E-01
 -15.056 -0.155E-01 -0.155E-01
 -15.046 -0.157E-01 -0.157E-01
 -15.036 -0.159E-01 -0.159E-01
 -15.026 -0.161E-01 -0.161E-01
 -15.016 -0.163E-01 -0.163E-01
 -15.006 -0.164E-01 -0.164E-01
 -14.996 -0.166E-01 -0.166E-01
 -14.986 -0.167E-01 -0.167E-01
 -14.976 -0.168E-01 -0.168E-01
 -14.966 -0.169E-01 -0.169E-01
 -14.956 -0.170E-01 -0.170E-01
 -14.946 -0.171E-01 -0.171E-01
 -14.936 -0.172E-01 -0.172E-01
 -14.926 -0.172E-01 -0.172E-01
 -14.916 -0.172E-01 -0.172E-01
 -14.906 -0.172E-01 -0.172E-01
 -14.896 -0.172E-01 -0.172E-01
 -14.886 -0.171E-01 -0.171E-01
 -14.876 -0.171E-01 -0.171E-01
 -14.866 -0.170E-01 -0.170E-01
 -14.856 -0.169E-01 -0.169E-01
 -14.846 -0.167E-01 -0.167E-01
 -14.836 -0.165E-01 -0.165E-01
 -14.826 -0.163E-01 -0.163E-01
 -14.816 -0.161E-01 -0.161E-01
 -14.806 -0.158E-01 -0.158E-01
 -14.796 -0.155E-01 -0.155E-01
 -14.786 -0.152E-01 -0.152E-01
 -14.776 -0.148E-01 -0.148E-01
 -14.766 -0.143E-01 -0.143E-01
 -14.756 -0.139E-01 -0.139E-01
 -14.746 -0.134E-01 -0.134E-01
 -14.736 -0.128E-01 -0.128E-01
 -14.726 -0.122E-01 -0.122E-01
 -14.716 -0.116E-01 -0.116E-01
 -14.706 -0.109E-01 -0.109E-01
 -14.696 -0.101E-01 -0.101E-01
 -14.686 -0.928E-02 -0.928E-02
 -14.676 -0.841E-02 -0.841E-02
 -14.666 -0.749E-02 -0.749E-02
 -14.656 -0.650E-02 -0.650E-02
 -14.646 -0.545E-02 -0.545E-02
 -14.636 -0.434E-02 -0.434E-02
 -14.626 -0.316E-02 -0.316E-02
 -14.616 -0.191E-02 -0.191E-02
 -14.606 -0.601E-03 -0.601E-03
 -14.596  0.781E-03  0.781E-03
 -14.586  0.223E-02  0.223E-02
 -14.576  0.376E-02  0.376E-02
 -14.566  0.536E-02  0.536E-02
 -14.556  0.703E-02  0.703E-02
 -14.546  0.877E-02  0.877E-02
 -14.536  0.106E-01  0.106E-01
 -14.526  0.125E-01  0.125E-01
 -14.516  0.145E-01  0.145E-01
 -14.506  0.165E-01  0.165E-01
 -14.496  0.187E-01  0.187E-01
 -14.486  0.209E-01  0.209E-01
 -14.476  0.232E-01  0.232E-01
 -14.466  0.255E-01  0.255E-01
 -14.456  0.280E-01  0.280E-01
 -14.446  0.305E-01  0.305E-01
 -14.436  0.331E-01  0.331E-01
 -14.426  0.358E-01  0.358E-01
 -14.416  0.385E-01  0.385E-01
 -14.406  0.413E-01  0.413E-01
 -14.396  0.442E-01  0.442E-01
 -14.386  0.472E-01  0.472E-01
 -14.376  0.502E-01  0.502E-01
 -14.366  0.533E-01  0.533E-01
 -14.356  0.565E-01  0.565E-01
 -14.346  0.597E-01  0.597E-01
 -14.336  0.630E-01  0.630E-01
 -14.326  0.664E-01  0.664E-01
 -14.316  0.698E-01  0.698E-01
 -14.306  0.732E-01  0.732E-01
 -14.296  0.767E-01  0.767E-01
 -14.286  0.803E-01  0.803E-01
 -14.276  0.839E-01  0.839E-01
 -14.266  0.875E-01  0.875E-01
 -14.256  0.912E-01  0.912E-01
 -14.246  0.949E-01  0.949E-01
 -14.236  0.986E-01  0.986E-01
 -14.226  0.102E+00  0.102E+00
 -14.216  0.106E+00  0.106E+00
 -14.206  0.110E+00  0.110E+00
 -14.196  0.114E+00  0.114E+00
 -14.186  0.118E+00  0.118E+00
 -14.176  0.121E+00  0.121E+00
 -14.166  0.125E+00  0.125E+00
 -14.156  0.129E+00  0.129E+00
 -14.146  0.133E+00  0.133E+00
 -14.136  0.136E+00  0.136E+00
 -14.126  0.140E+00  0.140E+00
 -14.116  0.144E+00  0.144E+00
 -14.106  0.148E+00  0.148E+00
 -14.096  0.151E+00  0.151E+00
 -14.086  0.155E+00  0.155E+00
 -14.076  0.158E+00  0.158E+00
 -14.066  0.162E+00  0.162E+00
 -14.056  0.165E+00  0.165E+00
 -14.046  0.169E+00  0.169E+00
 -14.036  0.172E+00  0.172E+00
 -14.026  0.175E+00  0.175E+00
 -14.016  0.178E+00  0.178E+00
 -14.006  0.181E+00  0.181E+00
 -13.996  0.184E+00  0.184E+00
 -13.986  0.187E+00  0.187E+00
 -13.976  0.190E+00  0.190E+00
 -13.966  0.193E+00  0.193E+00
 -13.956  0.195E+00  0.195E+00
 -13.946  0.198E+00  0.198E+00
 -13.936  0.200E+00  0.200E+00
 -13.926  0.203E+00  0.203E+00
 -13.916  0.205E+00  0.205E+00
 -13.906  0.207E+00  0.207E+00
 -13.896  0.209E+00  0.209E+00
 -13.886  0.211E+00  0.211E+00
 -13.876  0.213E+00  0.213E+00
 -13.866  0.214E+00  0.214E+00
 -13.856  0.216E+00  0.216E+00
 -13.846  0.217E+00  0.217E+00
 -13.836  0.218E+00  0.218E+00
 -13.826  0.219E+00  0.219E+00
 -13.816  0.220E+00  0.220E+00
 -13.806  0.221E+00  0.221E+00
 -13.796  0.222E+00  0.222E+00
 -13.786  0.223E+00  0.223E+00
 -13.776  0.223E+00  0.223E+00
 -13.766  0.224E+00  0.224E+00
 -13.756  0.224E+00  0.224E+00
 -13.746  0.224E+00  0.224E+00
 -13.736  0.224E+00  0.224E+00
 -13.726  0.224E+00  0.224E+00
 -13.716  0.224E+00  0.224E+00
 -13.706  0.224E+00  0.224E+00
 -13.696  0.223E+00  0.223E+00
 -13.686  0.223E+00  0.223E+00
 -13.676  0.222E+00  0.222E+00
 -13.666  0.221E+00  0.221E+00
 -13.656  0.221E+00  0.221E+00
 -13.646  0.220E+00  0.220E+00
 -13.636  0.219E+00  0.219E+00
 -13.626  0.218E+00  0.218E+00
 -13.616  0.217E+00  0.217E+00
 -13.606  0.216E+00  0.216E+00
 -13.596  0.214E+00  0.214E+00
 -13.586  0.213E+00  0.213E+00
 -13.576  0.212E+00  0.212E+00
 -13.566  0.210E+00  0.210E+00
 -13.556  0.209E+00  0.209E+00
 -13.546  0.207E+00  0.207E+00
 -13.536  0.206E+00  0.206E+00
 -13.526  0.204E+00  0.204E+00
 -13.516  0.203E+00  0.203E+00
 -13.506  0.201E+00  0.201E+00
 -13.496  0.199E+00  0.199E+00
 -13.486  0.198E+00  0.198E+00
 -13.476  0.196E+00  0.196E+00
 -13.466  0.194E+00  0.194E+00
 -13.456  0.193E+00  0.193E+00
 -13.446  0.191E+00  0.191E+00
 -13.436  0.189E+00  0.189E+00
 -13.426  0.187E+00  0.187E+00
 -13.416  0.186E+00  0.186E+00
 -13.406  0.184E+00  0.184E+00
 -13.396  0.182E+00  0.182E+00
 -13.386  0.181E+00  0.181E+00
 -13.376  0.179E+00  0.179E+00
 -13.366  0.178E+00  0.178E+00
 -13.356  0.176E+00  0.176E+00
 -13.346  0.174E+00  0.174E+00
 -13.336  0.173E+00  0.173E+00
 -13.326  0.171E+00  0.171E+00
 -13.316  0.170E+00  0.170E+00
 -13.306  0.168E+00  0.168E+00
 -13.296  0.167E+00  0.167E+00
 -13.286  0.166E+00  0.166E+00
 -13.276  0.164E+00  0.164E+00
 -13.266  0.163E+00  0.163E+00
 -13.256  0.162E+00  0.162E+00
 -13.246  0.160E+00  0.160E+00
 -13.236  0.159E+00  0.159E+00
 -13.226  0.158E+00  0.158E+00
 -13.216  0.157E+00  0.157E+00
 -13.206  0.156E+00  0.156E+00
 -13.196  0.155E+00  0.155E+00
 -13.186  0.154E+00  0.154E+00
 -13.176  0.153E+00  0.153E+00
 -13.166  0.152E+00  0.152E+00
 -13.156  0.151E+00  0.151E+00
 -13.146  0.150E+00  0.150E+00
 -13.136  0.149E+00  0.149E+00
 -13.126  0.148E+00  0.148E+00
 -13.116  0.147E+00  0.147E+00
 -13.106  0.146E+00  0.146E+00
 -13.096  0.145E+00  0.145E+00
 -13.086  0.144E+00  0.144E+00
 -13.076  0.143E+00  0.143E+00
 -13.066  0.143E+00  0.143E+00
 -13.056  0.142E+00  0.142E+00
 -13.046  0.141E+00  0.141E+00
 -13.036  0.140E+00  0.140E+00
 -13.026  0.139E+00  0.139E+00
 -13.016  0.138E+00  0.138E+00
 -13.006  0.137E+00  0.137E+00
 -12.996  0.137E+00  0.137E+00
 -12.986  0.136E+00  0.136E+00
 -12.976  0.135E+00  0.135E+00
 -12.966  0.134E+00  0.134E+00
 -12.956  0.133E+00  0.133E+00
 -12.946  0.132E+00  0.132E+00
 -12.936  0.131E+00  0.131E+00
 -12.926  0.130E+00  0.130E+00
 -12.916  0.129E+00  0.129E+00
 -12.906  0.128E+00  0.128E+00
 -12.896  0.127E+00  0.127E+00
 -12.886  0.125E+00  0.125E+00
 -12.876  0.124E+00  0.124E+00
 -12.866  0.123E+00  0.123E+00
 -12.856  0.122E+00  0.122E+00
 -12.846  0.120E+00  0.120E+00
 -12.836  0.119E+00  0.119E+00
 -12.826  0.118E+00  0.118E+00
 -12.816  0.116E+00  0.116E+00
 -12.806  0.115E+00  0.115E+00
 -12.796  0.113E+00  0.113E+00
 -12.786  0.112E+00  0.112E+00
 -12.776  0.110E+00  0.110E+00
 -12.766  0.109E+00  0.109E+00
 -12.756  0.107E+00  0.107E+00
 -12.746  0.105E+00  0.105E+00
 -12.736  0.103E+00  0.103E+00
 -12.726  0.102E+00  0.102E+00
 -12.716  0.999E-01  0.999E-01
 -12.706  0.981E-01  0.981E-01
 -12.696  0.962E-01  0.962E-01
 -12.686  0.943E-01  0.943E-01
 -12.676  0.924E-01  0.924E-01
 -12.666  0.905E-01  0.905E-01
 -12.656  0.885E-01  0.885E-01
 -12.646  0.865E-01  0.865E-01
 -12.636  0.845E-01  0.845E-01
 -12.626  0.825E-01  0.825E-01
 -12.616  0.805E-01  0.805E-01
 -12.606  0.784E-01  0.784E-01
 -12.596  0.763E-01  0.763E-01
 -12.586  0.743E-01  0.743E-01
 -12.576  0.722E-01  0.722E-01
 -12.566  0.701E-01  0.701E-01
 -12.556  0.680E-01  0.680E-01
 -12.546  0.659E-01  0.659E-01
 -12.536  0.638E-01  0.638E-01
 -12.526  0.617E-01  0.617E-01
 -12.516  0.596E-01  0.596E-01
 -12.506  0.575E-01  0.575E-01
 -12.496  0.554E-01  0.554E-01
 -12.486  0.533E-01  0.533E-01
 -12.476  0.513E-01  0.513E-01
 -12.466  0.493E-01  0.493E-01
 -12.456  0.472E-01  0.472E-01
 -12.446  0.452E-01  0.452E-01
 -12.436  0.433E-01  0.433E-01
 -12.426  0.413E-01  0.413E-01
 -12.416  0.394E-01  0.394E-01
 -12.406  0.375E-01  0.375E-01
 -12.396  0.356E-01  0.356E-01
 -12.386  0.338E-01  0.338E-01
 -12.376  0.320E-01  0.320E-01
 -12.366  0.302E-01  0.302E-01
 -12.356  0.284E-01  0.284E-01
 -12.346  0.267E-01  0.267E-01
 -12.336  0.251E-01  0.251E-01
 -12.326  0.234E-01  0.234E-01
 -12.316  0.219E-01  0.219E-01
 -12.306  0.203E-01  0.203E-01
 -12.296  0.188E-01  0.188E-01
 -12.286  0.173E-01  0.173E-01
 -12.276  0.159E-01  0.159E-01
 -12.266  0.145E-01  0.145E-01
 -12.256  0.132E-01  0.132E-01
 -12.246  0.119E-01  0.119E-01
 -12.236  0.106E-01  0.106E-01
 -12.226  0.938E-02  0.938E-02
 -12.216  0.821E-02  0.821E-02
 -12.206  0.708E-02  0.708E-02
 -12.196  0.599E-02  0.599E-02
 -12.186  0.494E-02  0.494E-02
 -12.176  0.394E-02  0.394E-02
 -12.166  0.298E-02  0.298E-02
 -12.156  0.206E-02  0.206E-02
 -12.146  0.118E-02  0.118E-02
 -12.136  0.339E-03  0.339E-03
 -12.126 -0.460E-03 -0.460E-03
 -12.116 -0.122E-02 -0.122E-02
 -12.106 -0.194E-02 -0.194E-02
 -12.096 -0.263E-02 -0.263E-02
 -12.086 -0.328E-02 -0.328E-02
 -12.076 -0.389E-02 -0.389E-02
 -12.066 -0.447E-02 -0.447E-02
 -12.056 -0.502E-02 -0.502E-02
 -12.046 -0.553E-02 -0.553E-02
 -12.036 -0.601E-02 -0.601E-02
 -12.026 -0.646E-02 -0.646E-02
 -12.016 -0.688E-02 -0.688E-02
 -12.006 -0.728E-02 -0.728E-02
 -11.996 -0.764E-02 -0.764E-02
 -11.986 -0.798E-02 -0.798E-02
 -11.976 -0.830E-02 -0.830E-02
 -11.966 -0.859E-02 -0.859E-02
 -11.956 -0.885E-02 -0.885E-02
 -11.946 -0.910E-02 -0.910E-02
 -11.936 -0.932E-02 -0.932E-02
 -11.926 -0.953E-02 -0.953E-02
 -11.916 -0.972E-02 -0.972E-02
 -11.906 -0.989E-02 -0.989E-02
 -11.896 -0.100E-01 -0.100E-01
 -11.886 -0.102E-01 -0.102E-01
 -11.876 -0.103E-01 -0.103E-01
 -11.866 -0.104E-01 -0.104E-01
 -11.856 -0.105E-01 -0.105E-01
 -11.846 -0.106E-01 -0.106E-01
 -11.836 -0.107E-01 -0.107E-01
 -11.826 -0.107E-01 -0.107E-01
 -11.816 -0.108E-01 -0.108E-01
 -11.806 -0.108E-01 -0.108E-01
 -11.796 -0.109E-01 -0.109E-01
 -11.786 -0.109E-01 -0.109E-01
 -11.776 -0.109E-01 -0.109E-01
 -11.766 -0.109E-01 -0.109E-01
 -11.756 -0.109E-01 -0.109E-01
 -11.746 -0.109E-01 -0.109E-01
 -11.736 -0.109E-01 -0.109E-01
 -11.726 -0.109E-01 -0.109E-01
 -11.716 -0.109E-01 -0.109E-01
 -11.706 -0.109E-01 -0.109E-01
 -11.696 -0.109E-01 -0.109E-01
 -11.686 -0.109E-01 -0.109E-01
 -11.676 -0.109E-01 -0.109E-01
 -11.666 -0.108E-01 -0.108E-01
 -11.656 -0.108E-01 -0.108E-01
 -11.646 -0.108E-01 -0.108E-01
 -11.636 -0.107E-01 -0.107E-01
 -11.626 -0.107E-01 -0.107E-01
 -11.616 -0.106E-01 -0.106E-01
 -11.606 -0.106E-01 -0.106E-01
 -11.596 -0.105E-01 -0.105E-01
 -11.586 -0.105E-01 -0.105E-01
 -11.576 -0.104E-01 -0.104E-01
 -11.566 -0.103E-01 -0.103E-01
 -11.556 -0.102E-01 -0.102E-01
 -11.546 -0.101E-01 -0.101E-01
 -11.536 -0.100E-01 -0.100E-01
 -11.526 -0.993E-02 -0.993E-02
 -11.516 -0.981E-02 -0.981E-02
 -11.506 -0.968E-02 -0.968E-02
 -11.496 -0.954E-02 -0.954E-02
 -11.486 -0.939E-02 -0.939E-02
 -11.476 -0.922E-02 -0.922E-02
 -11.466 -0.904E-02 -0.904E-02
 -11.456 -0.884E-02 -0.884E-02
 -11.446 -0.863E-02 -0.863E-02
 -11.436 -0.840E-02 -0.840E-02
 -11.426 -0.815E-02 -0.815E-02
 -11.416 -0.788E-02 -0.788E-02
 -11.406 -0.759E-02 -0.759E-02
 -11.396 -0.728E-02 -0.728E-02
 -11.386 -0.694E-02 -0.694E-02
 -11.376 -0.658E-02 -0.658E-02
 -11.366 -0.620E-02 -0.620E-02
 -11.356 -0.579E-02 -0.579E-02
 -11.346 -0.535E-02 -0.535E-02
 -11.336 -0.488E-02 -0.488E-02
 -11.326 -0.439E-02 -0.439E-02
 -11.316 -0.386E-02 -0.386E-02
 -11.306 -0.330E-02 -0.330E-02
 -11.296 -0.270E-02 -0.270E-02
 -11.286 -0.207E-02 -0.207E-02
 -11.276 -0.140E-02 -0.140E-02
 -11.266 -0.702E-03 -0.702E-03
 -11.256  0.384E-04  0.384E-04
 -11.246  0.818E-03  0.818E-03
 -11.236  0.164E-02  0.164E-02
 -11.226  0.250E-02  0.250E-02
 -11.216  0.340E-02  0.340E-02
 -11.206  0.434E-02  0.434E-02
 -11.196  0.533E-02  0.533E-02
 -11.186  0.636E-02  0.636E-02
 -11.176  0.744E-02  0.744E-02
 -11.166  0.856E-02  0.856E-02
 -11.156  0.972E-02  0.972E-02
 -11.146  0.109E-01  0.109E-01
 -11.136  0.122E-01  0.122E-01
 -11.126  0.135E-01  0.135E-01
 -11.116  0.148E-01  0.148E-01
 -11.106  0.162E-01  0.162E-01
 -11.096  0.177E-01  0.177E-01
 -11.086  0.192E-01  0.192E-01
 -11.076  0.207E-01  0.207E-01
 -11.066  0.223E-01  0.223E-01
 -11.056  0.239E-01  0.239E-01
 -11.046  0.256E-01  0.256E-01
 -11.036  0.273E-01  0.273E-01
 -11.026  0.291E-01  0.291E-01
 -11.016  0.309E-01  0.309E-01
 -11.006  0.327E-01  0.327E-01
 -10.996  0.346E-01  0.346E-01
 -10.986  0.365E-01  0.365E-01
 -10.976  0.385E-01  0.385E-01
 -10.966  0.405E-01  0.405E-01
 -10.956  0.425E-01  0.425E-01
 -10.946  0.446E-01  0.446E-01
 -10.936  0.467E-01  0.467E-01
 -10.926  0.488E-01  0.488E-01
 -10.916  0.510E-01  0.510E-01
 -10.906  0.531E-01  0.531E-01
 -10.896  0.553E-01  0.553E-01
 -10.886  0.576E-01  0.576E-01
 -10.876  0.598E-01  0.598E-01
 -10.866  0.620E-01  0.620E-01
 -10.856  0.643E-01  0.643E-01
 -10.846  0.666E-01  0.666E-01
 -10.836  0.689E-01  0.689E-01
 -10.826  0.712E-01  0.712E-01
 -10.816  0.734E-01  0.734E-01
 -10.806  0.757E-01  0.757E-01
 -10.796  0.780E-01  0.780E-01
 -10.786  0.803E-01  0.803E-01
 -10.776  0.825E-01  0.825E-01
 -10.766  0.848E-01  0.848E-01
 -10.756  0.870E-01  0.870E-01
 -10.746  0.892E-01  0.892E-01
 -10.736  0.914E-01  0.914E-01
 -10.726  0.936E-01  0.936E-01
 -10.716  0.957E-01  0.957E-01
 -10.706  0.978E-01  0.978E-01
 -10.696  0.999E-01  0.999E-01
 -10.686  0.102E+00  0.102E+00
 -10.676  0.104E+00  0.104E+00
 -10.666  0.106E+00  0.106E+00
 -10.656  0.108E+00  0.108E+00
 -10.646  0.109E+00  0.109E+00
 -10.636  0.111E+00  0.111E+00
 -10.626  0.113E+00  0.113E+00
 -10.616  0.115E+00  0.115E+00
 -10.606  0.116E+00  0.116E+00
 -10.596  0.118E+00  0.118E+00
 -10.586  0.119E+00  0.119E+00
 -10.576  0.121E+00  0.121E+00
 -10.566  0.122E+00  0.122E+00
 -10.556  0.123E+00  0.123E+00
 -10.546  0.124E+00  0.124E+00
 -10.536  0.125E+00  0.125E+00
 -10.526  0.126E+00  0.126E+00
 -10.516  0.127E+00  0.127E+00
 -10.506  0.128E+00  0.128E+00
 -10.496  0.129E+00  0.129E+00
 -10.486  0.129E+00  0.129E+00
 -10.476  0.130E+00  0.130E+00
 -10.466  0.130E+00  0.130E+00
 -10.456  0.131E+00  0.131E+00
 -10.446  0.131E+00  0.131E+00
 -10.436  0.131E+00  0.131E+00
 -10.426  0.131E+00  0.131E+00
 -10.416  0.131E+00  0.131E+00
 -10.406  0.131E+00  0.131E+00
 -10.396  0.131E+00  0.131E+00
 -10.386  0.130E+00  0.130E+00
 -10.376  0.130E+00  0.130E+00
 -10.366  0.130E+00  0.130E+00
 -10.356  0.129E+00  0.129E+00
 -10.346  0.128E+00  0.128E+00
 -10.336  0.128E+00  0.128E+00
 -10.326  0.127E+00  0.127E+00
 -10.316  0.126E+00  0.126E+00
 -10.306  0.125E+00  0.125E+00
 -10.296  0.124E+00  0.124E+00
 -10.286  0.122E+00  0.122E+00
 -10.276  0.121E+00  0.121E+00
 -10.266  0.120E+00  0.120E+00
 -10.256  0.118E+00  0.118E+00
 -10.246  0.117E+00  0.117E+00
 -10.236  0.115E+00  0.115E+00
 -10.226  0.114E+00  0.114E+00
 -10.216  0.112E+00  0.112E+00
 -10.206  0.110E+00  0.110E+00
 -10.196  0.109E+00  0.109E+00
 -10.186  0.107E+00  0.107E+00
 -10.176  0.105E+00  0.105E+00
 -10.166  0.103E+00  0.103E+00
 -10.156  0.101E+00  0.101E+00
 -10.146  0.988E-01  0.988E-01
 -10.136  0.967E-01  0.967E-01
 -10.126  0.946E-01  0.946E-01
 -10.116  0.924E-01  0.924E-01
 -10.106  0.903E-01  0.903E-01
 -10.096  0.880E-01  0.880E-01
 -10.086  0.858E-01  0.858E-01
 -10.076  0.836E-01  0.836E-01
 -10.066  0.813E-01  0.813E-01
 -10.056  0.790E-01  0.790E-01
 -10.046  0.768E-01  0.768E-01
 -10.036  0.745E-01  0.745E-01
 -10.026  0.722E-01  0.722E-01
 -10.016  0.699E-01  0.699E-01
 -10.006  0.676E-01  0.676E-01
  -9.996  0.653E-01  0.653E-01
  -9.986  0.630E-01  0.630E-01
  -9.976  0.608E-01  0.608E-01
  -9.966  0.585E-01  0.585E-01
  -9.956  0.563E-01  0.563E-01
  -9.946  0.541E-01  0.541E-01
  -9.936  0.519E-01  0.519E-01
  -9.926  0.497E-01  0.497E-01
  -9.916  0.476E-01  0.476E-01
  -9.906  0.455E-01  0.455E-01
  -9.896  0.434E-01  0.434E-01
  -9.886  0.414E-01  0.414E-01
  -9.876  0.394E-01  0.394E-01
  -9.866  0.374E-01  0.374E-01
  -9.856  0.354E-01  0.354E-01
  -9.846  0.336E-01  0.336E-01
  -9.836  0.317E-01  0.317E-01
  -9.826  0.299E-01  0.299E-01
  -9.816  0.281E-01  0.281E-01
  -9.806  0.264E-01  0.264E-01
  -9.796  0.247E-01  0.247E-01
  -9.786  0.231E-01  0.231E-01
  -9.776  0.215E-01  0.215E-01
  -9.766  0.200E-01  0.200E-01
  -9.756  0.185E-01  0.185E-01
  -9.746  0.171E-01  0.171E-01
  -9.736  0.157E-01  0.157E-01
  -9.726  0.143E-01  0.143E-01
  -9.716  0.131E-01  0.131E-01
  -9.706  0.118E-01  0.118E-01
  -9.696  0.106E-01  0.106E-01
  -9.686  0.948E-02  0.948E-02
  -9.676  0.839E-02  0.839E-02
  -9.666  0.734E-02  0.734E-02
  -9.656  0.634E-02  0.634E-02
  -9.646  0.539E-02  0.539E-02
  -9.636  0.449E-02  0.449E-02
  -9.626  0.363E-02  0.363E-02
  -9.616  0.282E-02  0.282E-02
  -9.606  0.206E-02  0.206E-02
  -9.596  0.133E-02  0.133E-02
  -9.586  0.654E-03  0.654E-03
  -9.576  0.172E-04  0.172E-04
  -9.566 -0.578E-03 -0.578E-03
  -9.556 -0.113E-02 -0.113E-02
  -9.546 -0.165E-02 -0.165E-02
  -9.536 -0.213E-02 -0.213E-02
  -9.526 -0.257E-02 -0.257E-02
  -9.516 -0.297E-02 -0.297E-02
  -9.506 -0.334E-02 -0.334E-02
  -9.496 -0.367E-02 -0.367E-02
  -9.486 -0.397E-02 -0.397E-02
  -9.476 -0.424E-02 -0.424E-02
  -9.466 -0.448E-02 -0.448E-02
  -9.456 -0.469E-02 -0.469E-02
  -9.446 -0.487E-02 -0.487E-02
  -9.436 -0.502E-02 -0.502E-02
  -9.426 -0.514E-02 -0.514E-02
  -9.416 -0.524E-02 -0.524E-02
  -9.406 -0.532E-02 -0.532E-02
  -9.396 -0.537E-02 -0.537E-02
  -9.386 -0.540E-02 -0.540E-02
  -9.376 -0.541E-02 -0.541E-02
  -9.366 -0.539E-02 -0.539E-02
  -9.356 -0.536E-02 -0.536E-02
  -9.346 -0.531E-02 -0.531E-02
  -9.336 -0.524E-02 -0.524E-02
  -9.326 -0.516E-02 -0.516E-02
  -9.316 -0.505E-02 -0.505E-02
  -9.306 -0.494E-02 -0.494E-02
  -9.296 -0.481E-02 -0.481E-02
  -9.286 -0.466E-02 -0.466E-02
  -9.276 -0.450E-02 -0.450E-02
  -9.266 -0.433E-02 -0.433E-02
  -9.256 -0.415E-02 -0.415E-02
  -9.246 -0.396E-02 -0.396E-02
  -9.236 -0.376E-02 -0.376E-02
  -9.226 -0.354E-02 -0.354E-02
  -9.216 -0.332E-02 -0.332E-02
  -9.206 -0.309E-02 -0.309E-02
  -9.196 -0.285E-02 -0.285E-02
  -9.186 -0.261E-02 -0.261E-02
  -9.176 -0.235E-02 -0.235E-02
  -9.166 -0.209E-02 -0.209E-02
  -9.156 -0.182E-02 -0.182E-02
  -9.146 -0.155E-02 -0.155E-02
  -9.136 -0.126E-02 -0.126E-02
  -9.126 -0.977E-03 -0.977E-03
  -9.116 -0.685E-03 -0.685E-03
  -9.106 -0.387E-03 -0.387E-03
  -9.096 -0.848E-04 -0.848E-04
  -9.086  0.223E-03  0.223E-03
  -9.076  0.535E-03  0.535E-03
  -9.066  0.851E-03  0.851E-03
  -9.056  0.117E-02  0.117E-02
  -9.046  0.150E-02  0.150E-02
  -9.036  0.182E-02  0.182E-02
  -9.026  0.216E-02  0.216E-02
  -9.016  0.249E-02  0.249E-02
  -9.006  0.283E-02  0.283E-02
  -8.996  0.317E-02  0.317E-02
  -8.986  0.352E-02  0.352E-02
  -8.976  0.387E-02  0.387E-02
  -8.966  0.422E-02  0.422E-02
  -8.956  0.458E-02  0.458E-02
  -8.946  0.493E-02  0.493E-02
  -8.936  0.529E-02  0.529E-02
  -8.926  0.566E-02  0.566E-02
  -8.916  0.602E-02  0.602E-02
  -8.906  0.639E-02  0.639E-02
  -8.896  0.676E-02  0.676E-02
  -8.886  0.713E-02  0.713E-02
  -8.876  0.750E-02  0.750E-02
  -8.866  0.788E-02  0.788E-02
  -8.856  0.825E-02  0.825E-02
  -8.846  0.863E-02  0.863E-02
  -8.836  0.900E-02  0.900E-02
  -8.826  0.938E-02  0.938E-02
  -8.816  0.976E-02  0.976E-02
  -8.806  0.101E-01  0.101E-01
  -8.796  0.105E-01  0.105E-01
  -8.786  0.109E-01  0.109E-01
  -8.776  0.113E-01  0.113E-01
  -8.766  0.117E-01  0.117E-01
  -8.756  0.120E-01  0.120E-01
  -8.746  0.124E-01  0.124E-01
  -8.736  0.128E-01  0.128E-01
  -8.726  0.132E-01  0.132E-01
  -8.716  0.135E-01  0.135E-01
  -8.706  0.139E-01  0.139E-01
  -8.696  0.142E-01  0.142E-01
  -8.686  0.146E-01  0.146E-01
  -8.676  0.150E-01  0.150E-01
  -8.666  0.153E-01  0.153E-01
  -8.656  0.157E-01  0.157E-01
  -8.646  0.160E-01  0.160E-01
  -8.636  0.163E-01  0.163E-01
  -8.626  0.167E-01  0.167E-01
  -8.616  0.170E-01  0.170E-01
  -8.606  0.173E-01  0.173E-01
  -8.596  0.176E-01  0.176E-01
  -8.586  0.179E-01  0.179E-01
  -8.576  0.182E-01  0.182E-01
  -8.566  0.185E-01  0.185E-01
  -8.556  0.188E-01  0.188E-01
  -8.546  0.191E-01  0.191E-01
  -8.536  0.193E-01  0.193E-01
  -8.526  0.196E-01  0.196E-01
  -8.516  0.198E-01  0.198E-01
  -8.506  0.201E-01  0.201E-01
  -8.496  0.203E-01  0.203E-01
  -8.486  0.205E-01  0.205E-01
  -8.476  0.207E-01  0.207E-01
  -8.466  0.209E-01  0.209E-01
  -8.456  0.211E-01  0.211E-01
  -8.446  0.212E-01  0.212E-01
  -8.436  0.214E-01  0.214E-01
  -8.426  0.215E-01  0.215E-01
  -8.416  0.216E-01  0.216E-01
  -8.406  0.218E-01  0.218E-01
  -8.396  0.219E-01  0.219E-01
  -8.386  0.219E-01  0.219E-01
  -8.376  0.220E-01  0.220E-01
  -8.366  0.221E-01  0.221E-01
  -8.356  0.221E-01  0.221E-01
  -8.346  0.221E-01  0.221E-01
  -8.336  0.222E-01  0.222E-01
  -8.326  0.222E-01  0.222E-01
  -8.316  0.222E-01  0.222E-01
  -8.306  0.221E-01  0.221E-01
  -8.296  0.221E-01  0.221E-01
  -8.286  0.220E-01  0.220E-01
  -8.276  0.220E-01  0.220E-01
  -8.266  0.219E-01  0.219E-01
  -8.256  0.218E-01  0.218E-01
  -8.246  0.217E-01  0.217E-01
  -8.236  0.216E-01  0.216E-01
  -8.226  0.214E-01  0.214E-01
  -8.216  0.213E-01  0.213E-01
  -8.206  0.211E-01  0.211E-01
  -8.196  0.209E-01  0.209E-01
  -8.186  0.207E-01  0.207E-01
  -8.176  0.205E-01  0.205E-01
  -8.166  0.203E-01  0.203E-01
  -8.156  0.201E-01  0.201E-01
  -8.146  0.199E-01  0.199E-01
  -8.136  0.196E-01  0.196E-01
  -8.126  0.194E-01  0.194E-01
  -8.116  0.191E-01  0.191E-01
  -8.106  0.188E-01  0.188E-01
  -8.096  0.186E-01  0.186E-01
  -8.086  0.183E-01  0.183E-01
  -8.076  0.180E-01  0.180E-01
  -8.066  0.176E-01  0.176E-01
  -8.056  0.173E-01  0.173E-01
  -8.046  0.170E-01  0.170E-01
  -8.036  0.167E-01  0.167E-01
  -8.026  0.163E-01  0.163E-01
  -8.016  0.160E-01  0.160E-01
  -8.006  0.156E-01  0.156E-01
  -7.996  0.153E-01  0.153E-01
  -7.986  0.149E-01  0.149E-01
  -7.976  0.146E-01  0.146E-01
  -7.966  0.142E-01  0.142E-01
  -7.956  0.138E-01  0.138E-01
  -7.946  0.135E-01  0.135E-01
  -7.936  0.131E-01  0.131E-01
  -7.926  0.127E-01  0.127E-01
  -7.916  0.124E-01  0.124E-01
  -7.906  0.120E-01  0.120E-01
  -7.896  0.116E-01  0.116E-01
  -7.886  0.112E-01  0.112E-01
  -7.876  0.109E-01  0.109E-01
  -7.866  0.105E-01  0.105E-01
  -7.856  0.101E-01  0.101E-01
  -7.846  0.975E-02  0.975E-02
  -7.836  0.938E-02  0.938E-02
  -7.826  0.902E-02  0.902E-02
  -7.816  0.866E-02  0.866E-02
  -7.806  0.830E-02  0.830E-02
  -7.796  0.795E-02  0.795E-02
  -7.786  0.760E-02  0.760E-02
  -7.776  0.726E-02  0.726E-02
  -7.766  0.692E-02  0.692E-02
  -7.756  0.659E-02  0.659E-02
  -7.746  0.626E-02  0.626E-02
  -7.736  0.594E-02  0.594E-02
  -7.726  0.562E-02  0.562E-02
  -7.716  0.531E-02  0.531E-02
  -7.706  0.501E-02  0.501E-02
  -7.696  0.472E-02  0.472E-02
  -7.686  0.443E-02  0.443E-02
  -7.676  0.414E-02  0.414E-02
  -7.666  0.387E-02  0.387E-02
  -7.656  0.360E-02  0.360E-02
  -7.646  0.334E-02  0.334E-02
  -7.636  0.308E-02  0.308E-02
  -7.626  0.284E-02  0.284E-02
  -7.616  0.260E-02  0.260E-02
  -7.606  0.237E-02  0.237E-02
  -7.596  0.215E-02  0.215E-02
  -7.586  0.193E-02  0.193E-02
  -7.576  0.173E-02  0.173E-02
  -7.566  0.153E-02  0.153E-02
  -7.556  0.134E-02  0.134E-02
  -7.546  0.116E-02  0.116E-02
  -7.536  0.983E-03  0.983E-03
  -7.526  0.817E-03  0.817E-03
  -7.516  0.658E-03  0.658E-03
  -7.506  0.508E-03  0.508E-03
  -7.496  0.366E-03  0.366E-03
  -7.486  0.231E-03  0.231E-03
  -7.476  0.105E-03  0.105E-03
  -7.466 -0.139E-04 -0.139E-04
  -7.456 -0.125E-03 -0.125E-03
  -7.446 -0.228E-03 -0.228E-03
  -7.436 -0.324E-03 -0.324E-03
  -7.426 -0.412E-03 -0.412E-03
  -7.416 -0.493E-03 -0.493E-03
  -7.406 -0.567E-03 -0.567E-03
  -7.396 -0.633E-03 -0.633E-03
  -7.386 -0.693E-03 -0.693E-03
  -7.376 -0.745E-03 -0.745E-03
  -7.366 -0.790E-03 -0.790E-03
  -7.356 -0.828E-03 -0.828E-03
  -7.346 -0.860E-03 -0.860E-03
  -7.336 -0.885E-03 -0.885E-03
  -7.326 -0.904E-03 -0.904E-03
  -7.316 -0.916E-03 -0.916E-03
  -7.306 -0.922E-03 -0.922E-03
  -7.296 -0.922E-03 -0.922E-03
  -7.286 -0.915E-03 -0.915E-03
  -7.276 -0.903E-03 -0.903E-03
  -7.266 -0.885E-03 -0.885E-03
  -7.256 -0.861E-03 -0.861E-03
  -7.246 -0.832E-03 -0.832E-03
  -7.236 -0.797E-03 -0.797E-03
  -7.226 -0.757E-03 -0.757E-03
  -7.216 -0.712E-03 -0.712E-03
  -7.206 -0.661E-03 -0.661E-03
  -7.196 -0.606E-03 -0.606E-03
  -7.186 -0.545E-03 -0.545E-03
  -7.176 -0.480E-03 -0.480E-03
  -7.166 -0.410E-03 -0.410E-03
  -7.156 -0.336E-03 -0.336E-03
  -7.146 -0.257E-03 -0.257E-03
  -7.136 -0.174E-03 -0.174E-03
  -7.126 -0.867E-04 -0.867E-04
  -7.116  0.467E-05  0.467E-05
  -7.106  0.100E-03  0.100E-03
  -7.096  0.199E-03  0.199E-03
  -7.086  0.302E-03  0.302E-03
  -7.076  0.408E-03  0.408E-03
  -7.066  0.518E-03  0.518E-03
  -7.056  0.631E-03  0.631E-03
  -7.046  0.748E-03  0.748E-03
  -7.036  0.867E-03  0.867E-03
  -7.026  0.990E-03  0.990E-03
  -7.016  0.111E-02  0.111E-02
  -7.006  0.124E-02  0.124E-02
  -6.996  0.137E-02  0.137E-02
  -6.986  0.151E-02  0.151E-02
  -6.976  0.164E-02  0.164E-02
  -6.966  0.178E-02  0.178E-02
  -6.956  0.192E-02  0.192E-02
  -6.946  0.206E-02  0.206E-02
  -6.936  0.220E-02  0.220E-02
  -6.926  0.235E-02  0.235E-02
  -6.916  0.249E-02  0.249E-02
  -6.906  0.264E-02  0.264E-02
  -6.896  0.279E-02  0.279E-02
  -6.886  0.293E-02  0.293E-02
  -6.876  0.308E-02  0.308E-02
  -6.866  0.323E-02  0.323E-02
  -6.856  0.338E-02  0.338E-02
  -6.846  0.353E-02  0.353E-02
  -6.836  0.369E-02  0.369E-02
  -6.826  0.384E-02  0.384E-02
  -6.816  0.399E-02  0.399E-02
  -6.806  0.414E-02  0.414E-02
  -6.796  0.429E-02  0.429E-02
  -6.786  0.443E-02  0.443E-02
  -6.776  0.458E-02  0.458E-02
  -6.766  0.473E-02  0.473E-02
  -6.756  0.487E-02  0.487E-02
  -6.746  0.502E-02  0.502E-02
  -6.736  0.516E-02  0.516E-02
  -6.726  0.530E-02  0.530E-02
  -6.716  0.544E-02  0.544E-02
  -6.706  0.557E-02  0.557E-02
  -6.696  0.571E-02  0.571E-02
  -6.686  0.584E-02  0.584E-02
  -6.676  0.596E-02  0.596E-02
  -6.666  0.609E-02  0.609E-02
  -6.656  0.621E-02  0.621E-02
  -6.646  0.633E-02  0.633E-02
  -6.636  0.645E-02  0.645E-02
  -6.626  0.656E-02  0.656E-02
  -6.616  0.667E-02  0.667E-02
  -6.606  0.677E-02  0.677E-02
  -6.596  0.687E-02  0.687E-02
  -6.586  0.697E-02  0.697E-02
  -6.576  0.706E-02  0.706E-02
  -6.566  0.715E-02  0.715E-02
  -6.556  0.723E-02  0.723E-02
  -6.546  0.731E-02  0.731E-02
  -6.536  0.739E-02  0.739E-02
  -6.526  0.746E-02  0.746E-02
  -6.516  0.752E-02  0.752E-02
  -6.506  0.758E-02  0.758E-02
  -6.496  0.764E-02  0.764E-02
  -6.486  0.769E-02  0.769E-02
  -6.476  0.773E-02  0.773E-02
  -6.466  0.777E-02  0.777E-02
  -6.456  0.780E-02  0.780E-02
  -6.446  0.783E-02  0.783E-02
  -6.436  0.786E-02  0.786E-02
  -6.426  0.788E-02  0.788E-02
  -6.416  0.789E-02  0.789E-02
  -6.406  0.790E-02  0.790E-02
  -6.396  0.790E-02  0.790E-02
  -6.386  0.790E-02  0.790E-02
  -6.376  0.789E-02  0.789E-02
  -6.366  0.787E-02  0.787E-02
  -6.356  0.785E-02  0.785E-02
  -6.346  0.783E-02  0.783E-02
  -6.336  0.780E-02  0.780E-02
  -6.326  0.777E-02  0.777E-02
  -6.316  0.773E-02  0.773E-02
  -6.306  0.768E-02  0.768E-02
  -6.296  0.763E-02  0.763E-02
  -6.286  0.758E-02  0.758E-02
  -6.276  0.752E-02  0.752E-02
  -6.266  0.746E-02  0.746E-02
  -6.256  0.739E-02  0.739E-02
  -6.246  0.732E-02  0.732E-02
  -6.236  0.724E-02  0.724E-02
  -6.226  0.716E-02  0.716E-02
  -6.216  0.708E-02  0.708E-02
  -6.206  0.699E-02  0.699E-02
  -6.196  0.690E-02  0.690E-02
  -6.186  0.680E-02  0.680E-02
  -6.176  0.671E-02  0.671E-02
  -6.166  0.660E-02  0.660E-02
  -6.156  0.650E-02  0.650E-02
  -6.146  0.639E-02  0.639E-02
  -6.136  0.628E-02  0.628E-02
  -6.126  0.617E-02  0.617E-02
  -6.116  0.605E-02  0.605E-02
  -6.106  0.594E-02  0.594E-02
  -6.096  0.582E-02  0.582E-02
  -6.086  0.570E-02  0.570E-02
  -6.076  0.557E-02  0.557E-02
  -6.066  0.545E-02  0.545E-02
  -6.056  0.532E-02  0.532E-02
  -6.046  0.520E-02  0.520E-02
  -6.036  0.507E-02  0.507E-02
  -6.026  0.494E-02  0.494E-02
  -6.016  0.481E-02  0.481E-02
  -6.006  0.468E-02  0.468E-02
  -5.996  0.455E-02  0.455E-02
  -5.986  0.442E-02  0.442E-02
  -5.976  0.429E-02  0.429E-02
  -5.966  0.416E-02  0.416E-02
  -5.956  0.403E-02  0.403E-02
  -5.946  0.390E-02  0.390E-02
  -5.936  0.377E-02  0.377E-02
  -5.926  0.365E-02  0.365E-02
  -5.916  0.352E-02  0.352E-02
  -5.906  0.339E-02  0.339E-02
  -5.896  0.327E-02  0.327E-02
  -5.886  0.314E-02  0.314E-02
  -5.876  0.302E-02  0.302E-02
  -5.866  0.290E-02  0.290E-02
  -5.856  0.278E-02  0.278E-02
  -5.846  0.266E-02  0.266E-02
  -5.836  0.255E-02  0.255E-02
  -5.826  0.243E-02  0.243E-02
  -5.816  0.232E-02  0.232E-02
  -5.806  0.221E-02  0.221E-02
  -5.796  0.210E-02  0.210E-02
  -5.786  0.200E-02  0.200E-02
  -5.776  0.189E-02  0.189E-02
  -5.766  0.179E-02  0.179E-02
  -5.756  0.170E-02  0.170E-02
  -5.746  0.160E-02  0.160E-02
  -5.736  0.150E-02  0.150E-02
  -5.726  0.141E-02  0.141E-02
  -5.716  0.132E-02  0.132E-02
  -5.706  0.124E-02  0.124E-02
  -5.696  0.115E-02  0.115E-02
  -5.686  0.107E-02  0.107E-02
  -5.676  0.995E-03  0.995E-03
  -5.666  0.919E-03  0.919E-03
  -5.656  0.846E-03  0.846E-03
  -5.646  0.775E-03  0.775E-03
  -5.636  0.707E-03  0.707E-03
  -5.626  0.642E-03  0.642E-03
  -5.616  0.579E-03  0.579E-03
  -5.606  0.518E-03  0.518E-03
  -5.596  0.461E-03  0.461E-03
  -5.586  0.405E-03  0.405E-03
  -5.576  0.353E-03  0.353E-03
  -5.566  0.302E-03  0.302E-03
  -5.556  0.254E-03  0.254E-03
  -5.546  0.209E-03  0.209E-03
  -5.536  0.166E-03  0.166E-03
  -5.526  0.125E-03  0.125E-03
  -5.516  0.861E-04  0.861E-04
  -5.506  0.498E-04  0.498E-04
  -5.496  0.156E-04  0.156E-04
  -5.486 -0.164E-04 -0.164E-04
  -5.476 -0.463E-04 -0.463E-04
  -5.466 -0.742E-04 -0.742E-04
  -5.456 -0.100E-03 -0.100E-03
  -5.446 -0.124E-03 -0.124E-03
  -5.436 -0.146E-03 -0.146E-03
  -5.426 -0.166E-03 -0.166E-03
  -5.416 -0.184E-03 -0.184E-03
  -5.406 -0.201E-03 -0.201E-03
  -5.396 -0.216E-03 -0.216E-03
  -5.386 -0.229E-03 -0.229E-03
  -5.376 -0.241E-03 -0.241E-03
  -5.366 -0.251E-03 -0.251E-03
  -5.356 -0.260E-03 -0.260E-03
  -5.346 -0.267E-03 -0.267E-03
  -5.336 -0.273E-03 -0.273E-03
  -5.326 -0.277E-03 -0.277E-03
  -5.316 -0.281E-03 -0.281E-03
  -5.306 -0.283E-03 -0.283E-03
  -5.296 -0.283E-03 -0.283E-03
  -5.286 -0.283E-03 -0.283E-03
  -5.276 -0.282E-03 -0.282E-03
  -5.266 -0.279E-03 -0.279E-03
  -5.256 -0.275E-03 -0.275E-03
  -5.246 -0.271E-03 -0.271E-03
  -5.236 -0.265E-03 -0.265E-03
  -5.226 -0.259E-03 -0.259E-03
  -5.216 -0.252E-03 -0.252E-03
  -5.206 -0.244E-03 -0.244E-03
  -5.196 -0.235E-03 -0.235E-03
  -5.186 -0.225E-03 -0.225E-03
  -5.176 -0.215E-03 -0.215E-03
  -5.166 -0.204E-03 -0.204E-03
  -5.156 -0.192E-03 -0.192E-03
  -5.146 -0.180E-03 -0.180E-03
  -5.136 -0.167E-03 -0.167E-03
  -5.126 -0.153E-03 -0.153E-03
  -5.116 -0.139E-03 -0.139E-03
  -5.106 -0.125E-03 -0.125E-03
  -5.096 -0.110E-03 -0.110E-03
  -5.086 -0.942E-04 -0.942E-04
  -5.076 -0.782E-04 -0.782E-04
  -5.066 -0.619E-04 -0.619E-04
  -5.056 -0.451E-04 -0.451E-04
  -5.046 -0.280E-04 -0.280E-04
  -5.036 -0.105E-04 -0.105E-04
  -5.026  0.731E-05  0.731E-05
  -5.016  0.254E-04  0.254E-04
  -5.006  0.438E-04  0.438E-04
  -4.996  0.625E-04  0.625E-04
  -4.986  0.815E-04  0.815E-04
  -4.976  0.101E-03  0.101E-03
  -4.966  0.120E-03  0.120E-03
  -4.956  0.140E-03  0.140E-03
  -4.946  0.159E-03  0.159E-03
  -4.936  0.179E-03  0.179E-03
  -4.926  0.199E-03  0.199E-03
  -4.916  0.220E-03  0.220E-03
  -4.906  0.240E-03  0.240E-03
  -4.896  0.260E-03  0.260E-03
  -4.886  0.281E-03  0.281E-03
  -4.876  0.301E-03  0.301E-03
  -4.866  0.322E-03  0.322E-03
  -4.856  0.342E-03  0.342E-03
  -4.846  0.363E-03  0.363E-03
  -4.836  0.383E-03  0.383E-03
  -4.826  0.404E-03  0.404E-03
  -4.816  0.424E-03  0.424E-03
  -4.806  0.445E-03  0.445E-03
  -4.796  0.465E-03  0.465E-03
  -4.786  0.485E-03  0.485E-03
  -4.776  0.505E-03  0.505E-03
  -4.766  0.525E-03  0.525E-03
  -4.756  0.545E-03  0.545E-03
  -4.746  0.564E-03  0.564E-03
  -4.736  0.583E-03  0.583E-03
  -4.726  0.602E-03  0.602E-03
  -4.716  0.621E-03  0.621E-03
  -4.706  0.640E-03  0.640E-03
  -4.696  0.658E-03  0.658E-03
  -4.686  0.676E-03  0.676E-03
  -4.676  0.693E-03  0.693E-03
  -4.666  0.710E-03  0.710E-03
  -4.656  0.727E-03  0.727E-03
  -4.646  0.744E-03  0.744E-03
  -4.636  0.760E-03  0.760E-03
  -4.626  0.775E-03  0.775E-03
  -4.616  0.790E-03  0.790E-03
  -4.606  0.805E-03  0.805E-03
  -4.596  0.819E-03  0.819E-03
  -4.586  0.833E-03  0.833E-03
  -4.576  0.846E-03  0.846E-03
  -4.566  0.858E-03  0.858E-03
  -4.556  0.870E-03  0.870E-03
  -4.546  0.882E-03  0.882E-03
  -4.536  0.892E-03  0.892E-03
  -4.526  0.903E-03  0.903E-03
  -4.516  0.912E-03  0.912E-03
  -4.506  0.921E-03  0.921E-03
  -4.496  0.930E-03  0.930E-03
  -4.486  0.937E-03  0.937E-03
  -4.476  0.944E-03  0.944E-03
  -4.466  0.951E-03  0.951E-03
  -4.456  0.957E-03  0.957E-03
  -4.446  0.962E-03  0.962E-03
  -4.436  0.966E-03  0.966E-03
  -4.426  0.970E-03  0.970E-03
  -4.416  0.973E-03  0.973E-03
  -4.406  0.975E-03  0.975E-03
  -4.396  0.976E-03  0.976E-03
  -4.386  0.977E-03  0.977E-03
  -4.376  0.977E-03  0.977E-03
  -4.366  0.977E-03  0.977E-03
  -4.356  0.976E-03  0.976E-03
  -4.346  0.974E-03  0.974E-03
  -4.336  0.971E-03  0.971E-03
  -4.326  0.968E-03  0.968E-03
  -4.316  0.964E-03  0.964E-03
  -4.306  0.960E-03  0.960E-03
  -4.296  0.954E-03  0.954E-03
  -4.286  0.948E-03  0.948E-03
  -4.276  0.942E-03  0.942E-03
  -4.266  0.935E-03  0.935E-03
  -4.256  0.927E-03  0.927E-03
  -4.246  0.919E-03  0.919E-03
  -4.236  0.910E-03  0.910E-03
  -4.226  0.901E-03  0.901E-03
  -4.216  0.891E-03  0.891E-03
  -4.206  0.880E-03  0.880E-03
  -4.196  0.869E-03  0.869E-03
  -4.186  0.858E-03  0.858E-03
  -4.176  0.846E-03  0.846E-03
  -4.166  0.834E-03  0.834E-03
  -4.156  0.821E-03  0.821E-03
  -4.146  0.808E-03  0.808E-03
  -4.136  0.794E-03  0.794E-03
  -4.126  0.780E-03  0.780E-03
  -4.116  0.766E-03  0.766E-03
  -4.106  0.752E-03  0.752E-03
  -4.096  0.737E-03  0.737E-03
  -4.086  0.722E-03  0.722E-03
  -4.076  0.707E-03  0.707E-03
  -4.066  0.691E-03  0.691E-03
  -4.056  0.676E-03  0.676E-03
  -4.046  0.660E-03  0.660E-03
  -4.036  0.644E-03  0.644E-03
  -4.026  0.628E-03  0.628E-03
  -4.016  0.612E-03  0.612E-03
  -4.006  0.595E-03  0.595E-03
  -3.996  0.579E-03  0.579E-03
  -3.986  0.563E-03  0.563E-03
  -3.976  0.547E-03  0.547E-03
  -3.966  0.530E-03  0.530E-03
  -3.956  0.514E-03  0.514E-03
  -3.946  0.498E-03  0.498E-03
  -3.936  0.482E-03  0.482E-03
  -3.926  0.466E-03  0.466E-03
  -3.916  0.450E-03  0.450E-03
  -3.906  0.434E-03  0.434E-03
  -3.896  0.419E-03  0.419E-03
  -3.886  0.403E-03  0.403E-03
  -3.876  0.388E-03  0.388E-03
  -3.866  0.373E-03  0.373E-03
  -3.856  0.358E-03  0.358E-03
  -3.846  0.343E-03  0.343E-03
  -3.836  0.329E-03  0.329E-03
  -3.826  0.315E-03  0.315E-03
  -3.816  0.301E-03  0.301E-03
  -3.806  0.288E-03  0.288E-03
  -3.796  0.274E-03  0.274E-03
  -3.786  0.261E-03  0.261E-03
  -3.776  0.249E-03  0.249E-03
  -3.766  0.236E-03  0.236E-03
  -3.756  0.224E-03  0.224E-03
  -3.746  0.212E-03  0.212E-03
  -3.736  0.201E-03  0.201E-03
  -3.726  0.190E-03  0.190E-03
  -3.716  0.179E-03  0.179E-03
  -3.706  0.169E-03  0.169E-03
  -3.696  0.159E-03  0.159E-03
  -3.686  0.149E-03  0.149E-03
  -3.676  0.140E-03  0.140E-03
  -3.666  0.131E-03  0.131E-03
  -3.656  0.122E-03  0.122E-03
  -3.646  0.114E-03  0.114E-03
  -3.636  0.105E-03  0.105E-03
  -3.626  0.978E-04  0.978E-04
  -3.616  0.904E-04  0.904E-04
  -3.606  0.834E-04  0.834E-04
  -3.596  0.767E-04  0.767E-04
  -3.586  0.703E-04  0.703E-04
  -3.576  0.642E-04  0.642E-04
  -3.566  0.584E-04  0.584E-04
  -3.556  0.529E-04  0.529E-04
  -3.546  0.477E-04  0.477E-04
  -3.536  0.428E-04  0.428E-04
  -3.526  0.382E-04  0.382E-04
  -3.516  0.339E-04  0.339E-04
  -3.506  0.298E-04  0.298E-04
  -3.496  0.260E-04  0.260E-04
  -3.486  0.224E-04  0.224E-04
  -3.476  0.191E-04  0.191E-04
  -3.466  0.161E-04  0.161E-04
  -3.456  0.132E-04  0.132E-04
  -3.446  0.106E-04  0.106E-04
  -3.436  0.816E-05  0.816E-05
  -3.426  0.595E-05  0.595E-05
  -3.416  0.393E-05  0.393E-05
  -3.406  0.210E-05  0.210E-05
  -3.396  0.451E-06  0.451E-06
  -3.386 -0.103E-05 -0.103E-05
  -3.376 -0.235E-05 -0.235E-05
  -3.366 -0.351E-05 -0.351E-05
  -3.356 -0.453E-05 -0.453E-05
  -3.346 -0.540E-05 -0.540E-05
  -3.336 -0.615E-05 -0.615E-05
  -3.326 -0.678E-05 -0.678E-05
  -3.316 -0.729E-05 -0.729E-05
  -3.306 -0.769E-05 -0.769E-05
  -3.296 -0.799E-05 -0.799E-05
  -3.286 -0.819E-05 -0.819E-05
  -3.276 -0.831E-05 -0.831E-05
  -3.266 -0.835E-05 -0.835E-05
  -3.256 -0.831E-05 -0.831E-05
  -3.246 -0.820E-05 -0.820E-05
  -3.236 -0.804E-05 -0.804E-05
  -3.226 -0.781E-05 -0.781E-05
  -3.216 -0.754E-05 -0.754E-05
  -3.206 -0.722E-05 -0.722E-05
  -3.196 -0.686E-05 -0.686E-05
  -3.186 -0.646E-05 -0.646E-05
  -3.176 -0.603E-05 -0.603E-05
  -3.166 -0.558E-05 -0.558E-05
  -3.156 -0.511E-05 -0.511E-05
  -3.146 -0.461E-05 -0.461E-05
  -3.136 -0.410E-05 -0.410E-05
  -3.126 -0.358E-05 -0.358E-05
  -3.116 -0.306E-05 -0.306E-05
  -3.106 -0.253E-05 -0.253E-05
  -3.096 -0.199E-05 -0.199E-05
  -3.086 -0.146E-05 -0.146E-05
  -3.076 -0.932E-06 -0.932E-06
  -3.066 -0.409E-06 -0.409E-06
  -3.056  0.106E-06  0.106E-06
  -3.046  0.610E-06  0.610E-06
  -3.036  0.110E-05  0.110E-05
  -3.026  0.158E-05  0.158E-05
  -3.016  0.205E-05  0.205E-05
  -3.006  0.250E-05  0.250E-05
  -2.996  0.293E-05  0.293E-05
  -2.986  0.334E-05  0.334E-05
  -2.976  0.374E-05  0.374E-05
  -2.966  0.411E-05  0.411E-05
  -2.956  0.447E-05  0.447E-05
  -2.946  0.480E-05  0.480E-05
  -2.936  0.512E-05  0.512E-05
  -2.926  0.541E-05  0.541E-05
  -2.916  0.568E-05  0.568E-05
  -2.906  0.593E-05  0.593E-05
  -2.896  0.616E-05  0.616E-05
  -2.886  0.637E-05  0.637E-05
  -2.876  0.655E-05  0.655E-05
  -2.866  0.672E-05  0.672E-05
  -2.856  0.687E-05  0.687E-05
  -2.846  0.700E-05  0.700E-05
  -2.836  0.711E-05  0.711E-05
  -2.826  0.720E-05  0.720E-05
  -2.816  0.727E-05  0.727E-05
  -2.806  0.733E-05  0.733E-05
  -2.796  0.737E-05  0.737E-05
  -2.786  0.739E-05  0.739E-05
  -2.776  0.740E-05  0.740E-05
  -2.766  0.740E-05  0.740E-05
  -2.756  0.738E-05  0.738E-05
  -2.746  0.736E-05  0.736E-05
  -2.736  0.732E-05  0.732E-05
  -2.726  0.727E-05  0.727E-05
  -2.716  0.721E-05  0.721E-05
  -2.706  0.714E-05  0.714E-05
  -2.696  0.707E-05  0.707E-05
  -2.686  0.699E-05  0.699E-05
  -2.676  0.690E-05  0.690E-05
  -2.666  0.681E-05  0.681E-05
  -2.656  0.672E-05  0.672E-05
  -2.646  0.662E-05  0.662E-05
  -2.636  0.652E-05  0.652E-05
  -2.626  0.642E-05  0.642E-05
  -2.616  0.633E-05  0.633E-05
  -2.606  0.623E-05  0.623E-05
  -2.596  0.613E-05  0.613E-05
  -2.586  0.604E-05  0.604E-05
  -2.576  0.595E-05  0.595E-05
  -2.566  0.587E-05  0.587E-05
  -2.556  0.579E-05  0.579E-05
  -2.546  0.572E-05  0.572E-05
  -2.536  0.565E-05  0.565E-05
  -2.526  0.559E-05  0.559E-05
  -2.516  0.554E-05  0.554E-05
  -2.506  0.551E-05  0.551E-05
  -2.496  0.548E-05  0.548E-05
  -2.486  0.546E-05  0.546E-05
  -2.476  0.545E-05  0.545E-05
  -2.466  0.545E-05  0.545E-05
  -2.456  0.547E-05  0.547E-05
  -2.446  0.550E-05  0.550E-05
  -2.436  0.554E-05  0.554E-05
  -2.426  0.560E-05  0.560E-05
  -2.416  0.567E-05  0.567E-05
  -2.406  0.576E-05  0.576E-05
  -2.396  0.587E-05  0.587E-05
  -2.386  0.598E-05  0.598E-05
  -2.376  0.612E-05  0.612E-05
  -2.366  0.627E-05  0.627E-05
  -2.356  0.644E-05  0.644E-05
  -2.346  0.662E-05  0.662E-05
  -2.336  0.683E-05  0.683E-05
  -2.326  0.705E-05  0.705E-05
  -2.316  0.728E-05  0.728E-05
  -2.306  0.754E-05  0.754E-05
  -2.296  0.781E-05  0.781E-05
  -2.286  0.811E-05  0.811E-05
  -2.276  0.842E-05  0.842E-05
  -2.266  0.874E-05  0.874E-05
  -2.256  0.909E-05  0.909E-05
  -2.246  0.945E-05  0.945E-05
  -2.236  0.983E-05  0.983E-05
  -2.226  0.102E-04  0.102E-04
  -2.216  0.107E-04  0.107E-04
  -2.206  0.111E-04  0.111E-04
  -2.196  0.115E-04  0.115E-04
  -2.186  0.120E-04  0.120E-04
  -2.176  0.125E-04  0.125E-04
  -2.166  0.130E-04  0.130E-04
  -2.156  0.135E-04  0.135E-04
  -2.146  0.140E-04  0.140E-04
  -2.136  0.146E-04  0.146E-04
  -2.126  0.151E-04  0.151E-04
  -2.116  0.157E-04  0.157E-04
  -2.106  0.163E-04  0.163E-04
  -2.096  0.169E-04  0.169E-04
  -2.086  0.175E-04  0.175E-04
  -2.076  0.182E-04  0.182E-04
  -2.066  0.188E-04  0.188E-04
  -2.056  0.194E-04  0.194E-04
  -2.046  0.201E-04  0.201E-04
  -2.036  0.208E-04  0.208E-04
  -2.026  0.214E-04  0.214E-04
  -2.016  0.221E-04  0.221E-04
  -2.006  0.228E-04  0.228E-04
  -1.996  0.235E-04  0.235E-04
  -1.986  0.242E-04  0.242E-04
  -1.976  0.249E-04  0.249E-04
  -1.966  0.256E-04  0.256E-04
  -1.956  0.264E-04  0.264E-04
  -1.946  0.271E-04  0.271E-04
  -1.936  0.278E-04  0.278E-04
  -1.926  0.285E-04  0.285E-04
  -1.916  0.292E-04  0.292E-04
  -1.906  0.299E-04  0.299E-04
  -1.896  0.306E-04  0.306E-04
  -1.886  0.314E-04  0.314E-04
  -1.876  0.321E-04  0.321E-04
  -1.866  0.328E-04  0.328E-04
  -1.856  0.334E-04  0.334E-04
  -1.846  0.341E-04  0.341E-04
  -1.836  0.348E-04  0.348E-04
  -1.826  0.355E-04  0.355E-04
  -1.816  0.361E-04  0.361E-04
  -1.806  0.368E-04  0.368E-04
  -1.796  0.374E-04  0.374E-04
  -1.786  0.380E-04  0.380E-04
  -1.776  0.386E-04  0.386E-04
  -1.766  0.392E-04  0.392E-04
  -1.756  0.398E-04  0.398E-04
  -1.746  0.404E-04  0.404E-04
  -1.736  0.409E-04  0.409E-04
  -1.726  0.414E-04  0.414E-04
  -1.716  0.419E-04  0.419E-04
  -1.706  0.424E-04  0.424E-04
  -1.696  0.429E-04  0.429E-04
  -1.686  0.433E-04  0.433E-04
  -1.676  0.438E-04  0.438E-04
  -1.666  0.442E-04  0.442E-04
  -1.656  0.445E-04  0.445E-04
  -1.646  0.449E-04  0.449E-04
  -1.636  0.452E-04  0.452E-04
  -1.626  0.455E-04  0.455E-04
  -1.616  0.458E-04  0.458E-04
  -1.606  0.461E-04  0.461E-04
  -1.596  0.463E-04  0.463E-04
  -1.586  0.465E-04  0.465E-04
  -1.576  0.467E-04  0.467E-04
  -1.566  0.469E-04  0.469E-04
  -1.556  0.470E-04  0.470E-04
  -1.546  0.471E-04  0.471E-04
  -1.536  0.472E-04  0.472E-04
  -1.526  0.472E-04  0.472E-04
  -1.516  0.472E-04  0.472E-04
  -1.506  0.472E-04  0.472E-04
  -1.496  0.472E-04  0.472E-04
  -1.486  0.471E-04  0.471E-04
  -1.476  0.470E-04  0.470E-04
  -1.466  0.469E-04  0.469E-04
  -1.456  0.468E-04  0.468E-04
  -1.446  0.466E-04  0.466E-04
  -1.436  0.464E-04  0.464E-04
  -1.426  0.462E-04  0.462E-04
  -1.416  0.460E-04  0.460E-04
  -1.406  0.457E-04  0.457E-04
  -1.396  0.454E-04  0.454E-04
  -1.386  0.451E-04  0.451E-04
  -1.376  0.448E-04  0.448E-04
  -1.366  0.444E-04  0.444E-04
  -1.356  0.440E-04  0.440E-04
  -1.346  0.436E-04  0.436E-04
  -1.336  0.432E-04  0.432E-04
  -1.326  0.427E-04  0.427E-04
  -1.316  0.423E-04  0.423E-04
  -1.306  0.418E-04  0.418E-04
  -1.296  0.413E-04  0.413E-04
  -1.286  0.408E-04  0.408E-04
  -1.276  0.402E-04  0.402E-04
  -1.266  0.397E-04  0.397E-04
  -1.256  0.391E-04  0.391E-04
  -1.246  0.385E-04  0.385E-04
  -1.236  0.379E-04  0.379E-04
  -1.226  0.373E-04  0.373E-04
  -1.216  0.367E-04  0.367E-04
  -1.206  0.361E-04  0.361E-04
  -1.196  0.354E-04  0.354E-04
  -1.186  0.348E-04  0.348E-04
  -1.176  0.341E-04  0.341E-04
  -1.166  0.334E-04  0.334E-04
  -1.156  0.328E-04  0.328E-04
  -1.146  0.321E-04  0.321E-04
  -1.136  0.314E-04  0.314E-04
  -1.126  0.307E-04  0.307E-04
  -1.116  0.300E-04  0.300E-04
  -1.106  0.294E-04  0.294E-04
  -1.096  0.287E-04  0.287E-04
  -1.086  0.280E-04  0.280E-04
  -1.076  0.273E-04  0.273E-04
  -1.066  0.266E-04  0.266E-04
  -1.056  0.259E-04  0.259E-04
  -1.046  0.252E-04  0.252E-04
  -1.036  0.245E-04  0.245E-04
  -1.026  0.239E-04  0.239E-04
  -1.016  0.232E-04  0.232E-04
  -1.006  0.225E-04  0.225E-04
  -0.996  0.219E-04  0.219E-04
  -0.986  0.212E-04  0.212E-04
  -0.976  0.206E-04  0.206E-04
  -0.966  0.199E-04  0.199E-04
  -0.956  0.193E-04  0.193E-04
  -0.946  0.187E-04  0.187E-04
  -0.936  0.181E-04  0.181E-04
  -0.926  0.175E-04  0.175E-04
  -0.916  0.169E-04  0.169E-04
  -0.906  0.163E-04  0.163E-04
  -0.896  0.158E-04  0.158E-04
  -0.886  0.152E-04  0.152E-04
  -0.876  0.147E-04  0.147E-04
  -0.866  0.142E-04  0.142E-04
  -0.856  0.136E-04  0.136E-04
  -0.846  0.132E-04  0.132E-04
  -0.836  0.127E-04  0.127E-04
  -0.826  0.122E-04  0.122E-04
  -0.816  0.118E-04  0.118E-04
  -0.806  0.113E-04  0.113E-04
  -0.796  0.109E-04  0.109E-04
  -0.786  0.105E-04  0.105E-04
  -0.776  0.101E-04  0.101E-04
  -0.766  0.978E-05  0.978E-05
  -0.756  0.943E-05  0.943E-05
  -0.746  0.910E-05  0.910E-05
  -0.736  0.879E-05  0.879E-05
  -0.726  0.849E-05  0.849E-05
  -0.716  0.821E-05  0.821E-05
  -0.706  0.795E-05  0.795E-05
  -0.696  0.771E-05  0.771E-05
  -0.686  0.748E-05  0.748E-05
  -0.676  0.728E-05  0.728E-05
  -0.666  0.709E-05  0.709E-05
  -0.656  0.691E-05  0.691E-05
  -0.646  0.676E-05  0.676E-05
  -0.636  0.662E-05  0.662E-05
  -0.626  0.650E-05  0.650E-05
  -0.616  0.640E-05  0.640E-05
  -0.606  0.631E-05  0.631E-05
  -0.596  0.624E-05  0.624E-05
  -0.586  0.619E-05  0.619E-05
  -0.576  0.616E-05  0.616E-05
  -0.566  0.614E-05  0.614E-05
  -0.556  0.614E-05  0.614E-05
  -0.546  0.615E-05  0.615E-05
  -0.536  0.618E-05  0.618E-05
  -0.526  0.623E-05  0.623E-05
  -0.516  0.629E-05  0.629E-05
  -0.506  0.637E-05  0.637E-05
  -0.496  0.646E-05  0.646E-05
  -0.486  0.657E-05  0.657E-05
  -0.476  0.669E-05  0.669E-05
  -0.466  0.683E-05  0.683E-05
  -0.456  0.698E-05  0.698E-05
  -0.446  0.714E-05  0.714E-05
  -0.436  0.732E-05  0.732E-05
  -0.426  0.750E-05  0.750E-05
  -0.416  0.770E-05  0.770E-05
  -0.406  0.791E-05  0.791E-05
  -0.396  0.814E-05  0.814E-05
  -0.386  0.837E-05  0.837E-05
  -0.376  0.861E-05  0.861E-05
  -0.366  0.887E-05  0.887E-05
  -0.356  0.913E-05  0.913E-05
  -0.346  0.940E-05  0.940E-05
  -0.336  0.968E-05  0.968E-05
  -0.326  0.996E-05  0.996E-05
  -0.316  0.103E-04  0.103E-04
  -0.306  0.106E-04  0.106E-04
  -0.296  0.109E-04  0.109E-04
  -0.286  0.112E-04  0.112E-04
  -0.276  0.115E-04  0.115E-04
  -0.266  0.118E-04  0.118E-04
  -0.256  0.121E-04  0.121E-04
  -0.246  0.125E-04  0.125E-04
  -0.236  0.128E-04  0.128E-04
  -0.226  0.131E-04  0.131E-04
  -0.216  0.134E-04  0.134E-04
  -0.206  0.138E-04  0.138E-04
  -0.196  0.141E-04  0.141E-04
  -0.186  0.144E-04  0.144E-04
  -0.176  0.148E-04  0.148E-04
  -0.166  0.151E-04  0.151E-04
  -0.156  0.154E-04  0.154E-04
  -0.146  0.157E-04  0.157E-04
  -0.136  0.160E-04  0.160E-04
  -0.126  0.163E-04  0.163E-04
  -0.116  0.166E-04  0.166E-04
  -0.106  0.169E-04  0.169E-04
  -0.096  0.172E-04  0.172E-04
  -0.086  0.175E-04  0.175E-04
  -0.076  0.178E-04  0.178E-04
  -0.066  0.180E-04  0.180E-04
  -0.056  0.183E-04  0.183E-04
  -0.046  0.185E-04  0.185E-04
  -0.036  0.187E-04  0.187E-04
  -0.026  0.189E-04  0.189E-04
  -0.016  0.191E-04  0.191E-04
  -0.006  0.193E-04  0.193E-04
   0.004  0.195E-04  0.195E-04
   0.014  0.196E-04  0.196E-04
   0.024  0.198E-04  0.198E-04
   0.034  0.199E-04  0.199E-04
   0.044  0.200E-04  0.200E-04
   0.054  0.200E-04  0.200E-04
   0.064  0.201E-04  0.201E-04
   0.074  0.201E-04  0.201E-04
   0.084  0.201E-04  0.201E-04
   0.094  0.201E-04  0.201E-04
   0.104  0.200E-04  0.200E-04
   0.114  0.199E-04  0.199E-04
   0.124  0.198E-04  0.198E-04
   0.134  0.196E-04  0.196E-04
   0.144  0.195E-04  0.195E-04
   0.154  0.193E-04  0.193E-04
   0.164  0.190E-04  0.190E-04
   0.174  0.187E-04  0.187E-04
   0.184  0.184E-04  0.184E-04
   0.194  0.180E-04  0.180E-04
   0.204  0.176E-04  0.176E-04
   0.214  0.171E-04  0.171E-04
   0.224  0.166E-04  0.166E-04
   0.234  0.160E-04  0.160E-04
   0.244  0.154E-04  0.154E-04
   0.254  0.147E-04  0.147E-04
   0.264  0.140E-04  0.140E-04
   0.274  0.132E-04  0.132E-04
   0.284  0.123E-04  0.123E-04
   0.294  0.113E-04  0.113E-04
   0.304  0.103E-04  0.103E-04
   0.314  0.917E-05  0.917E-05
   0.324  0.797E-05  0.797E-05
   0.334  0.668E-05  0.668E-05
   0.344  0.529E-05  0.529E-05
   0.354  0.379E-05  0.379E-05
   0.364  0.219E-05  0.219E-05
   0.374  0.470E-06  0.470E-06
   0.384 -0.137E-05 -0.137E-05
   0.394 -0.334E-05 -0.334E-05
   0.404 -0.545E-05 -0.545E-05
   0.414 -0.771E-05 -0.771E-05
   0.424 -0.101E-04 -0.101E-04
   0.434 -0.127E-04 -0.127E-04
   0.444 -0.154E-04 -0.154E-04
   0.454 -0.184E-04 -0.184E-04
   0.464 -0.215E-04 -0.215E-04
   0.474 -0.248E-04 -0.248E-04
   0.484 -0.284E-04 -0.284E-04
   0.494 -0.321E-04 -0.321E-04
   0.504 -0.362E-04 -0.362E-04
   0.514 -0.404E-04 -0.404E-04
   0.524 -0.450E-04 -0.450E-04
   0.534 -0.498E-04 -0.498E-04
   0.544 -0.550E-04 -0.550E-04
   0.554 -0.604E-04 -0.604E-04
   0.564 -0.662E-04 -0.662E-04
   0.574 -0.723E-04 -0.723E-04
   0.584 -0.789E-04 -0.789E-04
   0.594 -0.858E-04 -0.858E-04
   0.604 -0.931E-04 -0.931E-04
   0.614 -0.101E-03 -0.101E-03
   0.624 -0.109E-03 -0.109E-03
   0.634 -0.118E-03 -0.118E-03
   0.644 -0.127E-03 -0.127E-03
   0.654 -0.137E-03 -0.137E-03
   0.664 -0.147E-03 -0.147E-03
   0.674 -0.158E-03 -0.158E-03
   0.684 -0.169E-03 -0.169E-03
   0.694 -0.181E-03 -0.181E-03
   0.704 -0.194E-03 -0.194E-03
   0.714 -0.208E-03 -0.208E-03
   0.724 -0.222E-03 -0.222E-03
   0.734 -0.237E-03 -0.237E-03
   0.744 -0.252E-03 -0.252E-03
   0.754 -0.269E-03 -0.269E-03
   0.764 -0.286E-03 -0.286E-03
   0.774 -0.304E-03 -0.304E-03
   0.784 -0.323E-03 -0.323E-03
   0.794 -0.343E-03 -0.343E-03
   0.804 -0.364E-03 -0.364E-03
   0.814 -0.386E-03 -0.386E-03
   0.824 -0.409E-03 -0.409E-03
   0.834 -0.433E-03 -0.433E-03
   0.844 -0.459E-03 -0.459E-03
   0.854 -0.485E-03 -0.485E-03
   0.864 -0.512E-03 -0.512E-03
   0.874 -0.541E-03 -0.541E-03
   0.884 -0.571E-03 -0.571E-03
   0.894 -0.602E-03 -0.602E-03
   0.904 -0.635E-03 -0.635E-03
   0.914 -0.668E-03 -0.668E-03
   0.924 -0.703E-03 -0.703E-03
   0.934 -0.740E-03 -0.740E-03
   0.944 -0.777E-03 -0.777E-03
   0.954 -0.816E-03 -0.816E-03
   0.964 -0.857E-03 -0.857E-03
   0.974 -0.899E-03 -0.899E-03
   0.984 -0.942E-03 -0.942E-03
   0.994 -0.987E-03 -0.987E-03
   1.004 -0.103E-02 -0.103E-02
   1.014 -0.108E-02 -0.108E-02
   1.024 -0.113E-02 -0.113E-02
   1.034 -0.118E-02 -0.118E-02
   1.044 -0.123E-02 -0.123E-02
   1.054 -0.129E-02 -0.129E-02
   1.064 -0.134E-02 -0.134E-02
   1.074 -0.140E-02 -0.140E-02
   1.084 -0.145E-02 -0.145E-02
   1.094 -0.151E-02 -0.151E-02
   1.104 -0.157E-02 -0.157E-02
   1.114 -0.163E-02 -0.163E-02
   1.124 -0.169E-02 -0.169E-02
   1.134 -0.176E-02 -0.176E-02
   1.144 -0.182E-02 -0.182E-02
   1.154 -0.188E-02 -0.188E-02
   1.164 -0.195E-02 -0.195E-02
   1.174 -0.202E-02 -0.202E-02
   1.184 -0.208E-02 -0.208E-02
   1.194 -0.215E-02 -0.215E-02
   1.204 -0.221E-02 -0.221E-02
   1.214 -0.228E-02 -0.228E-02
   1.224 -0.235E-02 -0.235E-02
   1.234 -0.242E-02 -0.242E-02
   1.244 -0.248E-02 -0.248E-02
   1.254 -0.255E-02 -0.255E-02
   1.264 -0.261E-02 -0.261E-02
   1.274 -0.267E-02 -0.267E-02
   1.284 -0.274E-02 -0.274E-02
   1.294 -0.280E-02 -0.280E-02
   1.304 -0.286E-02 -0.286E-02
   1.314 -0.291E-02 -0.291E-02
   1.324 -0.297E-02 -0.297E-02
   1.334 -0.302E-02 -0.302E-02
   1.344 -0.307E-02 -0.307E-02
   1.354 -0.311E-02 -0.311E-02
   1.364 -0.315E-02 -0.315E-02
   1.374 -0.319E-02 -0.319E-02
   1.384 -0.322E-02 -0.322E-02
   1.394 -0.325E-02 -0.325E-02
   1.404 -0.327E-02 -0.327E-02
   1.414 -0.329E-02 -0.329E-02
   1.424 -0.330E-02 -0.330E-02
   1.434 -0.331E-02 -0.331E-02
   1.444 -0.331E-02 -0.331E-02
   1.454 -0.330E-02 -0.330E-02
   1.464 -0.328E-02 -0.328E-02
   1.474 -0.325E-02 -0.325E-02
   1.484 -0.322E-02 -0.322E-02
   1.494 -0.318E-02 -0.318E-02
   1.504 -0.312E-02 -0.312E-02
   1.514 -0.306E-02 -0.306E-02
   1.524 -0.298E-02 -0.298E-02
   1.534 -0.290E-02 -0.290E-02
   1.544 -0.280E-02 -0.280E-02
   1.554 -0.269E-02 -0.269E-02
   1.564 -0.256E-02 -0.256E-02
   1.574 -0.243E-02 -0.243E-02
   1.584 -0.228E-02 -0.228E-02
   1.594 -0.211E-02 -0.211E-02
   1.604 -0.193E-02 -0.193E-02
   1.614 -0.173E-02 -0.173E-02
   1.624 -0.152E-02 -0.152E-02
   1.634 -0.129E-02 -0.129E-02
   1.644 -0.104E-02 -0.104E-02
   1.654 -0.780E-03 -0.780E-03
   1.664 -0.497E-03 -0.497E-03
   1.674 -0.196E-03 -0.196E-03
   1.684  0.125E-03  0.125E-03
   1.694  0.466E-03  0.466E-03
   1.704  0.827E-03  0.827E-03
   1.714  0.121E-02  0.121E-02
   1.724  0.161E-02  0.161E-02
   1.734  0.203E-02  0.203E-02
   1.744  0.248E-02  0.248E-02
   1.754  0.295E-02  0.295E-02
   1.764  0.344E-02  0.344E-02
   1.774  0.395E-02  0.395E-02
   1.784  0.448E-02  0.448E-02
   1.794  0.504E-02  0.504E-02
   1.804  0.563E-02  0.563E-02
   1.814  0.623E-02  0.623E-02
   1.824  0.686E-02  0.686E-02
   1.834  0.751E-02  0.751E-02
   1.844  0.819E-02  0.819E-02
   1.854  0.889E-02  0.889E-02
   1.864  0.962E-02  0.962E-02
   1.874  0.104E-01  0.104E-01
   1.884  0.111E-01  0.111E-01
   1.894  0.119E-01  0.119E-01
   1.904  0.128E-01  0.128E-01
   1.914  0.136E-01  0.136E-01
   1.924  0.145E-01  0.145E-01
   1.934  0.153E-01  0.153E-01
   1.944  0.163E-01  0.163E-01
   1.954  0.172E-01  0.172E-01
   1.964  0.181E-01  0.181E-01
   1.974  0.191E-01  0.191E-01
   1.984  0.201E-01  0.201E-01
   1.994  0.211E-01  0.211E-01
   2.004  0.221E-01  0.221E-01
   2.014  0.232E-01  0.232E-01
   2.024  0.243E-01  0.243E-01
   2.034  0.253E-01  0.253E-01
   2.044  0.264E-01  0.264E-01
   2.054  0.276E-01  0.276E-01
   2.064  0.287E-01  0.287E-01
   2.074  0.298E-01  0.298E-01
   2.084  0.310E-01  0.310E-01
   2.094  0.321E-01  0.321E-01
   2.104  0.333E-01  0.333E-01
   2.114  0.345E-01  0.345E-01
   2.124  0.357E-01  0.357E-01
   2.134  0.369E-01  0.369E-01
   2.144  0.381E-01  0.381E-01
   2.154  0.393E-01  0.393E-01
   2.164  0.405E-01  0.405E-01
   2.174  0.417E-01  0.417E-01
   2.184  0.429E-01  0.429E-01
   2.194  0.441E-01  0.441E-01
   2.204  0.453E-01  0.453E-01
   2.214  0.465E-01  0.465E-01
   2.224  0.477E-01  0.477E-01
   2.234  0.489E-01  0.489E-01
   2.244  0.501E-01  0.501E-01
   2.254  0.513E-01  0.513E-01
   2.264  0.525E-01  0.525E-01
   2.274  0.536E-01  0.536E-01
   2.284  0.547E-01  0.547E-01
   2.294  0.559E-01  0.559E-01
   2.304  0.570E-01  0.570E-01
   2.314  0.581E-01  0.581E-01
   2.324  0.591E-01  0.591E-01
   2.334  0.602E-01  0.602E-01
   2.344  0.612E-01  0.612E-01
   2.354  0.622E-01  0.622E-01
   2.364  0.632E-01  0.632E-01
   2.374  0.641E-01  0.641E-01
   2.384  0.651E-01  0.651E-01
   2.394  0.660E-01  0.660E-01
   2.404  0.668E-01  0.668E-01
   2.414  0.677E-01  0.677E-01
   2.424  0.685E-01  0.685E-01
   2.434  0.693E-01  0.693E-01
   2.444  0.700E-01  0.700E-01
   2.454  0.707E-01  0.707E-01
   2.464  0.714E-01  0.714E-01
   2.474  0.720E-01  0.720E-01
   2.484  0.726E-01  0.726E-01
   2.494  0.732E-01  0.732E-01
   2.504  0.737E-01  0.737E-01
   2.514  0.742E-01  0.742E-01
   2.524  0.747E-01  0.747E-01
   2.534  0.751E-01  0.751E-01
   2.544  0.755E-01  0.755E-01
   2.554  0.758E-01  0.758E-01
   2.564  0.761E-01  0.761E-01
   2.574  0.763E-01  0.763E-01
   2.584  0.765E-01  0.765E-01
   2.594  0.767E-01  0.767E-01
   2.604  0.768E-01  0.768E-01
   2.614  0.769E-01  0.769E-01
   2.624  0.770E-01  0.770E-01
   2.634  0.770E-01  0.770E-01
   2.644  0.770E-01  0.770E-01
   2.654  0.769E-01  0.769E-01
   2.664  0.768E-01  0.768E-01
   2.674  0.766E-01  0.766E-01
   2.684  0.764E-01  0.764E-01
   2.694  0.762E-01  0.762E-01
   2.704  0.759E-01  0.759E-01
   2.714  0.756E-01  0.756E-01
   2.724  0.753E-01  0.753E-01
   2.734  0.749E-01  0.749E-01
   2.744  0.745E-01  0.745E-01
   2.754  0.740E-01  0.740E-01
   2.764  0.735E-01  0.735E-01
   2.774  0.730E-01  0.730E-01
   2.784  0.724E-01  0.724E-01
   2.794  0.719E-01  0.719E-01
   2.804  0.712E-01  0.712E-01
   2.814  0.706E-01  0.706E-01
   2.824  0.699E-01  0.699E-01
   2.834  0.692E-01  0.692E-01
   2.844  0.685E-01  0.685E-01
   2.854  0.677E-01  0.677E-01
   2.864  0.669E-01  0.669E-01
   2.874  0.661E-01  0.661E-01
   2.884  0.653E-01  0.653E-01
   2.894  0.644E-01  0.644E-01
   2.904  0.636E-01  0.636E-01
   2.914  0.627E-01  0.627E-01
   2.924  0.617E-01  0.617E-01
   2.934  0.608E-01  0.608E-01
   2.944  0.599E-01  0.599E-01
   2.954  0.589E-01  0.589E-01
   2.964  0.579E-01  0.579E-01
   2.974  0.569E-01  0.569E-01
   2.984  0.559E-01  0.559E-01
   2.994  0.549E-01  0.549E-01
   3.004  0.539E-01  0.539E-01
   3.014  0.529E-01  0.529E-01
   3.024  0.518E-01  0.518E-01
   3.034  0.508E-01  0.508E-01
   3.044  0.497E-01  0.497E-01
   3.054  0.487E-01  0.487E-01
   3.064  0.476E-01  0.476E-01
   3.074  0.465E-01  0.465E-01
   3.084  0.455E-01  0.455E-01
   3.094  0.444E-01  0.444E-01
   3.104  0.434E-01  0.434E-01
   3.114  0.423E-01  0.423E-01
   3.124  0.412E-01  0.412E-01
   3.134  0.402E-01  0.402E-01
   3.144  0.391E-01  0.391E-01
   3.154  0.381E-01  0.381E-01
   3.164  0.370E-01  0.370E-01
   3.174  0.360E-01  0.360E-01
   3.184  0.350E-01  0.350E-01
   3.194  0.340E-01  0.340E-01
   3.204  0.329E-01  0.329E-01
   3.214  0.319E-01  0.319E-01
   3.224  0.309E-01  0.309E-01
   3.234  0.300E-01  0.300E-01
   3.244  0.290E-01  0.290E-01
   3.254  0.280E-01  0.280E-01
   3.264  0.271E-01  0.271E-01
   3.274  0.261E-01  0.261E-01
   3.284  0.252E-01  0.252E-01
   3.294  0.243E-01  0.243E-01
   3.304  0.234E-01  0.234E-01
   3.314  0.225E-01  0.225E-01
   3.324  0.217E-01  0.217E-01
   3.334  0.208E-01  0.208E-01
   3.344  0.200E-01  0.200E-01
   3.354  0.192E-01  0.192E-01
   3.364  0.184E-01  0.184E-01
   3.374  0.176E-01  0.176E-01
   3.384  0.168E-01  0.168E-01
   3.394  0.161E-01  0.161E-01
   3.404  0.153E-01  0.153E-01
   3.414  0.146E-01  0.146E-01
   3.424  0.139E-01  0.139E-01
   3.434  0.132E-01  0.132E-01
   3.444  0.125E-01  0.125E-01
   3.454  0.119E-01  0.119E-01
   3.464  0.112E-01  0.112E-01
   3.474  0.106E-01  0.106E-01
   3.484  0.100E-01  0.100E-01
   3.494  0.944E-02  0.944E-02
   3.504  0.887E-02  0.887E-02
   3.514  0.832E-02  0.832E-02
   3.524  0.779E-02  0.779E-02
   3.534  0.727E-02  0.727E-02
   3.544  0.677E-02  0.677E-02
   3.554  0.629E-02  0.629E-02
   3.564  0.582E-02  0.582E-02
   3.574  0.537E-02  0.537E-02
   3.584  0.493E-02  0.493E-02
   3.594  0.451E-02  0.451E-02
   3.604  0.411E-02  0.411E-02
   3.614  0.372E-02  0.372E-02
   3.624  0.335E-02  0.335E-02
   3.634  0.299E-02  0.299E-02
   3.644  0.264E-02  0.264E-02
   3.654  0.232E-02  0.232E-02
   3.664  0.200E-02  0.200E-02
   3.674  0.170E-02  0.170E-02
   3.684  0.141E-02  0.141E-02
   3.694  0.114E-02  0.114E-02
   3.704  0.880E-03  0.880E-03
   3.714  0.633E-03  0.633E-03
   3.724  0.398E-03  0.398E-03
   3.734  0.176E-03  0.176E-03
   3.744 -0.344E-04 -0.344E-04
   3.754 -0.233E-03 -0.233E-03
   3.764 -0.420E-03 -0.420E-03
   3.774 -0.596E-03 -0.596E-03
   3.784 -0.761E-03 -0.761E-03
   3.794 -0.916E-03 -0.916E-03
   3.804 -0.106E-02 -0.106E-02
   3.814 -0.120E-02 -0.120E-02
   3.824 -0.132E-02 -0.132E-02
   3.834 -0.144E-02 -0.144E-02
   3.844 -0.154E-02 -0.154E-02
   3.854 -0.164E-02 -0.164E-02
   3.864 -0.173E-02 -0.173E-02
   3.874 -0.181E-02 -0.181E-02
   3.884 -0.189E-02 -0.189E-02
   3.894 -0.196E-02 -0.196E-02
   3.904 -0.202E-02 -0.202E-02
   3.914 -0.207E-02 -0.207E-02
   3.924 -0.211E-02 -0.211E-02
   3.934 -0.215E-02 -0.215E-02
   3.944 -0.219E-02 -0.219E-02
   3.954 -0.222E-02 -0.222E-02
   3.964 -0.224E-02 -0.224E-02
   3.974 -0.226E-02 -0.226E-02
   3.984 -0.227E-02 -0.227E-02
   3.994 -0.228E-02 -0.228E-02
   4.004 -0.228E-02 -0.228E-02
   4.014 -0.228E-02 -0.228E-02
   4.024 -0.228E-02 -0.228E-02
   4.034 -0.227E-02 -0.227E-02
   4.044 -0.226E-02 -0.226E-02
   4.054 -0.225E-02 -0.225E-02
   4.064 -0.223E-02 -0.223E-02
   4.074 -0.221E-02 -0.221E-02
   4.084 -0.219E-02 -0.219E-02
   4.094 -0.216E-02 -0.216E-02
   4.104 -0.213E-02 -0.213E-02
   4.114 -0.210E-02 -0.210E-02
   4.124 -0.207E-02 -0.207E-02
   4.134 -0.204E-02 -0.204E-02
   4.144 -0.200E-02 -0.200E-02
   4.154 -0.197E-02 -0.197E-02
   4.164 -0.193E-02 -0.193E-02
   4.174 -0.189E-02 -0.189E-02
   4.184 -0.185E-02 -0.185E-02
   4.194 -0.181E-02 -0.181E-02
   4.204 -0.177E-02 -0.177E-02
   4.214 -0.173E-02 -0.173E-02
   4.224 -0.169E-02 -0.169E-02
   4.234 -0.165E-02 -0.165E-02
   4.244 -0.161E-02 -0.161E-02
   4.254 -0.156E-02 -0.156E-02
   4.264 -0.152E-02 -0.152E-02
   4.274 -0.148E-02 -0.148E-02
   4.284 -0.144E-02 -0.144E-02
   4.294 -0.139E-02 -0.139E-02
   4.304 -0.135E-02 -0.135E-02
   4.314 -0.131E-02 -0.131E-02
   4.324 -0.127E-02 -0.127E-02
   4.334 -0.123E-02 -0.123E-02
   4.344 -0.119E-02 -0.119E-02
   4.354 -0.115E-02 -0.115E-02
   4.364 -0.111E-02 -0.111E-02
   4.374 -0.107E-02 -0.107E-02
   4.384 -0.103E-02 -0.103E-02
   4.394 -0.998E-03 -0.998E-03
   4.404 -0.961E-03 -0.961E-03
   4.414 -0.926E-03 -0.926E-03
   4.424 -0.891E-03 -0.891E-03
   4.434 -0.857E-03 -0.857E-03
   4.444 -0.824E-03 -0.824E-03
   4.454 -0.791E-03 -0.791E-03
   4.464 -0.760E-03 -0.760E-03
   4.474 -0.729E-03 -0.729E-03
   4.484 -0.699E-03 -0.699E-03
   4.494 -0.670E-03 -0.670E-03
   4.504 -0.642E-03 -0.642E-03
   4.514 -0.614E-03 -0.614E-03
   4.524 -0.588E-03 -0.588E-03
   4.534 -0.562E-03 -0.562E-03
   4.544 -0.537E-03 -0.537E-03
   4.554 -0.513E-03 -0.513E-03
   4.564 -0.490E-03 -0.490E-03
   4.574 -0.467E-03 -0.467E-03
   4.584 -0.446E-03 -0.446E-03
   4.594 -0.425E-03 -0.425E-03
   4.604 -0.405E-03 -0.405E-03
   4.614 -0.385E-03 -0.385E-03
   4.624 -0.366E-03 -0.366E-03
   4.634 -0.348E-03 -0.348E-03
   4.644 -0.331E-03 -0.331E-03
   4.654 -0.315E-03 -0.315E-03
   4.664 -0.299E-03 -0.299E-03
   4.674 -0.283E-03 -0.283E-03
   4.684 -0.269E-03 -0.269E-03
   4.694 -0.255E-03 -0.255E-03
   4.704 -0.241E-03 -0.241E-03
   4.714 -0.229E-03 -0.229E-03
   4.724 -0.216E-03 -0.216E-03
   4.734 -0.205E-03 -0.205E-03
   4.744 -0.194E-03 -0.194E-03
   4.754 -0.183E-03 -0.183E-03
   4.764 -0.173E-03 -0.173E-03
   4.774 -0.163E-03 -0.163E-03
   4.784 -0.154E-03 -0.154E-03
   4.794 -0.145E-03 -0.145E-03
   4.804 -0.137E-03 -0.137E-03
   4.814 -0.129E-03 -0.129E-03
   4.824 -0.121E-03 -0.121E-03
   4.834 -0.114E-03 -0.114E-03
   4.844 -0.107E-03 -0.107E-03
   4.854 -0.101E-03 -0.101E-03
   4.864 -0.950E-04 -0.950E-04
   4.874 -0.892E-04 -0.892E-04
   4.884 -0.838E-04 -0.838E-04
   4.894 -0.786E-04 -0.786E-04
   4.904 -0.737E-04 -0.737E-04
   4.914 -0.691E-04 -0.691E-04
   4.924 -0.648E-04 -0.648E-04
   4.934 -0.607E-04 -0.607E-04
   4.944 -0.568E-04 -0.568E-04
   4.954 -0.531E-04 -0.531E-04
   4.964 -0.497E-04 -0.497E-04
   4.974 -0.464E-04 -0.464E-04
   4.984 -0.434E-04 -0.434E-04
   4.994 -0.405E-04 -0.405E-04
   5.004 -0.378E-04 -0.378E-04
   5.014 -0.353E-04 -0.353E-04
   5.024 -0.329E-04 -0.329E-04
   5.034 -0.307E-04 -0.307E-04
   5.044 -0.286E-04 -0.286E-04
   5.054 -0.266E-04 -0.266E-04
   5.064 -0.247E-04 -0.247E-04
   5.074 -0.230E-04 -0.230E-04
   5.084 -0.214E-04 -0.214E-04
   5.094 -0.199E-04 -0.199E-04
   5.104 -0.185E-04 -0.185E-04
   5.114 -0.172E-04 -0.172E-04
   5.124 -0.159E-04 -0.159E-04
   5.134 -0.148E-04 -0.148E-04
   5.144 -0.137E-04 -0.137E-04
   5.154 -0.127E-04 -0.127E-04
   5.164 -0.117E-04 -0.117E-04
   5.174 -0.109E-04 -0.109E-04
   5.184 -0.101E-04 -0.101E-04
   5.194 -0.931E-05 -0.931E-05
   5.204 -0.861E-05 -0.861E-05
   5.214 -0.795E-05 -0.795E-05
   5.224 -0.734E-05 -0.734E-05
   5.234 -0.678E-05 -0.678E-05
   5.244 -0.626E-05 -0.626E-05
   5.254 -0.577E-05 -0.577E-05
   5.264 -0.532E-05 -0.532E-05
   5.274 -0.490E-05 -0.490E-05
   5.284 -0.451E-05 -0.451E-05
   5.294 -0.416E-05 -0.416E-05
