# E (eV)   ldos(E)   pdos(E)   
 -27.116 -0.131E-08 -0.131E-08
 -27.106 -0.142E-08 -0.142E-08
 -27.096 -0.153E-08 -0.153E-08
 -27.086 -0.165E-08 -0.165E-08
 -27.076 -0.177E-08 -0.177E-08
 -27.066 -0.191E-08 -0.191E-08
 -27.056 -0.206E-08 -0.206E-08
 -27.046 -0.221E-08 -0.221E-08
 -27.036 -0.238E-08 -0.238E-08
 -27.026 -0.256E-08 -0.256E-08
 -27.016 -0.275E-08 -0.275E-08
 -27.006 -0.295E-08 -0.295E-08
 -26.996 -0.317E-08 -0.317E-08
 -26.986 -0.340E-08 -0.340E-08
 -26.976 -0.365E-08 -0.365E-08
 -26.966 -0.391E-08 -0.391E-08
 -26.956 -0.419E-08 -0.419E-08
 -26.946 -0.448E-08 -0.448E-08
 -26.936 -0.479E-08 -0.479E-08
 -26.926 -0.512E-08 -0.512E-08
 -26.916 -0.548E-08 -0.548E-08
 -26.906 -0.585E-08 -0.585E-08
 -26.896 -0.625E-08 -0.625E-08
 -26.886 -0.666E-08 -0.666E-08
 -26.876 -0.711E-08 -0.711E-08
 -26.866 -0.757E-08 -0.757E-08
 -26.856 -0.807E-08 -0.807E-08
 -26.846 -0.859E-08 -0.859E-08
 -26.836 -0.914E-08 -0.914E-08
 -26.826 -0.972E-08 -0.972E-08
 -26.816 -0.103E-07 -0.103E-07
 -26.806 -0.110E-07 -0.110E-07
 -26.796 -0.116E-07 -0.116E-07
 -26.786 -0.124E-07 -0.124E-07
 -26.776 -0.131E-07 -0.131E-07
 -26.766 -0.139E-07 -0.139E-07
 -26.756 -0.147E-07 -0.147E-07
 -26.746 -0.156E-07 -0.156E-07
 -26.736 -0.165E-07 -0.165E-07
 -26.726 -0.174E-07 -0.174E-07
 -26.716 -0.184E-07 -0.184E-07
 -26.706 -0.194E-07 -0.194E-07
 -26.696 -0.205E-07 -0.205E-07
 -26.686 -0.216E-07 -0.216E-07
 -26.676 -0.228E-07 -0.228E-07
 -26.666 -0.240E-07 -0.240E-07
 -26.656 -0.253E-07 -0.253E-07
 -26.646 -0.266E-07 -0.266E-07
 -26.636 -0.280E-07 -0.280E-07
 -26.626 -0.294E-07 -0.294E-07
 -26.616 -0.309E-07 -0.309E-07
 -26.606 -0.324E-07 -0.324E-07
 -26.596 -0.340E-07 -0.340E-07
 -26.586 -0.356E-07 -0.356E-07
 -26.576 -0.373E-07 -0.373E-07
 -26.566 -0.390E-07 -0.390E-07
 -26.556 -0.408E-07 -0.408E-07
 -26.546 -0.427E-07 -0.427E-07
 -26.536 -0.446E-07 -0.446E-07
 -26.526 -0.465E-07 -0.465E-07
 -26.516 -0.485E-07 -0.485E-07
 -26.506 -0.506E-07 -0.506E-07
 -26.496 -0.527E-07 -0.527E-07
 -26.486 -0.548E-07 -0.548E-07
 -26.476 -0.570E-07 -0.570E-07
 -26.466 -0.592E-07 -0.592E-07
 -26.456 -0.615E-07 -0.615E-07
 -26.446 -0.638E-07 -0.638E-07
 -26.436 -0.662E-07 -0.662E-07
 -26.426 -0.686E-07 -0.686E-07
 -26.416 -0.710E-07 -0.710E-07
 -26.406 -0.734E-07 -0.734E-07
 -26.396 -0.758E-07 -0.758E-07
 -26.386 -0.783E-07 -0.783E-07
 -26.376 -0.808E-07 -0.808E-07
 -26.366 -0.832E-07 -0.832E-07
 -26.356 -0.857E-07 -0.857E-07
 -26.346 -0.882E-07 -0.882E-07
 -26.336 -0.906E-07 -0.906E-07
 -26.326 -0.930E-07 -0.930E-07
 -26.316 -0.954E-07 -0.954E-07
 -26.306 -0.978E-07 -0.978E-07
 -26.296 -0.100E-06 -0.100E-06
 -26.286 -0.102E-06 -0.102E-06
 -26.276 -0.104E-06 -0.104E-06
 -26.266 -0.107E-06 -0.107E-06
 -26.256 -0.109E-06 -0.109E-06
 -26.246 -0.110E-06 -0.110E-06
 -26.236 -0.112E-06 -0.112E-06
 -26.226 -0.114E-06 -0.114E-06
 -26.216 -0.115E-06 -0.115E-06
 -26.206 -0.117E-06 -0.117E-06
 -26.196 -0.118E-06 -0.118E-06
 -26.186 -0.119E-06 -0.119E-06
 -26.176 -0.120E-06 -0.120E-06
 -26.166 -0.120E-06 -0.120E-06
 -26.156 -0.121E-06 -0.121E-06
 -26.146 -0.121E-06 -0.121E-06
 -26.136 -0.121E-06 -0.121E-06
 -26.126 -0.120E-06 -0.120E-06
 -26.116 -0.120E-06 -0.120E-06
 -26.106 -0.119E-06 -0.119E-06
 -26.096 -0.117E-06 -0.117E-06
 -26.086 -0.116E-06 -0.116E-06
 -26.076 -0.114E-06 -0.114E-06
 -26.066 -0.111E-06 -0.111E-06
 -26.056 -0.108E-06 -0.108E-06
 -26.046 -0.105E-06 -0.105E-06
 -26.036 -0.101E-06 -0.101E-06
 -26.026 -0.971E-07 -0.971E-07
 -26.016 -0.924E-07 -0.924E-07
 -26.006 -0.872E-07 -0.872E-07
 -25.996 -0.815E-07 -0.815E-07
 -25.986 -0.753E-07 -0.753E-07
 -25.976 -0.684E-07 -0.684E-07
 -25.966 -0.610E-07 -0.610E-07
 -25.956 -0.530E-07 -0.530E-07
 -25.946 -0.444E-07 -0.444E-07
 -25.936 -0.351E-07 -0.351E-07
 -25.926 -0.252E-07 -0.252E-07
 -25.916 -0.146E-07 -0.146E-07
 -25.906 -0.334E-08 -0.334E-08
 -25.896  0.866E-08  0.866E-08
 -25.886  0.214E-07  0.214E-07
 -25.876  0.348E-07  0.348E-07
 -25.866  0.490E-07  0.490E-07
 -25.856  0.640E-07  0.640E-07
 -25.846  0.797E-07  0.797E-07
 -25.836  0.962E-07  0.962E-07
 -25.826  0.114E-06  0.114E-06
 -25.816  0.132E-06  0.132E-06
 -25.806  0.151E-06  0.151E-06
 -25.796  0.170E-06  0.170E-06
 -25.786  0.191E-06  0.191E-06
 -25.776  0.212E-06  0.212E-06
 -25.766  0.234E-06  0.234E-06
 -25.756  0.257E-06  0.257E-06
 -25.746  0.281E-06  0.281E-06
 -25.736  0.306E-06  0.306E-06
 -25.726  0.331E-06  0.331E-06
 -25.716  0.358E-06  0.358E-06
 -25.706  0.385E-06  0.385E-06
 -25.696  0.413E-06  0.413E-06
 -25.686  0.441E-06  0.441E-06
 -25.676  0.471E-06  0.471E-06
 -25.666  0.501E-06  0.501E-06
 -25.656  0.532E-06  0.532E-06
 -25.646  0.563E-06  0.563E-06
 -25.636  0.596E-06  0.596E-06
 -25.626  0.629E-06  0.629E-06
 -25.616  0.662E-06  0.662E-06
 -25.606  0.696E-06  0.696E-06
 -25.596  0.731E-06  0.731E-06
 -25.586  0.766E-06  0.766E-06
 -25.576  0.802E-06  0.802E-06
 -25.566  0.839E-06  0.839E-06
 -25.556  0.875E-06  0.875E-06
 -25.546  0.912E-06  0.912E-06
 -25.536  0.950E-06  0.950E-06
 -25.526  0.988E-06  0.988E-06
 -25.516  0.103E-05  0.103E-05
 -25.506  0.106E-05  0.106E-05
 -25.496  0.110E-05  0.110E-05
 -25.486  0.114E-05  0.114E-05
 -25.476  0.118E-05  0.118E-05
 -25.466  0.122E-05  0.122E-05
 -25.456  0.126E-05  0.126E-05
 -25.446  0.130E-05  0.130E-05
 -25.436  0.134E-05  0.134E-05
 -25.426  0.137E-05  0.137E-05
 -25.416  0.141E-05  0.141E-05
 -25.406  0.145E-05  0.145E-05
 -25.396  0.149E-05  0.149E-05
 -25.386  0.152E-05  0.152E-05
 -25.376  0.156E-05  0.156E-05
 -25.366  0.160E-05  0.160E-05
 -25.356  0.163E-05  0.163E-05
 -25.346  0.167E-05  0.167E-05
 -25.336  0.170E-05  0.170E-05
 -25.326  0.174E-05  0.174E-05
 -25.316  0.177E-05  0.177E-05
 -25.306  0.180E-05  0.180E-05
 -25.296  0.183E-05  0.183E-05
 -25.286  0.186E-05  0.186E-05
 -25.276  0.189E-05  0.189E-05
 -25.266  0.192E-05  0.192E-05
 -25.256  0.195E-05  0.195E-05
 -25.246  0.197E-05  0.197E-05
 -25.236  0.200E-05  0.200E-05
 -25.226  0.202E-05  0.202E-05
 -25.216  0.205E-05  0.205E-05
 -25.206  0.207E-05  0.207E-05
 -25.196  0.209E-05  0.209E-05
 -25.186  0.211E-05  0.211E-05
 -25.176  0.212E-05  0.212E-05
 -25.166  0.214E-05  0.214E-05
 -25.156  0.215E-05  0.215E-05
 -25.146  0.216E-05  0.216E-05
 -25.136  0.218E-05  0.218E-05
 -25.126  0.219E-05  0.219E-05
 -25.116  0.219E-05  0.219E-05
 -25.106  0.220E-05  0.220E-05
 -25.096  0.220E-05  0.220E-05
 -25.086  0.221E-05  0.221E-05
 -25.076  0.221E-05  0.221E-05
 -25.066  0.221E-05  0.221E-05
 -25.056  0.221E-05  0.221E-05
 -25.046  0.221E-05  0.221E-05
 -25.036  0.220E-05  0.220E-05
 -25.026  0.219E-05  0.219E-05
 -25.016  0.219E-05  0.219E-05
 -25.006  0.218E-05  0.218E-05
 -24.996  0.217E-05  0.217E-05
 -24.986  0.215E-05  0.215E-05
 -24.976  0.214E-05  0.214E-05
 -24.966  0.213E-05  0.213E-05
 -24.956  0.211E-05  0.211E-05
 -24.946  0.209E-05  0.209E-05
 -24.936  0.207E-05  0.207E-05
 -24.926  0.205E-05  0.205E-05
 -24.916  0.203E-05  0.203E-05
 -24.906  0.200E-05  0.200E-05
 -24.896  0.198E-05  0.198E-05
 -24.886  0.195E-05  0.195E-05
 -24.876  0.193E-05  0.193E-05
 -24.866  0.190E-05  0.190E-05
 -24.856  0.187E-05  0.187E-05
 -24.846  0.184E-05  0.184E-05
 -24.836  0.181E-05  0.181E-05
 -24.826  0.178E-05  0.178E-05
 -24.816  0.174E-05  0.174E-05
 -24.806  0.171E-05  0.171E-05
 -24.796  0.168E-05  0.168E-05
 -24.786  0.164E-05  0.164E-05
 -24.776  0.161E-05  0.161E-05
 -24.766  0.157E-05  0.157E-05
 -24.756  0.153E-05  0.153E-05
 -24.746  0.150E-05  0.150E-05
 -24.736  0.146E-05  0.146E-05
 -24.726  0.142E-05  0.142E-05
 -24.716  0.138E-05  0.138E-05
 -24.706  0.134E-05  0.134E-05
 -24.696  0.130E-05  0.130E-05
 -24.686  0.127E-05  0.127E-05
 -24.676  0.123E-05  0.123E-05
 -24.666  0.119E-05  0.119E-05
 -24.656  0.115E-05  0.115E-05
 -24.646  0.111E-05  0.111E-05
 -24.636  0.107E-05  0.107E-05
 -24.626  0.103E-05  0.103E-05
 -24.616  0.996E-06  0.996E-06
 -24.606  0.958E-06  0.958E-06
 -24.596  0.920E-06  0.920E-06
 -24.586  0.883E-06  0.883E-06
 -24.576  0.846E-06  0.846E-06
 -24.566  0.810E-06  0.810E-06
 -24.556  0.774E-06  0.774E-06
 -24.546  0.738E-06  0.738E-06
 -24.536  0.703E-06  0.703E-06
 -24.526  0.669E-06  0.669E-06
 -24.516  0.635E-06  0.635E-06
 -24.506  0.602E-06  0.602E-06
 -24.496  0.570E-06  0.570E-06
 -24.486  0.538E-06  0.538E-06
 -24.476  0.507E-06  0.507E-06
 -24.466  0.477E-06  0.477E-06
 -24.456  0.447E-06  0.447E-06
 -24.446  0.418E-06  0.418E-06
 -24.436  0.390E-06  0.390E-06
 -24.426  0.363E-06  0.363E-06
 -24.416  0.337E-06  0.337E-06
 -24.406  0.311E-06  0.311E-06
 -24.396  0.286E-06  0.286E-06
 -24.386  0.262E-06  0.262E-06
 -24.376  0.239E-06  0.239E-06
 -24.366  0.217E-06  0.217E-06
 -24.356  0.195E-06  0.195E-06
 -24.346  0.174E-06  0.174E-06
 -24.336  0.155E-06  0.155E-06
 -24.326  0.135E-06  0.135E-06
 -24.316  0.117E-06  0.117E-06
 -24.306  0.997E-07  0.997E-07
 -24.296  0.830E-07  0.830E-07
 -24.286  0.671E-07  0.671E-07
 -24.276  0.520E-07  0.520E-07
 -24.266  0.377E-07  0.377E-07
 -24.256  0.241E-07  0.241E-07
 -24.246  0.112E-07  0.112E-07
 -24.236 -0.948E-09 -0.948E-09
 -24.226 -0.124E-07 -0.124E-07
 -24.216 -0.231E-07 -0.231E-07
 -24.206 -0.332E-07 -0.332E-07
 -24.196 -0.426E-07 -0.426E-07
 -24.186 -0.513E-07 -0.513E-07
 -24.176 -0.595E-07 -0.595E-07
 -24.166 -0.670E-07 -0.670E-07
 -24.156 -0.739E-07 -0.739E-07
 -24.146 -0.803E-07 -0.803E-07
 -24.136 -0.861E-07 -0.861E-07
 -24.126 -0.914E-07 -0.914E-07
 -24.116 -0.962E-07 -0.962E-07
 -24.106 -0.100E-06 -0.100E-06
 -24.096 -0.104E-06 -0.104E-06
 -24.086 -0.108E-06 -0.108E-06
 -24.076 -0.111E-06 -0.111E-06
 -24.066 -0.113E-06 -0.113E-06
 -24.056 -0.115E-06 -0.115E-06
 -24.046 -0.117E-06 -0.117E-06
 -24.036 -0.118E-06 -0.118E-06
 -24.026 -0.120E-06 -0.120E-06
 -24.016 -0.120E-06 -0.120E-06
 -24.006 -0.121E-06 -0.121E-06
 -23.996 -0.121E-06 -0.121E-06
 -23.986 -0.121E-06 -0.121E-06
 -23.976 -0.121E-06 -0.121E-06
 -23.966 -0.120E-06 -0.120E-06
 -23.956 -0.119E-06 -0.119E-06
 -23.946 -0.118E-06 -0.118E-06
 -23.936 -0.117E-06 -0.117E-06
 -23.926 -0.116E-06 -0.116E-06
 -23.916 -0.114E-06 -0.114E-06
 -23.906 -0.113E-06 -0.113E-06
 -23.896 -0.111E-06 -0.111E-06
 -23.886 -0.109E-06 -0.109E-06
 -23.876 -0.107E-06 -0.107E-06
 -23.866 -0.105E-06 -0.105E-06
 -23.856 -0.103E-06 -0.103E-06
 -23.846 -0.101E-06 -0.101E-06
 -23.836 -0.982E-07 -0.982E-07
 -23.826 -0.959E-07 -0.959E-07
 -23.816 -0.935E-07 -0.935E-07
 -23.806 -0.911E-07 -0.911E-07
 -23.796 -0.887E-07 -0.887E-07
 -23.786 -0.862E-07 -0.862E-07
 -23.776 -0.838E-07 -0.838E-07
 -23.766 -0.813E-07 -0.813E-07
 -23.756 -0.788E-07 -0.788E-07
 -23.746 -0.763E-07 -0.763E-07
 -23.736 -0.739E-07 -0.739E-07
 -23.726 -0.715E-07 -0.715E-07
 -23.716 -0.690E-07 -0.690E-07
 -23.706 -0.667E-07 -0.667E-07
 -23.696 -0.643E-07 -0.643E-07
 -23.686 -0.620E-07 -0.620E-07
 -23.676 -0.597E-07 -0.597E-07
 -23.666 -0.575E-07 -0.575E-07
 -23.656 -0.553E-07 -0.553E-07
 -23.646 -0.531E-07 -0.531E-07
 -23.636 -0.510E-07 -0.510E-07
 -23.626 -0.489E-07 -0.489E-07
 -23.616 -0.469E-07 -0.469E-07
 -23.606 -0.450E-07 -0.450E-07
 -23.596 -0.430E-07 -0.430E-07
 -23.586 -0.412E-07 -0.412E-07
 -23.576 -0.394E-07 -0.394E-07
 -23.566 -0.376E-07 -0.376E-07
 -23.556 -0.359E-07 -0.359E-07
 -23.546 -0.343E-07 -0.343E-07
 -23.536 -0.327E-07 -0.327E-07
 -23.526 -0.312E-07 -0.312E-07
 -23.516 -0.297E-07 -0.297E-07
 -23.506 -0.283E-07 -0.283E-07
 -23.496 -0.269E-07 -0.269E-07
 -23.486 -0.255E-07 -0.255E-07
 -23.476 -0.243E-07 -0.243E-07
 -23.466 -0.230E-07 -0.230E-07
 -23.456 -0.219E-07 -0.219E-07
 -23.446 -0.207E-07 -0.207E-07
 -23.436 -0.196E-07 -0.196E-07
 -23.426 -0.186E-07 -0.186E-07
 -23.416 -0.176E-07 -0.176E-07
 -23.406 -0.167E-07 -0.167E-07
 -23.396 -0.157E-07 -0.157E-07
 -23.386 -0.149E-07 -0.149E-07
 -23.376 -0.140E-07 -0.140E-07
 -23.366 -0.133E-07 -0.133E-07
 -23.356 -0.125E-07 -0.125E-07
 -23.346 -0.118E-07 -0.118E-07
 -23.336 -0.111E-07 -0.111E-07
 -23.326 -0.105E-07 -0.105E-07
 -23.316 -0.984E-08 -0.984E-08
 -23.306 -0.925E-08 -0.925E-08
 -23.296 -0.870E-08 -0.870E-08
 -23.286 -0.817E-08 -0.817E-08
 -23.276 -0.767E-08 -0.767E-08
 -23.266 -0.720E-08 -0.720E-08
 -23.256 -0.675E-08 -0.675E-08
 -23.246 -0.633E-08 -0.633E-08
 -23.236 -0.593E-08 -0.593E-08
 -23.226 -0.555E-08 -0.555E-08
 -23.216 -0.520E-08 -0.520E-08
 -23.206 -0.486E-08 -0.486E-08
 -23.196 -0.454E-08 -0.454E-08
 -23.186 -0.424E-08 -0.424E-08
 -23.176 -0.396E-08 -0.396E-08
 -23.166 -0.370E-08 -0.370E-08
 -23.156 -0.345E-08 -0.345E-08
 -23.146 -0.322E-08 -0.322E-08
 -23.136 -0.300E-08 -0.300E-08
 -23.126 -0.279E-08 -0.279E-08
 -23.116 -0.260E-08 -0.260E-08
 -23.106 -0.242E-08 -0.242E-08
 -23.096 -0.225E-08 -0.225E-08
 -23.086 -0.209E-08 -0.209E-08
 -23.076 -0.194E-08 -0.194E-08
 -23.066 -0.180E-08 -0.180E-08
 -23.056 -0.167E-08 -0.167E-08
 -23.046 -0.155E-08 -0.155E-08
 -23.036 -0.144E-08 -0.144E-08
 -23.026 -0.133E-08 -0.133E-08
 -23.016 -0.123E-08 -0.123E-08
 -23.006 -0.114E-08 -0.114E-08
 -22.996 -0.106E-08 -0.106E-08
 -22.986 -0.977E-09 -0.977E-09
 -22.976 -0.903E-09 -0.903E-09
 -22.966 -0.834E-09 -0.834E-09
 -22.956 -0.770E-09 -0.770E-09
 -22.946 -0.711E-09 -0.711E-09
 -22.936 -0.656E-09 -0.656E-09
 -22.926 -0.605E-09 -0.605E-09
 -22.916 -0.557E-09 -0.557E-09
 -22.906 -0.513E-09 -0.513E-09
 -22.896 -0.473E-09 -0.473E-09
 -22.886 -0.435E-09 -0.435E-09
 -22.876 -0.401E-09 -0.401E-09
 -22.866 -0.369E-09 -0.369E-09
 -22.856 -0.339E-09 -0.339E-09
 -22.846 -0.312E-09 -0.312E-09
 -22.836 -0.287E-09 -0.287E-09
 -22.826 -0.263E-09 -0.263E-09
 -22.816 -0.242E-09 -0.242E-09
 -22.806 -0.222E-09 -0.222E-09
 -22.796 -0.204E-09 -0.204E-09
 -22.786 -0.188E-09 -0.188E-09
 -22.776 -0.173E-09 -0.173E-09
 -22.766 -0.159E-09 -0.159E-09
 -22.756 -0.147E-09 -0.147E-09
 -22.746 -0.135E-09 -0.135E-09
 -22.736 -0.125E-09 -0.125E-09
 -22.726 -0.115E-09 -0.115E-09
 -22.716 -0.107E-09 -0.107E-09
 -22.706 -0.992E-10 -0.992E-10
 -22.696 -0.924E-10 -0.924E-10
 -22.686 -0.863E-10 -0.863E-10
 -22.676 -0.810E-10 -0.810E-10
 -22.666 -0.763E-10 -0.763E-10
 -22.656 -0.723E-10 -0.723E-10
 -22.646 -0.689E-10 -0.689E-10
 -22.636 -0.660E-10 -0.660E-10
 -22.626 -0.637E-10 -0.637E-10
 -22.616 -0.620E-10 -0.620E-10
 -22.606 -0.608E-10 -0.608E-10
 -22.596 -0.601E-10 -0.601E-10
 -22.586 -0.599E-10 -0.599E-10
 -22.576 -0.602E-10 -0.602E-10
 -22.566 -0.610E-10 -0.610E-10
 -22.556 -0.623E-10 -0.623E-10
 -22.546 -0.641E-10 -0.641E-10
 -22.536 -0.664E-10 -0.664E-10
 -22.526 -0.692E-10 -0.692E-10
 -22.516 -0.725E-10 -0.725E-10
 -22.506 -0.764E-10 -0.764E-10
 -22.496 -0.808E-10 -0.808E-10
 -22.486 -0.858E-10 -0.858E-10
 -22.476 -0.914E-10 -0.914E-10
 -22.466 -0.977E-10 -0.977E-10
 -22.456 -0.105E-09 -0.105E-09
 -22.446 -0.112E-09 -0.112E-09
 -22.436 -0.121E-09 -0.121E-09
 -22.426 -0.130E-09 -0.130E-09
 -22.416 -0.140E-09 -0.140E-09
 -22.406 -0.151E-09 -0.151E-09
 -22.396 -0.162E-09 -0.162E-09
 -22.386 -0.175E-09 -0.175E-09
 -22.376 -0.189E-09 -0.189E-09
 -22.366 -0.204E-09 -0.204E-09
 -22.356 -0.220E-09 -0.220E-09
 -22.346 -0.237E-09 -0.237E-09
 -22.336 -0.256E-09 -0.256E-09
 -22.326 -0.276E-09 -0.276E-09
 -22.316 -0.297E-09 -0.297E-09
 -22.306 -0.320E-09 -0.320E-09
 -22.296 -0.345E-09 -0.345E-09
 -22.286 -0.371E-09 -0.371E-09
 -22.276 -0.399E-09 -0.399E-09
 -22.266 -0.430E-09 -0.430E-09
 -22.256 -0.462E-09 -0.462E-09
 -22.246 -0.497E-09 -0.497E-09
 -22.236 -0.534E-09 -0.534E-09
 -22.226 -0.573E-09 -0.573E-09
 -22.216 -0.615E-09 -0.615E-09
 -22.206 -0.660E-09 -0.660E-09
 -22.196 -0.708E-09 -0.708E-09
 -22.186 -0.759E-09 -0.759E-09
 -22.176 -0.813E-09 -0.813E-09
 -22.166 -0.870E-09 -0.870E-09
 -22.156 -0.931E-09 -0.931E-09
 -22.146 -0.996E-09 -0.996E-09
 -22.136 -0.106E-08 -0.106E-08
 -22.126 -0.114E-08 -0.114E-08
 -22.116 -0.121E-08 -0.121E-08
 -22.106 -0.130E-08 -0.130E-08
 -22.096 -0.138E-08 -0.138E-08
 -22.086 -0.147E-08 -0.147E-08
 -22.076 -0.157E-08 -0.157E-08
 -22.066 -0.167E-08 -0.167E-08
 -22.056 -0.178E-08 -0.178E-08
 -22.046 -0.189E-08 -0.189E-08
 -22.036 -0.201E-08 -0.201E-08
 -22.026 -0.214E-08 -0.214E-08
 -22.016 -0.227E-08 -0.227E-08
 -22.006 -0.241E-08 -0.241E-08
 -21.996 -0.255E-08 -0.255E-08
 -21.986 -0.271E-08 -0.271E-08
 -21.976 -0.287E-08 -0.287E-08
 -21.966 -0.304E-08 -0.304E-08
 -21.956 -0.321E-08 -0.321E-08
 -21.946 -0.340E-08 -0.340E-08
 -21.936 -0.359E-08 -0.359E-08
 -21.926 -0.380E-08 -0.380E-08
 -21.916 -0.401E-08 -0.401E-08
 -21.906 -0.423E-08 -0.423E-08
 -21.896 -0.446E-08 -0.446E-08
 -21.886 -0.470E-08 -0.470E-08
 -21.876 -0.495E-08 -0.495E-08
 -21.866 -0.520E-08 -0.520E-08
 -21.856 -0.547E-08 -0.547E-08
 -21.846 -0.575E-08 -0.575E-08
 -21.836 -0.604E-08 -0.604E-08
 -21.826 -0.634E-08 -0.634E-08
 -21.816 -0.666E-08 -0.666E-08
 -21.806 -0.698E-08 -0.698E-08
 -21.796 -0.731E-08 -0.731E-08
 -21.786 -0.765E-08 -0.765E-08
 -21.776 -0.801E-08 -0.801E-08
 -21.766 -0.837E-08 -0.837E-08
 -21.756 -0.875E-08 -0.875E-08
 -21.746 -0.914E-08 -0.914E-08
 -21.736 -0.953E-08 -0.953E-08
 -21.726 -0.994E-08 -0.994E-08
 -21.716 -0.104E-07 -0.104E-07
 -21.706 -0.108E-07 -0.108E-07
 -21.696 -0.112E-07 -0.112E-07
 -21.686 -0.117E-07 -0.117E-07
 -21.676 -0.121E-07 -0.121E-07
 -21.666 -0.126E-07 -0.126E-07
 -21.656 -0.130E-07 -0.130E-07
 -21.646 -0.135E-07 -0.135E-07
 -21.636 -0.140E-07 -0.140E-07
 -21.626 -0.145E-07 -0.145E-07
 -21.616 -0.150E-07 -0.150E-07
 -21.606 -0.155E-07 -0.155E-07
 -21.596 -0.160E-07 -0.160E-07
 -21.586 -0.164E-07 -0.164E-07
 -21.576 -0.169E-07 -0.169E-07
 -21.566 -0.174E-07 -0.174E-07
 -21.556 -0.179E-07 -0.179E-07
 -21.546 -0.184E-07 -0.184E-07
 -21.536 -0.189E-07 -0.189E-07
 -21.526 -0.194E-07 -0.194E-07
 -21.516 -0.198E-07 -0.198E-07
 -21.506 -0.203E-07 -0.203E-07
 -21.496 -0.207E-07 -0.207E-07
 -21.486 -0.212E-07 -0.212E-07
 -21.476 -0.216E-07 -0.216E-07
 -21.466 -0.220E-07 -0.220E-07
 -21.456 -0.223E-07 -0.223E-07
 -21.446 -0.227E-07 -0.227E-07
 -21.436 -0.230E-07 -0.230E-07
 -21.426 -0.233E-07 -0.233E-07
 -21.416 -0.235E-07 -0.235E-07
 -21.406 -0.238E-07 -0.238E-07
 -21.396 -0.239E-07 -0.239E-07
 -21.386 -0.241E-07 -0.241E-07
 -21.376 -0.242E-07 -0.242E-07
 -21.366 -0.242E-07 -0.242E-07
 -21.356 -0.242E-07 -0.242E-07
 -21.346 -0.242E-07 -0.242E-07
 -21.336 -0.241E-07 -0.241E-07
 -21.326 -0.239E-07 -0.239E-07
 -21.316 -0.237E-07 -0.237E-07
 -21.306 -0.234E-07 -0.234E-07
 -21.296 -0.230E-07 -0.230E-07
 -21.286 -0.225E-07 -0.225E-07
 -21.276 -0.220E-07 -0.220E-07
 -21.266 -0.214E-07 -0.214E-07
 -21.256 -0.207E-07 -0.207E-07
 -21.246 -0.199E-07 -0.199E-07
 -21.236 -0.190E-07 -0.190E-07
 -21.226 -0.180E-07 -0.180E-07
 -21.216 -0.169E-07 -0.169E-07
 -21.206 -0.157E-07 -0.157E-07
 -21.196 -0.144E-07 -0.144E-07
 -21.186 -0.130E-07 -0.130E-07
 -21.176 -0.114E-07 -0.114E-07
 -21.166 -0.974E-08 -0.974E-08
 -21.156 -0.794E-08 -0.794E-08
 -21.146 -0.602E-08 -0.602E-08
 -21.136 -0.396E-08 -0.396E-08
 -21.126 -0.177E-08 -0.177E-08
 -21.116  0.569E-09  0.569E-09
 -21.106  0.305E-08  0.305E-08
 -21.096  0.567E-08  0.567E-08
 -21.086  0.844E-08  0.844E-08
 -21.076  0.114E-07  0.114E-07
 -21.066  0.144E-07  0.144E-07
 -21.056  0.177E-07  0.177E-07
 -21.046  0.211E-07  0.211E-07
 -21.036  0.246E-07  0.246E-07
 -21.026  0.283E-07  0.283E-07
 -21.016  0.322E-07  0.322E-07
 -21.006  0.362E-07  0.362E-07
 -20.996  0.404E-07  0.404E-07
 -20.986  0.448E-07  0.448E-07
 -20.976  0.493E-07  0.493E-07
 -20.966  0.540E-07  0.540E-07
 -20.956  0.589E-07  0.589E-07
 -20.946  0.639E-07  0.639E-07
 -20.936  0.691E-07  0.691E-07
 -20.926  0.744E-07  0.744E-07
 -20.916  0.799E-07  0.799E-07
 -20.906  0.856E-07  0.856E-07
 -20.896  0.914E-07  0.914E-07
 -20.886  0.974E-07  0.974E-07
 -20.876  0.103E-06  0.103E-06
 -20.866  0.110E-06  0.110E-06
 -20.856  0.116E-06  0.116E-06
 -20.846  0.123E-06  0.123E-06
 -20.836  0.129E-06  0.129E-06
 -20.826  0.136E-06  0.136E-06
 -20.816  0.143E-06  0.143E-06
 -20.806  0.150E-06  0.150E-06
 -20.796  0.157E-06  0.157E-06
 -20.786  0.164E-06  0.164E-06
 -20.776  0.172E-06  0.172E-06
 -20.766  0.179E-06  0.179E-06
 -20.756  0.186E-06  0.186E-06
 -20.746  0.194E-06  0.194E-06
 -20.736  0.202E-06  0.202E-06
 -20.726  0.209E-06  0.209E-06
 -20.716  0.217E-06  0.217E-06
 -20.706  0.225E-06  0.225E-06
 -20.696  0.232E-06  0.232E-06
 -20.686  0.240E-06  0.240E-06
 -20.676  0.248E-06  0.248E-06
 -20.666  0.256E-06  0.256E-06
 -20.656  0.263E-06  0.263E-06
 -20.646  0.271E-06  0.271E-06
 -20.636  0.279E-06  0.279E-06
 -20.626  0.286E-06  0.286E-06
 -20.616  0.294E-06  0.294E-06
 -20.606  0.301E-06  0.301E-06
 -20.596  0.309E-06  0.309E-06
 -20.586  0.316E-06  0.316E-06
 -20.576  0.323E-06  0.323E-06
 -20.566  0.330E-06  0.330E-06
 -20.556  0.337E-06  0.337E-06
 -20.546  0.344E-06  0.344E-06
 -20.536  0.350E-06  0.350E-06
 -20.526  0.357E-06  0.357E-06
 -20.516  0.363E-06  0.363E-06
 -20.506  0.369E-06  0.369E-06
 -20.496  0.375E-06  0.375E-06
 -20.486  0.381E-06  0.381E-06
 -20.476  0.386E-06  0.386E-06
 -20.466  0.392E-06  0.392E-06
 -20.456  0.397E-06  0.397E-06
 -20.446  0.401E-06  0.401E-06
 -20.436  0.406E-06  0.406E-06
 -20.426  0.410E-06  0.410E-06
 -20.416  0.414E-06  0.414E-06
 -20.406  0.418E-06  0.418E-06
 -20.396  0.422E-06  0.422E-06
 -20.386  0.425E-06  0.425E-06
 -20.376  0.428E-06  0.428E-06
 -20.366  0.430E-06  0.430E-06
 -20.356  0.432E-06  0.432E-06
 -20.346  0.434E-06  0.434E-06
 -20.336  0.436E-06  0.436E-06
 -20.326  0.437E-06  0.437E-06
 -20.316  0.438E-06  0.438E-06
 -20.306  0.439E-06  0.439E-06
 -20.296  0.440E-06  0.440E-06
 -20.286  0.440E-06  0.440E-06
 -20.276  0.439E-06  0.439E-06
 -20.266  0.439E-06  0.439E-06
 -20.256  0.438E-06  0.438E-06
 -20.246  0.437E-06  0.437E-06
 -20.236  0.435E-06  0.435E-06
 -20.226  0.434E-06  0.434E-06
 -20.216  0.432E-06  0.432E-06
 -20.206  0.429E-06  0.429E-06
 -20.196  0.426E-06  0.426E-06
 -20.186  0.423E-06  0.423E-06
 -20.176  0.420E-06  0.420E-06
 -20.166  0.417E-06  0.417E-06
 -20.156  0.413E-06  0.413E-06
 -20.146  0.409E-06  0.409E-06
 -20.136  0.404E-06  0.404E-06
 -20.126  0.400E-06  0.400E-06
 -20.116  0.395E-06  0.395E-06
 -20.106  0.390E-06  0.390E-06
 -20.096  0.384E-06  0.384E-06
 -20.086  0.379E-06  0.379E-06
 -20.076  0.373E-06  0.373E-06
 -20.066  0.367E-06  0.367E-06
 -20.056  0.361E-06  0.361E-06
 -20.046  0.355E-06  0.355E-06
 -20.036  0.348E-06  0.348E-06
 -20.026  0.342E-06  0.342E-06
 -20.016  0.335E-06  0.335E-06
 -20.006  0.328E-06  0.328E-06
 -19.996  0.321E-06  0.321E-06
 -19.986  0.314E-06  0.314E-06
 -19.976  0.307E-06  0.307E-06
 -19.966  0.299E-06  0.299E-06
 -19.956  0.292E-06  0.292E-06
 -19.946  0.285E-06  0.285E-06
 -19.936  0.277E-06  0.277E-06
 -19.926  0.270E-06  0.270E-06
 -19.916  0.262E-06  0.262E-06
 -19.906  0.255E-06  0.255E-06
 -19.896  0.247E-06  0.247E-06
 -19.886  0.240E-06  0.240E-06
 -19.876  0.232E-06  0.232E-06
 -19.866  0.225E-06  0.225E-06
 -19.856  0.218E-06  0.218E-06
 -19.846  0.210E-06  0.210E-06
 -19.836  0.203E-06  0.203E-06
 -19.826  0.196E-06  0.196E-06
 -19.816  0.189E-06  0.189E-06
 -19.806  0.182E-06  0.182E-06
 -19.796  0.175E-06  0.175E-06
 -19.786  0.168E-06  0.168E-06
 -19.776  0.161E-06  0.161E-06
 -19.766  0.155E-06  0.155E-06
 -19.756  0.148E-06  0.148E-06
 -19.746  0.142E-06  0.142E-06
 -19.736  0.136E-06  0.136E-06
 -19.726  0.130E-06  0.130E-06
 -19.716  0.124E-06  0.124E-06
 -19.706  0.119E-06  0.119E-06
 -19.696  0.113E-06  0.113E-06
 -19.686  0.108E-06  0.108E-06
 -19.676  0.103E-06  0.103E-06
 -19.666  0.978E-07  0.978E-07
 -19.656  0.930E-07  0.930E-07
 -19.646  0.885E-07  0.885E-07
 -19.636  0.841E-07  0.841E-07
 -19.626  0.799E-07  0.799E-07
 -19.616  0.759E-07  0.759E-07
 -19.606  0.721E-07  0.721E-07
 -19.596  0.684E-07  0.684E-07
 -19.586  0.650E-07  0.650E-07
 -19.576  0.618E-07  0.618E-07
 -19.566  0.587E-07  0.587E-07
 -19.556  0.558E-07  0.558E-07
 -19.546  0.532E-07  0.532E-07
 -19.536  0.507E-07  0.507E-07
 -19.526  0.484E-07  0.484E-07
 -19.516  0.462E-07  0.462E-07
 -19.506  0.443E-07  0.443E-07
 -19.496  0.425E-07  0.425E-07
 -19.486  0.409E-07  0.409E-07
 -19.476  0.394E-07  0.394E-07
 -19.466  0.381E-07  0.381E-07
 -19.456  0.370E-07  0.370E-07
 -19.446  0.361E-07  0.361E-07
 -19.436  0.352E-07  0.352E-07
 -19.426  0.346E-07  0.346E-07
 -19.416  0.340E-07  0.340E-07
 -19.406  0.336E-07  0.336E-07
 -19.396  0.333E-07  0.333E-07
 -19.386  0.332E-07  0.332E-07
 -19.376  0.331E-07  0.331E-07
 -19.366  0.332E-07  0.332E-07
 -19.356  0.334E-07  0.334E-07
 -19.346  0.337E-07  0.337E-07
 -19.336  0.340E-07  0.340E-07
 -19.326  0.345E-07  0.345E-07
 -19.316  0.350E-07  0.350E-07
 -19.306  0.356E-07  0.356E-07
 -19.296  0.363E-07  0.363E-07
 -19.286  0.371E-07  0.371E-07
 -19.276  0.379E-07  0.379E-07
 -19.266  0.387E-07  0.387E-07
 -19.256  0.396E-07  0.396E-07
 -19.246  0.406E-07  0.406E-07
 -19.236  0.416E-07  0.416E-07
 -19.226  0.426E-07  0.426E-07
 -19.216  0.436E-07  0.436E-07
 -19.206  0.446E-07  0.446E-07
 -19.196  0.457E-07  0.457E-07
 -19.186  0.468E-07  0.468E-07
 -19.176  0.478E-07  0.478E-07
 -19.166  0.489E-07  0.489E-07
 -19.156  0.500E-07  0.500E-07
 -19.146  0.510E-07  0.510E-07
 -19.136  0.521E-07  0.521E-07
 -19.126  0.531E-07  0.531E-07
 -19.116  0.541E-07  0.541E-07
 -19.106  0.551E-07  0.551E-07
 -19.096  0.560E-07  0.560E-07
 -19.086  0.569E-07  0.569E-07
 -19.076  0.578E-07  0.578E-07
 -19.066  0.586E-07  0.586E-07
 -19.056  0.594E-07  0.594E-07
 -19.046  0.601E-07  0.601E-07
 -19.036  0.608E-07  0.608E-07
 -19.026  0.615E-07  0.615E-07
 -19.016  0.620E-07  0.620E-07
 -19.006  0.626E-07  0.626E-07
 -18.996  0.631E-07  0.631E-07
 -18.986  0.635E-07  0.635E-07
 -18.976  0.639E-07  0.639E-07
 -18.966  0.642E-07  0.642E-07
 -18.956  0.644E-07  0.644E-07
 -18.946  0.646E-07  0.646E-07
 -18.936  0.647E-07  0.647E-07
 -18.926  0.648E-07  0.648E-07
 -18.916  0.648E-07  0.648E-07
 -18.906  0.647E-07  0.647E-07
 -18.896  0.646E-07  0.646E-07
 -18.886  0.644E-07  0.644E-07
 -18.876  0.642E-07  0.642E-07
 -18.866  0.639E-07  0.639E-07
 -18.856  0.635E-07  0.635E-07
 -18.846  0.631E-07  0.631E-07
 -18.836  0.626E-07  0.626E-07
 -18.826  0.621E-07  0.621E-07
 -18.816  0.615E-07  0.615E-07
 -18.806  0.609E-07  0.609E-07
 -18.796  0.602E-07  0.602E-07
 -18.786  0.595E-07  0.595E-07
 -18.776  0.587E-07  0.587E-07
 -18.766  0.578E-07  0.578E-07
 -18.756  0.569E-07  0.569E-07
 -18.746  0.560E-07  0.560E-07
 -18.736  0.551E-07  0.551E-07
 -18.726  0.541E-07  0.541E-07
 -18.716  0.530E-07  0.530E-07
 -18.706  0.519E-07  0.519E-07
 -18.696  0.508E-07  0.508E-07
 -18.686  0.497E-07  0.497E-07
 -18.676  0.485E-07  0.485E-07
 -18.666  0.473E-07  0.473E-07
 -18.656  0.461E-07  0.461E-07
 -18.646  0.448E-07  0.448E-07
 -18.636  0.436E-07  0.436E-07
 -18.626  0.423E-07  0.423E-07
 -18.616  0.410E-07  0.410E-07
 -18.606  0.396E-07  0.396E-07
 -18.596  0.383E-07  0.383E-07
 -18.586  0.370E-07  0.370E-07
 -18.576  0.356E-07  0.356E-07
 -18.566  0.343E-07  0.343E-07
 -18.556  0.329E-07  0.329E-07
 -18.546  0.315E-07  0.315E-07
 -18.536  0.301E-07  0.301E-07
 -18.526  0.288E-07  0.288E-07
 -18.516  0.274E-07  0.274E-07
 -18.506  0.260E-07  0.260E-07
 -18.496  0.247E-07  0.247E-07
 -18.486  0.233E-07  0.233E-07
 -18.476  0.220E-07  0.220E-07
 -18.466  0.206E-07  0.206E-07
 -18.456  0.193E-07  0.193E-07
 -18.446  0.179E-07  0.179E-07
 -18.436  0.166E-07  0.166E-07
 -18.426  0.153E-07  0.153E-07
 -18.416  0.140E-07  0.140E-07
 -18.406  0.128E-07  0.128E-07
 -18.396  0.115E-07  0.115E-07
 -18.386  0.103E-07  0.103E-07
 -18.376  0.903E-08  0.903E-08
 -18.366  0.783E-08  0.783E-08
 -18.356  0.663E-08  0.663E-08
 -18.346  0.546E-08  0.546E-08
 -18.336  0.431E-08  0.431E-08
 -18.326  0.317E-08  0.317E-08
 -18.316  0.206E-08  0.206E-08
 -18.306  0.961E-09  0.961E-09
 -18.296 -0.114E-09 -0.114E-09
 -18.286 -0.117E-08 -0.117E-08
 -18.276 -0.220E-08 -0.220E-08
 -18.266 -0.321E-08 -0.321E-08
 -18.256 -0.420E-08 -0.420E-08
 -18.246 -0.517E-08 -0.517E-08
 -18.236 -0.612E-08 -0.612E-08
 -18.226 -0.704E-08 -0.704E-08
 -18.216 -0.795E-08 -0.795E-08
 -18.206 -0.883E-08 -0.883E-08
 -18.196 -0.969E-08 -0.969E-08
 -18.186 -0.105E-07 -0.105E-07
 -18.176 -0.113E-07 -0.113E-07
 -18.166 -0.121E-07 -0.121E-07
 -18.156 -0.129E-07 -0.129E-07
 -18.146 -0.136E-07 -0.136E-07
 -18.136 -0.143E-07 -0.143E-07
 -18.126 -0.150E-07 -0.150E-07
 -18.116 -0.157E-07 -0.157E-07
 -18.106 -0.164E-07 -0.164E-07
 -18.096 -0.170E-07 -0.170E-07
 -18.086 -0.176E-07 -0.176E-07
 -18.076 -0.181E-07 -0.181E-07
 -18.066 -0.187E-07 -0.187E-07
 -18.056 -0.192E-07 -0.192E-07
 -18.046 -0.197E-07 -0.197E-07
 -18.036 -0.201E-07 -0.201E-07
 -18.026 -0.205E-07 -0.205E-07
 -18.016 -0.209E-07 -0.209E-07
 -18.006 -0.213E-07 -0.213E-07
 -17.996 -0.216E-07 -0.216E-07
 -17.986 -0.219E-07 -0.219E-07
 -17.976 -0.221E-07 -0.221E-07
 -17.966 -0.224E-07 -0.224E-07
 -17.956 -0.225E-07 -0.225E-07
 -17.946 -0.227E-07 -0.227E-07
 -17.936 -0.228E-07 -0.228E-07
 -17.926 -0.228E-07 -0.228E-07
 -17.916 -0.229E-07 -0.229E-07
 -17.906 -0.228E-07 -0.228E-07
 -17.896 -0.228E-07 -0.228E-07
 -17.886 -0.226E-07 -0.226E-07
 -17.876 -0.225E-07 -0.225E-07
 -17.866 -0.222E-07 -0.222E-07
 -17.856 -0.220E-07 -0.220E-07
 -17.846 -0.216E-07 -0.216E-07
 -17.836 -0.212E-07 -0.212E-07
 -17.826 -0.208E-07 -0.208E-07
 -17.816 -0.203E-07 -0.203E-07
 -17.806 -0.197E-07 -0.197E-07
 -17.796 -0.190E-07 -0.190E-07
 -17.786 -0.183E-07 -0.183E-07
 -17.776 -0.176E-07 -0.176E-07
 -17.766 -0.167E-07 -0.167E-07
 -17.756 -0.158E-07 -0.158E-07
 -17.746 -0.148E-07 -0.148E-07
 -17.736 -0.137E-07 -0.137E-07
 -17.726 -0.126E-07 -0.126E-07
 -17.716 -0.114E-07 -0.114E-07
 -17.706 -0.100E-07 -0.100E-07
 -17.696 -0.866E-08 -0.866E-08
 -17.686 -0.718E-08 -0.718E-08
 -17.676 -0.562E-08 -0.562E-08
 -17.666 -0.397E-08 -0.397E-08
 -17.656 -0.223E-08 -0.223E-08
 -17.646 -0.395E-09 -0.395E-09
 -17.636  0.153E-08  0.153E-08
 -17.626  0.354E-08  0.354E-08
 -17.616  0.565E-08  0.565E-08
 -17.606  0.785E-08  0.785E-08
 -17.596  0.101E-07  0.101E-07
 -17.586  0.125E-07  0.125E-07
 -17.576  0.150E-07  0.150E-07
 -17.566  0.176E-07  0.176E-07
 -17.556  0.203E-07  0.203E-07
 -17.546  0.231E-07  0.231E-07
 -17.536  0.259E-07  0.259E-07
 -17.526  0.289E-07  0.289E-07
 -17.516  0.320E-07  0.320E-07
 -17.506  0.351E-07  0.351E-07
 -17.496  0.384E-07  0.384E-07
 -17.486  0.417E-07  0.417E-07
 -17.476  0.451E-07  0.451E-07
 -17.466  0.487E-07  0.487E-07
 -17.456  0.523E-07  0.523E-07
 -17.446  0.560E-07  0.560E-07
 -17.436  0.598E-07  0.598E-07
 -17.426  0.636E-07  0.636E-07
 -17.416  0.676E-07  0.676E-07
 -17.406  0.716E-07  0.716E-07
 -17.396  0.757E-07  0.757E-07
 -17.386  0.799E-07  0.799E-07
 -17.376  0.841E-07  0.841E-07
 -17.366  0.885E-07  0.885E-07
 -17.356  0.928E-07  0.928E-07
 -17.346  0.973E-07  0.973E-07
 -17.336  0.102E-06  0.102E-06
 -17.326  0.106E-06  0.106E-06
 -17.316  0.111E-06  0.111E-06
 -17.306  0.116E-06  0.116E-06
 -17.296  0.120E-06  0.120E-06
 -17.286  0.125E-06  0.125E-06
 -17.276  0.130E-06  0.130E-06
 -17.266  0.135E-06  0.135E-06
 -17.256  0.140E-06  0.140E-06
 -17.246  0.145E-06  0.145E-06
 -17.236  0.149E-06  0.149E-06
 -17.226  0.154E-06  0.154E-06
 -17.216  0.159E-06  0.159E-06
 -17.206  0.164E-06  0.164E-06
 -17.196  0.169E-06  0.169E-06
 -17.186  0.174E-06  0.174E-06
 -17.176  0.180E-06  0.180E-06
 -17.166  0.185E-06  0.185E-06
 -17.156  0.190E-06  0.190E-06
 -17.146  0.195E-06  0.195E-06
 -17.136  0.200E-06  0.200E-06
 -17.126  0.205E-06  0.205E-06
 -17.116  0.210E-06  0.210E-06
 -17.106  0.215E-06  0.215E-06
 -17.096  0.220E-06  0.220E-06
 -17.086  0.225E-06  0.225E-06
 -17.076  0.230E-06  0.230E-06
 -17.066  0.235E-06  0.235E-06
 -17.056  0.240E-06  0.240E-06
 -17.046  0.245E-06  0.245E-06
 -17.036  0.250E-06  0.250E-06
 -17.026  0.255E-06  0.255E-06
 -17.016  0.260E-06  0.260E-06
 -17.006  0.265E-06  0.265E-06
 -16.996  0.270E-06  0.270E-06
 -16.986  0.275E-06  0.275E-06
 -16.976  0.280E-06  0.280E-06
 -16.966  0.284E-06  0.284E-06
 -16.956  0.289E-06  0.289E-06
 -16.946  0.294E-06  0.294E-06
 -16.936  0.299E-06  0.299E-06
 -16.926  0.304E-06  0.304E-06
 -16.916  0.309E-06  0.309E-06
 -16.906  0.314E-06  0.314E-06
 -16.896  0.319E-06  0.319E-06
 -16.886  0.324E-06  0.324E-06
 -16.876  0.329E-06  0.329E-06
 -16.866  0.334E-06  0.334E-06
 -16.856  0.339E-06  0.339E-06
 -16.846  0.344E-06  0.344E-06
 -16.836  0.349E-06  0.349E-06
 -16.826  0.354E-06  0.354E-06
 -16.816  0.359E-06  0.359E-06
 -16.806  0.364E-06  0.364E-06
 -16.796  0.369E-06  0.369E-06
 -16.786  0.374E-06  0.374E-06
 -16.776  0.379E-06  0.379E-06
 -16.766  0.385E-06  0.385E-06
 -16.756  0.390E-06  0.390E-06
 -16.746  0.395E-06  0.395E-06
 -16.736  0.401E-06  0.401E-06
 -16.726  0.406E-06  0.406E-06
 -16.716  0.412E-06  0.412E-06
 -16.706  0.417E-06  0.417E-06
 -16.696  0.423E-06  0.423E-06
 -16.686  0.428E-06  0.428E-06
 -16.676  0.434E-06  0.434E-06
 -16.666  0.440E-06  0.440E-06
 -16.656  0.446E-06  0.446E-06
 -16.646  0.452E-06  0.452E-06
 -16.636  0.457E-06  0.457E-06
 -16.626  0.463E-06  0.463E-06
 -16.616  0.469E-06  0.469E-06
 -16.606  0.476E-06  0.476E-06
 -16.596  0.482E-06  0.482E-06
 -16.586  0.488E-06  0.488E-06
 -16.576  0.494E-06  0.494E-06
 -16.566  0.500E-06  0.500E-06
 -16.556  0.506E-06  0.506E-06
 -16.546  0.513E-06  0.513E-06
 -16.536  0.519E-06  0.519E-06
 -16.526  0.525E-06  0.525E-06
 -16.516  0.532E-06  0.532E-06
 -16.506  0.538E-06  0.538E-06
 -16.496  0.544E-06  0.544E-06
 -16.486  0.550E-06  0.550E-06
 -16.476  0.557E-06  0.557E-06
 -16.466  0.563E-06  0.563E-06
 -16.456  0.569E-06  0.569E-06
 -16.446  0.575E-06  0.575E-06
 -16.436  0.581E-06  0.581E-06
 -16.426  0.587E-06  0.587E-06
 -16.416  0.593E-06  0.593E-06
 -16.406  0.599E-06  0.599E-06
 -16.396  0.604E-06  0.604E-06
 -16.386  0.610E-06  0.610E-06
 -16.376  0.615E-06  0.615E-06
 -16.366  0.620E-06  0.620E-06
 -16.356  0.625E-06  0.625E-06
 -16.346  0.630E-06  0.630E-06
 -16.336  0.635E-06  0.635E-06
 -16.326  0.640E-06  0.640E-06
 -16.316  0.644E-06  0.644E-06
 -16.306  0.648E-06  0.648E-06
 -16.296  0.652E-06  0.652E-06
 -16.286  0.656E-06  0.656E-06
 -16.276  0.660E-06  0.660E-06
 -16.266  0.663E-06  0.663E-06
 -16.256  0.666E-06  0.666E-06
 -16.246  0.668E-06  0.668E-06
 -16.236  0.671E-06  0.671E-06
 -16.226  0.673E-06  0.673E-06
 -16.216  0.675E-06  0.675E-06
 -16.206  0.676E-06  0.676E-06
 -16.196  0.677E-06  0.677E-06
 -16.186  0.678E-06  0.678E-06
 -16.176  0.679E-06  0.679E-06
 -16.166  0.679E-06  0.679E-06
 -16.156  0.679E-06  0.679E-06
 -16.146  0.678E-06  0.678E-06
 -16.136  0.678E-06  0.678E-06
 -16.126  0.676E-06  0.676E-06
 -16.116  0.675E-06  0.675E-06
 -16.106  0.673E-06  0.673E-06
 -16.096  0.671E-06  0.671E-06
 -16.086  0.668E-06  0.668E-06
 -16.076  0.665E-06  0.665E-06
 -16.066  0.662E-06  0.662E-06
 -16.056  0.658E-06  0.658E-06
 -16.046  0.654E-06  0.654E-06
 -16.036  0.649E-06  0.649E-06
 -16.026  0.644E-06  0.644E-06
 -16.016  0.639E-06  0.639E-06
 -16.006  0.634E-06  0.634E-06
 -15.996  0.628E-06  0.628E-06
 -15.986  0.621E-06  0.621E-06
 -15.976  0.615E-06  0.615E-06
 -15.966  0.608E-06  0.608E-06
 -15.956  0.601E-06  0.601E-06
 -15.946  0.593E-06  0.593E-06
 -15.936  0.585E-06  0.585E-06
 -15.926  0.577E-06  0.577E-06
 -15.916  0.569E-06  0.569E-06
 -15.906  0.560E-06  0.560E-06
 -15.896  0.551E-06  0.551E-06
 -15.886  0.542E-06  0.542E-06
 -15.876  0.532E-06  0.532E-06
 -15.866  0.523E-06  0.523E-06
 -15.856  0.513E-06  0.513E-06
 -15.846  0.503E-06  0.503E-06
 -15.836  0.493E-06  0.493E-06
 -15.826  0.482E-06  0.482E-06
 -15.816  0.472E-06  0.472E-06
 -15.806  0.461E-06  0.461E-06
 -15.796  0.450E-06  0.450E-06
 -15.786  0.439E-06  0.439E-06
 -15.776  0.428E-06  0.428E-06
 -15.766  0.417E-06  0.417E-06
 -15.756  0.406E-06  0.406E-06
 -15.746  0.394E-06  0.394E-06
 -15.736  0.383E-06  0.383E-06
 -15.726  0.372E-06  0.372E-06
 -15.716  0.360E-06  0.360E-06
 -15.706  0.349E-06  0.349E-06
 -15.696  0.338E-06  0.338E-06
 -15.686  0.326E-06  0.326E-06
 -15.676  0.315E-06  0.315E-06
 -15.666  0.304E-06  0.304E-06
 -15.656  0.293E-06  0.293E-06
 -15.646  0.282E-06  0.282E-06
 -15.636  0.271E-06  0.271E-06
 -15.626  0.260E-06  0.260E-06
 -15.616  0.249E-06  0.249E-06
 -15.606  0.238E-06  0.238E-06
 -15.596  0.228E-06  0.228E-06
 -15.586  0.217E-06  0.217E-06
 -15.576  0.207E-06  0.207E-06
 -15.566  0.197E-06  0.197E-06
 -15.556  0.187E-06  0.187E-06
 -15.546  0.177E-06  0.177E-06
 -15.536  0.168E-06  0.168E-06
 -15.526  0.159E-06  0.159E-06
 -15.516  0.150E-06  0.150E-06
 -15.506  0.141E-06  0.141E-06
 -15.496  0.132E-06  0.132E-06
 -15.486  0.123E-06  0.123E-06
 -15.476  0.115E-06  0.115E-06
 -15.466  0.107E-06  0.107E-06
 -15.456  0.992E-07  0.992E-07
 -15.446  0.916E-07  0.916E-07
 -15.436  0.843E-07  0.843E-07
 -15.426  0.771E-07  0.771E-07
 -15.416  0.702E-07  0.702E-07
 -15.406  0.636E-07  0.636E-07
 -15.396  0.571E-07  0.571E-07
 -15.386  0.510E-07  0.510E-07
 -15.376  0.450E-07  0.450E-07
 -15.366  0.393E-07  0.393E-07
 -15.356  0.338E-07  0.338E-07
 -15.346  0.285E-07  0.285E-07
 -15.336  0.235E-07  0.235E-07
 -15.326  0.187E-07  0.187E-07
 -15.316  0.141E-07  0.141E-07
 -15.306  0.974E-08  0.974E-08
 -15.296  0.559E-08  0.559E-08
 -15.286  0.165E-08  0.165E-08
 -15.276 -0.208E-08 -0.208E-08
 -15.266 -0.560E-08 -0.560E-08
 -15.256 -0.893E-08 -0.893E-08
 -15.246 -0.121E-07 -0.121E-07
 -15.236 -0.150E-07 -0.150E-07
 -15.226 -0.178E-07 -0.178E-07
 -15.216 -0.204E-07 -0.204E-07
 -15.206 -0.228E-07 -0.228E-07
 -15.196 -0.250E-07 -0.250E-07
 -15.186 -0.271E-07 -0.271E-07
 -15.176 -0.291E-07 -0.291E-07
 -15.166 -0.309E-07 -0.309E-07
 -15.156 -0.325E-07 -0.325E-07
 -15.146 -0.340E-07 -0.340E-07
 -15.136 -0.354E-07 -0.354E-07
 -15.126 -0.367E-07 -0.367E-07
 -15.116 -0.378E-07 -0.378E-07
 -15.106 -0.389E-07 -0.389E-07
 -15.096 -0.398E-07 -0.398E-07
 -15.086 -0.407E-07 -0.407E-07
 -15.076 -0.414E-07 -0.414E-07
 -15.066 -0.421E-07 -0.421E-07
 -15.056 -0.427E-07 -0.427E-07
 -15.046 -0.432E-07 -0.432E-07
 -15.036 -0.437E-07 -0.437E-07
 -15.026 -0.441E-07 -0.441E-07
 -15.016 -0.444E-07 -0.444E-07
 -15.006 -0.447E-07 -0.447E-07
 -14.996 -0.450E-07 -0.450E-07
 -14.986 -0.452E-07 -0.452E-07
 -14.976 -0.455E-07 -0.455E-07
 -14.966 -0.456E-07 -0.456E-07
 -14.956 -0.458E-07 -0.458E-07
 -14.946 -0.460E-07 -0.460E-07
 -14.936 -0.461E-07 -0.461E-07
 -14.926 -0.463E-07 -0.463E-07
 -14.916 -0.465E-07 -0.465E-07
 -14.906 -0.466E-07 -0.466E-07
 -14.896 -0.468E-07 -0.468E-07
 -14.886 -0.470E-07 -0.470E-07
 -14.876 -0.473E-07 -0.473E-07
 -14.866 -0.476E-07 -0.476E-07
 -14.856 -0.479E-07 -0.479E-07
 -14.846 -0.483E-07 -0.483E-07
 -14.836 -0.487E-07 -0.487E-07
 -14.826 -0.491E-07 -0.491E-07
 -14.816 -0.497E-07 -0.497E-07
 -14.806 -0.503E-07 -0.503E-07
 -14.796 -0.509E-07 -0.509E-07
 -14.786 -0.517E-07 -0.517E-07
 -14.776 -0.525E-07 -0.525E-07
 -14.766 -0.534E-07 -0.534E-07
 -14.756 -0.544E-07 -0.544E-07
 -14.746 -0.554E-07 -0.554E-07
 -14.736 -0.566E-07 -0.566E-07
 -14.726 -0.579E-07 -0.579E-07
 -14.716 -0.592E-07 -0.592E-07
 -14.706 -0.607E-07 -0.607E-07
 -14.696 -0.623E-07 -0.623E-07
 -14.686 -0.641E-07 -0.641E-07
 -14.676 -0.659E-07 -0.659E-07
 -14.666 -0.679E-07 -0.679E-07
 -14.656 -0.700E-07 -0.700E-07
 -14.646 -0.722E-07 -0.722E-07
 -14.636 -0.746E-07 -0.746E-07
 -14.626 -0.771E-07 -0.771E-07
 -14.616 -0.798E-07 -0.798E-07
 -14.606 -0.826E-07 -0.826E-07
 -14.596 -0.856E-07 -0.856E-07
 -14.586 -0.887E-07 -0.887E-07
 -14.576 -0.920E-07 -0.920E-07
 -14.566 -0.955E-07 -0.955E-07
 -14.556 -0.991E-07 -0.991E-07
 -14.546 -0.103E-06 -0.103E-06
 -14.536 -0.107E-06 -0.107E-06
 -14.526 -0.111E-06 -0.111E-06
 -14.516 -0.115E-06 -0.115E-06
 -14.506 -0.120E-06 -0.120E-06
 -14.496 -0.124E-06 -0.124E-06
 -14.486 -0.129E-06 -0.129E-06
 -14.476 -0.134E-06 -0.134E-06
 -14.466 -0.140E-06 -0.140E-06
 -14.456 -0.145E-06 -0.145E-06
 -14.446 -0.150E-06 -0.150E-06
 -14.436 -0.156E-06 -0.156E-06
 -14.426 -0.162E-06 -0.162E-06
 -14.416 -0.168E-06 -0.168E-06
 -14.406 -0.174E-06 -0.174E-06
 -14.396 -0.181E-06 -0.181E-06
 -14.386 -0.187E-06 -0.187E-06
 -14.376 -0.194E-06 -0.194E-06
 -14.366 -0.201E-06 -0.201E-06
 -14.356 -0.208E-06 -0.208E-06
 -14.346 -0.215E-06 -0.215E-06
 -14.336 -0.223E-06 -0.223E-06
 -14.326 -0.230E-06 -0.230E-06
 -14.316 -0.237E-06 -0.237E-06
 -14.306 -0.245E-06 -0.245E-06
 -14.296 -0.253E-06 -0.253E-06
 -14.286 -0.260E-06 -0.260E-06
 -14.276 -0.268E-06 -0.268E-06
 -14.266 -0.276E-06 -0.276E-06
 -14.256 -0.284E-06 -0.284E-06
 -14.246 -0.291E-06 -0.291E-06
 -14.236 -0.299E-06 -0.299E-06
 -14.226 -0.307E-06 -0.307E-06
 -14.216 -0.314E-06 -0.314E-06
 -14.206 -0.322E-06 -0.322E-06
 -14.196 -0.329E-06 -0.329E-06
 -14.186 -0.336E-06 -0.336E-06
 -14.176 -0.343E-06 -0.343E-06
 -14.166 -0.350E-06 -0.350E-06
 -14.156 -0.356E-06 -0.356E-06
 -14.146 -0.362E-06 -0.362E-06
 -14.136 -0.368E-06 -0.368E-06
 -14.126 -0.373E-06 -0.373E-06
 -14.116 -0.378E-06 -0.378E-06
 -14.106 -0.383E-06 -0.383E-06
 -14.096 -0.387E-06 -0.387E-06
 -14.086 -0.390E-06 -0.390E-06
 -14.076 -0.393E-06 -0.393E-06
 -14.066 -0.395E-06 -0.395E-06
 -14.056 -0.396E-06 -0.396E-06
 -14.046 -0.397E-06 -0.397E-06
 -14.036 -0.396E-06 -0.396E-06
 -14.026 -0.395E-06 -0.395E-06
 -14.016 -0.393E-06 -0.393E-06
 -14.006 -0.390E-06 -0.390E-06
 -13.996 -0.386E-06 -0.386E-06
 -13.986 -0.380E-06 -0.380E-06
 -13.976 -0.374E-06 -0.374E-06
 -13.966 -0.366E-06 -0.366E-06
 -13.956 -0.357E-06 -0.357E-06
 -13.946 -0.346E-06 -0.346E-06
 -13.936 -0.334E-06 -0.334E-06
 -13.926 -0.320E-06 -0.320E-06
 -13.916 -0.305E-06 -0.305E-06
 -13.906 -0.288E-06 -0.288E-06
 -13.896 -0.269E-06 -0.269E-06
 -13.886 -0.249E-06 -0.249E-06
 -13.876 -0.226E-06 -0.226E-06
 -13.866 -0.202E-06 -0.202E-06
 -13.856 -0.175E-06 -0.175E-06
 -13.846 -0.146E-06 -0.146E-06
 -13.836 -0.115E-06 -0.115E-06
 -13.826 -0.822E-07 -0.822E-07
 -13.816 -0.467E-07 -0.467E-07
 -13.806 -0.877E-08 -0.877E-08
 -13.796  0.316E-07  0.316E-07
 -13.786  0.745E-07  0.745E-07
 -13.776  0.120E-06  0.120E-06
 -13.766  0.168E-06  0.168E-06
 -13.756  0.219E-06  0.219E-06
 -13.746  0.273E-06  0.273E-06
 -13.736  0.329E-06  0.329E-06
 -13.726  0.388E-06  0.388E-06
 -13.716  0.450E-06  0.450E-06
 -13.706  0.516E-06  0.516E-06
 -13.696  0.584E-06  0.584E-06
 -13.686  0.655E-06  0.655E-06
 -13.676  0.729E-06  0.729E-06
 -13.666  0.806E-06  0.806E-06
 -13.656  0.886E-06  0.886E-06
 -13.646  0.970E-06  0.970E-06
 -13.636  0.106E-05  0.106E-05
 -13.626  0.115E-05  0.115E-05
 -13.616  0.124E-05  0.124E-05
 -13.606  0.133E-05  0.133E-05
 -13.596  0.143E-05  0.143E-05
 -13.586  0.153E-05  0.153E-05
 -13.576  0.164E-05  0.164E-05
 -13.566  0.175E-05  0.175E-05
 -13.556  0.186E-05  0.186E-05
 -13.546  0.197E-05  0.197E-05
 -13.536  0.209E-05  0.209E-05
 -13.526  0.220E-05  0.220E-05
 -13.516  0.233E-05  0.233E-05
 -13.506  0.245E-05  0.245E-05
 -13.496  0.258E-05  0.258E-05
 -13.486  0.271E-05  0.271E-05
 -13.476  0.284E-05  0.284E-05
 -13.466  0.297E-05  0.297E-05
 -13.456  0.311E-05  0.311E-05
 -13.446  0.324E-05  0.324E-05
 -13.436  0.338E-05  0.338E-05
 -13.426  0.352E-05  0.352E-05
 -13.416  0.367E-05  0.367E-05
 -13.406  0.381E-05  0.381E-05
 -13.396  0.395E-05  0.395E-05
 -13.386  0.410E-05  0.410E-05
 -13.376  0.425E-05  0.425E-05
 -13.366  0.439E-05  0.439E-05
 -13.356  0.454E-05  0.454E-05
 -13.346  0.469E-05  0.469E-05
 -13.336  0.484E-05  0.484E-05
 -13.326  0.499E-05  0.499E-05
 -13.316  0.514E-05  0.514E-05
 -13.306  0.528E-05  0.528E-05
 -13.296  0.543E-05  0.543E-05
 -13.286  0.558E-05  0.558E-05
 -13.276  0.572E-05  0.572E-05
 -13.266  0.587E-05  0.587E-05
 -13.256  0.601E-05  0.601E-05
 -13.246  0.615E-05  0.615E-05
 -13.236  0.629E-05  0.629E-05
 -13.226  0.643E-05  0.643E-05
 -13.216  0.656E-05  0.656E-05
 -13.206  0.670E-05  0.670E-05
 -13.196  0.682E-05  0.682E-05
 -13.186  0.695E-05  0.695E-05
 -13.176  0.707E-05  0.707E-05
 -13.166  0.719E-05  0.719E-05
 -13.156  0.731E-05  0.731E-05
 -13.146  0.742E-05  0.742E-05
 -13.136  0.753E-05  0.753E-05
 -13.126  0.764E-05  0.764E-05
 -13.116  0.774E-05  0.774E-05
 -13.106  0.783E-05  0.783E-05
 -13.096  0.792E-05  0.792E-05
 -13.086  0.801E-05  0.801E-05
 -13.076  0.809E-05  0.809E-05
 -13.066  0.817E-05  0.817E-05
 -13.056  0.824E-05  0.824E-05
 -13.046  0.831E-05  0.831E-05
 -13.036  0.837E-05  0.837E-05
 -13.026  0.842E-05  0.842E-05
 -13.016  0.847E-05  0.847E-05
 -13.006  0.851E-05  0.851E-05
 -12.996  0.855E-05  0.855E-05
 -12.986  0.858E-05  0.858E-05
 -12.976  0.861E-05  0.861E-05
 -12.966  0.863E-05  0.863E-05
 -12.956  0.864E-05  0.864E-05
 -12.946  0.865E-05  0.865E-05
 -12.936  0.865E-05  0.865E-05
 -12.926  0.865E-05  0.865E-05
 -12.916  0.863E-05  0.863E-05
 -12.906  0.862E-05  0.862E-05
 -12.896  0.859E-05  0.859E-05
 -12.886  0.857E-05  0.857E-05
 -12.876  0.853E-05  0.853E-05
 -12.866  0.849E-05  0.849E-05
 -12.856  0.844E-05  0.844E-05
 -12.846  0.839E-05  0.839E-05
 -12.836  0.833E-05  0.833E-05
 -12.826  0.827E-05  0.827E-05
 -12.816  0.820E-05  0.820E-05
 -12.806  0.812E-05  0.812E-05
 -12.796  0.804E-05  0.804E-05
 -12.786  0.796E-05  0.796E-05
 -12.776  0.787E-05  0.787E-05
 -12.766  0.777E-05  0.777E-05
 -12.756  0.767E-05  0.767E-05
 -12.746  0.757E-05  0.757E-05
 -12.736  0.746E-05  0.746E-05
 -12.726  0.735E-05  0.735E-05
 -12.716  0.723E-05  0.723E-05
 -12.706  0.711E-05  0.711E-05
 -12.696  0.699E-05  0.699E-05
 -12.686  0.686E-05  0.686E-05
 -12.676  0.673E-05  0.673E-05
 -12.666  0.660E-05  0.660E-05
 -12.656  0.646E-05  0.646E-05
 -12.646  0.633E-05  0.633E-05
 -12.636  0.618E-05  0.618E-05
 -12.626  0.604E-05  0.604E-05
 -12.616  0.590E-05  0.590E-05
 -12.606  0.575E-05  0.575E-05
 -12.596  0.560E-05  0.560E-05
 -12.586  0.546E-05  0.546E-05
 -12.576  0.531E-05  0.531E-05
 -12.566  0.516E-05  0.516E-05
 -12.556  0.500E-05  0.500E-05
 -12.546  0.485E-05  0.485E-05
 -12.536  0.470E-05  0.470E-05
 -12.526  0.455E-05  0.455E-05
 -12.516  0.440E-05  0.440E-05
 -12.506  0.425E-05  0.425E-05
 -12.496  0.410E-05  0.410E-05
 -12.486  0.395E-05  0.395E-05
 -12.476  0.380E-05  0.380E-05
 -12.466  0.365E-05  0.365E-05
 -12.456  0.351E-05  0.351E-05
 -12.446  0.336E-05  0.336E-05
 -12.436  0.322E-05  0.322E-05
 -12.426  0.308E-05  0.308E-05
 -12.416  0.294E-05  0.294E-05
 -12.406  0.280E-05  0.280E-05
 -12.396  0.266E-05  0.266E-05
 -12.386  0.253E-05  0.253E-05
 -12.376  0.240E-05  0.240E-05
 -12.366  0.227E-05  0.227E-05
 -12.356  0.214E-05  0.214E-05
 -12.346  0.202E-05  0.202E-05
 -12.336  0.190E-05  0.190E-05
 -12.326  0.178E-05  0.178E-05
 -12.316  0.167E-05  0.167E-05
 -12.306  0.156E-05  0.156E-05
 -12.296  0.145E-05  0.145E-05
 -12.286  0.134E-05  0.134E-05
 -12.276  0.124E-05  0.124E-05
 -12.266  0.114E-05  0.114E-05
 -12.256  0.104E-05  0.104E-05
 -12.246  0.948E-06  0.948E-06
 -12.236  0.858E-06  0.858E-06
 -12.226  0.770E-06  0.770E-06
 -12.216  0.686E-06  0.686E-06
 -12.206  0.605E-06  0.605E-06
 -12.196  0.527E-06  0.527E-06
 -12.186  0.452E-06  0.452E-06
 -12.176  0.380E-06  0.380E-06
 -12.166  0.311E-06  0.311E-06
 -12.156  0.245E-06  0.245E-06
 -12.146  0.182E-06  0.182E-06
 -12.136  0.122E-06  0.122E-06
 -12.126  0.642E-07  0.642E-07
 -12.116  0.960E-08  0.960E-08
 -12.106 -0.423E-07 -0.423E-07
 -12.096 -0.915E-07 -0.915E-07
 -12.086 -0.138E-06 -0.138E-06
 -12.076 -0.182E-06 -0.182E-06
 -12.066 -0.224E-06 -0.224E-06
 -12.056 -0.263E-06 -0.263E-06
 -12.046 -0.300E-06 -0.300E-06
 -12.036 -0.335E-06 -0.335E-06
 -12.026 -0.367E-06 -0.367E-06
 -12.016 -0.398E-06 -0.398E-06
 -12.006 -0.426E-06 -0.426E-06
 -11.996 -0.453E-06 -0.453E-06
 -11.986 -0.477E-06 -0.477E-06
 -11.976 -0.500E-06 -0.500E-06
 -11.966 -0.521E-06 -0.521E-06
 -11.956 -0.541E-06 -0.541E-06
 -11.946 -0.559E-06 -0.559E-06
 -11.936 -0.575E-06 -0.575E-06
 -11.926 -0.591E-06 -0.591E-06
 -11.916 -0.604E-06 -0.604E-06
 -11.906 -0.617E-06 -0.617E-06
 -11.896 -0.629E-06 -0.629E-06
 -11.886 -0.639E-06 -0.639E-06
 -11.876 -0.649E-06 -0.649E-06
 -11.866 -0.657E-06 -0.657E-06
 -11.856 -0.665E-06 -0.665E-06
 -11.846 -0.672E-06 -0.672E-06
 -11.836 -0.678E-06 -0.678E-06
 -11.826 -0.683E-06 -0.683E-06
 -11.816 -0.688E-06 -0.688E-06
 -11.806 -0.692E-06 -0.692E-06
 -11.796 -0.696E-06 -0.696E-06
 -11.786 -0.699E-06 -0.699E-06
 -11.776 -0.702E-06 -0.702E-06
 -11.766 -0.705E-06 -0.705E-06
 -11.756 -0.708E-06 -0.708E-06
 -11.746 -0.710E-06 -0.710E-06
 -11.736 -0.712E-06 -0.712E-06
 -11.726 -0.714E-06 -0.714E-06
 -11.716 -0.716E-06 -0.716E-06
 -11.706 -0.717E-06 -0.717E-06
 -11.696 -0.719E-06 -0.719E-06
 -11.686 -0.721E-06 -0.721E-06
 -11.676 -0.723E-06 -0.723E-06
 -11.666 -0.725E-06 -0.725E-06
 -11.656 -0.728E-06 -0.728E-06
 -11.646 -0.730E-06 -0.730E-06
 -11.636 -0.733E-06 -0.733E-06
 -11.626 -0.736E-06 -0.736E-06
 -11.616 -0.740E-06 -0.740E-06
 -11.606 -0.744E-06 -0.744E-06
 -11.596 -0.749E-06 -0.749E-06
 -11.586 -0.754E-06 -0.754E-06
 -11.576 -0.760E-06 -0.760E-06
 -11.566 -0.766E-06 -0.766E-06
 -11.556 -0.773E-06 -0.773E-06
 -11.546 -0.781E-06 -0.781E-06
 -11.536 -0.790E-06 -0.790E-06
 -11.526 -0.801E-06 -0.801E-06
 -11.516 -0.812E-06 -0.812E-06
 -11.506 -0.825E-06 -0.825E-06
 -11.496 -0.839E-06 -0.839E-06
 -11.486 -0.855E-06 -0.855E-06
 -11.476 -0.872E-06 -0.872E-06
 -11.466 -0.892E-06 -0.892E-06
 -11.456 -0.914E-06 -0.914E-06
 -11.446 -0.938E-06 -0.938E-06
 -11.436 -0.965E-06 -0.965E-06
 -11.426 -0.995E-06 -0.995E-06
 -11.416 -0.103E-05 -0.103E-05
 -11.406 -0.107E-05 -0.107E-05
 -11.396 -0.111E-05 -0.111E-05
 -11.386 -0.115E-05 -0.115E-05
 -11.376 -0.120E-05 -0.120E-05
 -11.366 -0.126E-05 -0.126E-05
 -11.356 -0.132E-05 -0.132E-05
 -11.346 -0.139E-05 -0.139E-05
 -11.336 -0.146E-05 -0.146E-05
 -11.326 -0.155E-05 -0.155E-05
 -11.316 -0.164E-05 -0.164E-05
 -11.306 -0.174E-05 -0.174E-05
 -11.296 -0.186E-05 -0.186E-05
 -11.286 -0.198E-05 -0.198E-05
 -11.276 -0.212E-05 -0.212E-05
 -11.266 -0.227E-05 -0.227E-05
 -11.256 -0.243E-05 -0.243E-05
 -11.246 -0.262E-05 -0.262E-05
 -11.236 -0.282E-05 -0.282E-05
 -11.226 -0.304E-05 -0.304E-05
 -11.216 -0.328E-05 -0.328E-05
 -11.206 -0.354E-05 -0.354E-05
 -11.196 -0.383E-05 -0.383E-05
 -11.186 -0.415E-05 -0.415E-05
 -11.176 -0.449E-05 -0.449E-05
 -11.166 -0.487E-05 -0.487E-05
 -11.156 -0.528E-05 -0.528E-05
 -11.146 -0.573E-05 -0.573E-05
 -11.136 -0.623E-05 -0.623E-05
 -11.126 -0.676E-05 -0.676E-05
 -11.116 -0.734E-05 -0.734E-05
 -11.106 -0.797E-05 -0.797E-05
 -11.096 -0.866E-05 -0.866E-05
 -11.086 -0.941E-05 -0.941E-05
 -11.076 -0.102E-04 -0.102E-04
 -11.066 -0.111E-04 -0.111E-04
 -11.056 -0.120E-04 -0.120E-04
 -11.046 -0.131E-04 -0.131E-04
 -11.036 -0.142E-04 -0.142E-04
 -11.026 -0.154E-04 -0.154E-04
 -11.016 -0.167E-04 -0.167E-04
 -11.006 -0.181E-04 -0.181E-04
 -10.996 -0.196E-04 -0.196E-04
 -10.986 -0.212E-04 -0.212E-04
 -10.976 -0.230E-04 -0.230E-04
 -10.966 -0.249E-04 -0.249E-04
 -10.956 -0.269E-04 -0.269E-04
 -10.946 -0.291E-04 -0.291E-04
 -10.936 -0.314E-04 -0.314E-04
 -10.926 -0.339E-04 -0.339E-04
 -10.916 -0.366E-04 -0.366E-04
 -10.906 -0.395E-04 -0.395E-04
 -10.896 -0.426E-04 -0.426E-04
 -10.886 -0.459E-04 -0.459E-04
 -10.876 -0.494E-04 -0.494E-04
 -10.866 -0.532E-04 -0.532E-04
 -10.856 -0.572E-04 -0.572E-04
 -10.846 -0.615E-04 -0.615E-04
 -10.836 -0.661E-04 -0.661E-04
 -10.826 -0.710E-04 -0.710E-04
 -10.816 -0.762E-04 -0.762E-04
 -10.806 -0.817E-04 -0.817E-04
 -10.796 -0.876E-04 -0.876E-04
 -10.786 -0.938E-04 -0.938E-04
 -10.776 -0.100E-03 -0.100E-03
 -10.766 -0.107E-03 -0.107E-03
 -10.756 -0.115E-03 -0.115E-03
 -10.746 -0.123E-03 -0.123E-03
 -10.736 -0.131E-03 -0.131E-03
 -10.726 -0.140E-03 -0.140E-03
 -10.716 -0.149E-03 -0.149E-03
 -10.706 -0.159E-03 -0.159E-03
 -10.696 -0.170E-03 -0.170E-03
 -10.686 -0.181E-03 -0.181E-03
 -10.676 -0.192E-03 -0.192E-03
 -10.666 -0.204E-03 -0.204E-03
 -10.656 -0.217E-03 -0.217E-03
 -10.646 -0.231E-03 -0.231E-03
 -10.636 -0.245E-03 -0.245E-03
 -10.626 -0.260E-03 -0.260E-03
 -10.616 -0.275E-03 -0.275E-03
 -10.606 -0.292E-03 -0.292E-03
 -10.596 -0.309E-03 -0.309E-03
 -10.586 -0.327E-03 -0.327E-03
 -10.576 -0.345E-03 -0.345E-03
 -10.566 -0.365E-03 -0.365E-03
 -10.556 -0.386E-03 -0.386E-03
 -10.546 -0.407E-03 -0.407E-03
 -10.536 -0.429E-03 -0.429E-03
 -10.526 -0.452E-03 -0.452E-03
 -10.516 -0.477E-03 -0.477E-03
 -10.506 -0.502E-03 -0.502E-03
 -10.496 -0.528E-03 -0.528E-03
 -10.486 -0.555E-03 -0.555E-03
 -10.476 -0.583E-03 -0.583E-03
 -10.466 -0.612E-03 -0.612E-03
 -10.456 -0.642E-03 -0.642E-03
 -10.446 -0.673E-03 -0.673E-03
 -10.436 -0.705E-03 -0.705E-03
 -10.426 -0.739E-03 -0.739E-03
 -10.416 -0.773E-03 -0.773E-03
 -10.406 -0.808E-03 -0.808E-03
 -10.396 -0.844E-03 -0.844E-03
 -10.386 -0.881E-03 -0.881E-03
 -10.376 -0.920E-03 -0.920E-03
 -10.366 -0.959E-03 -0.959E-03
 -10.356 -0.999E-03 -0.999E-03
 -10.346 -0.104E-02 -0.104E-02
 -10.336 -0.108E-02 -0.108E-02
 -10.326 -0.112E-02 -0.112E-02
 -10.316 -0.117E-02 -0.117E-02
 -10.306 -0.121E-02 -0.121E-02
 -10.296 -0.126E-02 -0.126E-02
 -10.286 -0.130E-02 -0.130E-02
 -10.276 -0.135E-02 -0.135E-02
 -10.266 -0.140E-02 -0.140E-02
 -10.256 -0.144E-02 -0.144E-02
 -10.246 -0.149E-02 -0.149E-02
 -10.236 -0.154E-02 -0.154E-02
 -10.226 -0.158E-02 -0.158E-02
 -10.216 -0.163E-02 -0.163E-02
 -10.206 -0.168E-02 -0.168E-02
 -10.196 -0.173E-02 -0.173E-02
 -10.186 -0.177E-02 -0.177E-02
 -10.176 -0.182E-02 -0.182E-02
 -10.166 -0.187E-02 -0.187E-02
 -10.156 -0.191E-02 -0.191E-02
 -10.146 -0.195E-02 -0.195E-02
 -10.136 -0.200E-02 -0.200E-02
 -10.126 -0.204E-02 -0.204E-02
 -10.116 -0.208E-02 -0.208E-02
 -10.106 -0.211E-02 -0.211E-02
 -10.096 -0.215E-02 -0.215E-02
 -10.086 -0.218E-02 -0.218E-02
 -10.076 -0.221E-02 -0.221E-02
 -10.066 -0.224E-02 -0.224E-02
 -10.056 -0.226E-02 -0.226E-02
 -10.046 -0.229E-02 -0.229E-02
 -10.036 -0.230E-02 -0.230E-02
 -10.026 -0.232E-02 -0.232E-02
 -10.016 -0.233E-02 -0.233E-02
 -10.006 -0.233E-02 -0.233E-02
  -9.996 -0.233E-02 -0.233E-02
  -9.986 -0.233E-02 -0.233E-02
  -9.976 -0.232E-02 -0.232E-02
  -9.966 -0.230E-02 -0.230E-02
  -9.956 -0.228E-02 -0.228E-02
  -9.946 -0.225E-02 -0.225E-02
  -9.936 -0.222E-02 -0.222E-02
  -9.926 -0.218E-02 -0.218E-02
  -9.916 -0.213E-02 -0.213E-02
  -9.906 -0.207E-02 -0.207E-02
  -9.896 -0.201E-02 -0.201E-02
  -9.886 -0.193E-02 -0.193E-02
  -9.876 -0.185E-02 -0.185E-02
  -9.866 -0.176E-02 -0.176E-02
  -9.856 -0.166E-02 -0.166E-02
  -9.846 -0.154E-02 -0.154E-02
  -9.836 -0.142E-02 -0.142E-02
  -9.826 -0.129E-02 -0.129E-02
  -9.816 -0.115E-02 -0.115E-02
  -9.806 -0.991E-03 -0.991E-03
  -9.796 -0.824E-03 -0.824E-03
  -9.786 -0.645E-03 -0.645E-03
  -9.776 -0.454E-03 -0.454E-03
  -9.766 -0.250E-03 -0.250E-03
  -9.756 -0.334E-04 -0.334E-04
  -9.746  0.197E-03  0.197E-03
  -9.736  0.440E-03  0.440E-03
  -9.726  0.698E-03  0.698E-03
  -9.716  0.969E-03  0.969E-03
  -9.706  0.126E-02  0.126E-02
  -9.696  0.156E-02  0.156E-02
  -9.686  0.187E-02  0.187E-02
  -9.676  0.220E-02  0.220E-02
  -9.666  0.254E-02  0.254E-02
  -9.656  0.290E-02  0.290E-02
  -9.646  0.328E-02  0.328E-02
  -9.636  0.367E-02  0.367E-02
  -9.626  0.407E-02  0.407E-02
  -9.616  0.449E-02  0.449E-02
  -9.606  0.493E-02  0.493E-02
  -9.596  0.538E-02  0.538E-02
  -9.586  0.585E-02  0.585E-02
  -9.576  0.633E-02  0.633E-02
  -9.566  0.682E-02  0.682E-02
  -9.556  0.733E-02  0.733E-02
  -9.546  0.786E-02  0.786E-02
  -9.536  0.840E-02  0.840E-02
  -9.526  0.895E-02  0.895E-02
  -9.516  0.952E-02  0.952E-02
  -9.506  0.101E-01  0.101E-01
  -9.496  0.107E-01  0.107E-01
  -9.486  0.113E-01  0.113E-01
  -9.476  0.119E-01  0.119E-01
  -9.466  0.126E-01  0.126E-01
  -9.456  0.132E-01  0.132E-01
  -9.446  0.138E-01  0.138E-01
  -9.436  0.145E-01  0.145E-01
  -9.426  0.152E-01  0.152E-01
  -9.416  0.159E-01  0.159E-01
  -9.406  0.166E-01  0.166E-01
  -9.396  0.173E-01  0.173E-01
  -9.386  0.180E-01  0.180E-01
  -9.376  0.187E-01  0.187E-01
  -9.366  0.194E-01  0.194E-01
  -9.356  0.201E-01  0.201E-01
  -9.346  0.208E-01  0.208E-01
  -9.336  0.216E-01  0.216E-01
  -9.326  0.223E-01  0.223E-01
  -9.316  0.230E-01  0.230E-01
  -9.306  0.238E-01  0.238E-01
  -9.296  0.245E-01  0.245E-01
  -9.286  0.252E-01  0.252E-01
  -9.276  0.260E-01  0.260E-01
  -9.266  0.267E-01  0.267E-01
  -9.256  0.274E-01  0.274E-01
  -9.246  0.281E-01  0.281E-01
  -9.236  0.288E-01  0.288E-01
  -9.226  0.295E-01  0.295E-01
  -9.216  0.302E-01  0.302E-01
  -9.206  0.309E-01  0.309E-01
  -9.196  0.316E-01  0.316E-01
  -9.186  0.323E-01  0.323E-01
  -9.176  0.329E-01  0.329E-01
  -9.166  0.336E-01  0.336E-01
  -9.156  0.342E-01  0.342E-01
  -9.146  0.348E-01  0.348E-01
  -9.136  0.354E-01  0.354E-01
  -9.126  0.360E-01  0.360E-01
  -9.116  0.366E-01  0.366E-01
  -9.106  0.371E-01  0.371E-01
  -9.096  0.376E-01  0.376E-01
  -9.086  0.382E-01  0.382E-01
  -9.076  0.387E-01  0.387E-01
  -9.066  0.391E-01  0.391E-01
  -9.056  0.396E-01  0.396E-01
  -9.046  0.400E-01  0.400E-01
  -9.036  0.404E-01  0.404E-01
  -9.026  0.408E-01  0.408E-01
  -9.016  0.412E-01  0.412E-01
  -9.006  0.415E-01  0.415E-01
  -8.996  0.418E-01  0.418E-01
  -8.986  0.421E-01  0.421E-01
  -8.976  0.424E-01  0.424E-01
  -8.966  0.426E-01  0.426E-01
  -8.956  0.428E-01  0.428E-01
  -8.946  0.430E-01  0.430E-01
  -8.936  0.432E-01  0.432E-01
  -8.926  0.433E-01  0.433E-01
  -8.916  0.434E-01  0.434E-01
  -8.906  0.435E-01  0.435E-01
  -8.896  0.436E-01  0.436E-01
  -8.886  0.436E-01  0.436E-01
  -8.876  0.436E-01  0.436E-01
  -8.866  0.436E-01  0.436E-01
  -8.856  0.436E-01  0.436E-01
  -8.846  0.435E-01  0.435E-01
  -8.836  0.434E-01  0.434E-01
  -8.826  0.433E-01  0.433E-01
  -8.816  0.432E-01  0.432E-01
  -8.806  0.430E-01  0.430E-01
  -8.796  0.429E-01  0.429E-01
  -8.786  0.426E-01  0.426E-01
  -8.776  0.424E-01  0.424E-01
  -8.766  0.422E-01  0.422E-01
  -8.756  0.419E-01  0.419E-01
  -8.746  0.416E-01  0.416E-01
  -8.736  0.413E-01  0.413E-01
  -8.726  0.410E-01  0.410E-01
  -8.716  0.406E-01  0.406E-01
  -8.706  0.402E-01  0.402E-01
  -8.696  0.399E-01  0.399E-01
  -8.686  0.395E-01  0.395E-01
  -8.676  0.391E-01  0.391E-01
  -8.666  0.386E-01  0.386E-01
  -8.656  0.382E-01  0.382E-01
  -8.646  0.377E-01  0.377E-01
  -8.636  0.373E-01  0.373E-01
  -8.626  0.368E-01  0.368E-01
  -8.616  0.363E-01  0.363E-01
  -8.606  0.358E-01  0.358E-01
  -8.596  0.353E-01  0.353E-01
  -8.586  0.348E-01  0.348E-01
  -8.576  0.342E-01  0.342E-01
  -8.566  0.337E-01  0.337E-01
  -8.556  0.332E-01  0.332E-01
  -8.546  0.326E-01  0.326E-01
  -8.536  0.321E-01  0.321E-01
  -8.526  0.315E-01  0.315E-01
  -8.516  0.310E-01  0.310E-01
  -8.506  0.304E-01  0.304E-01
  -8.496  0.299E-01  0.299E-01
  -8.486  0.293E-01  0.293E-01
  -8.476  0.288E-01  0.288E-01
  -8.466  0.282E-01  0.282E-01
  -8.456  0.277E-01  0.277E-01
  -8.446  0.271E-01  0.271E-01
  -8.436  0.266E-01  0.266E-01
  -8.426  0.261E-01  0.261E-01
  -8.416  0.255E-01  0.255E-01
  -8.406  0.250E-01  0.250E-01
  -8.396  0.245E-01  0.245E-01
  -8.386  0.240E-01  0.240E-01
  -8.376  0.235E-01  0.235E-01
  -8.366  0.230E-01  0.230E-01
  -8.356  0.225E-01  0.225E-01
  -8.346  0.221E-01  0.221E-01
  -8.336  0.216E-01  0.216E-01
  -8.326  0.212E-01  0.212E-01
  -8.316  0.207E-01  0.207E-01
  -8.306  0.203E-01  0.203E-01
  -8.296  0.199E-01  0.199E-01
  -8.286  0.195E-01  0.195E-01
  -8.276  0.191E-01  0.191E-01
  -8.266  0.188E-01  0.188E-01
  -8.256  0.184E-01  0.184E-01
  -8.246  0.181E-01  0.181E-01
  -8.236  0.178E-01  0.178E-01
  -8.226  0.175E-01  0.175E-01
  -8.216  0.172E-01  0.172E-01
  -8.206  0.170E-01  0.170E-01
  -8.196  0.167E-01  0.167E-01
  -8.186  0.165E-01  0.165E-01
  -8.176  0.163E-01  0.163E-01
  -8.166  0.161E-01  0.161E-01
  -8.156  0.160E-01  0.160E-01
  -8.146  0.158E-01  0.158E-01
  -8.136  0.157E-01  0.157E-01
  -8.126  0.156E-01  0.156E-01
  -8.116  0.155E-01  0.155E-01
  -8.106  0.155E-01  0.155E-01
  -8.096  0.154E-01  0.154E-01
  -8.086  0.154E-01  0.154E-01
  -8.076  0.154E-01  0.154E-01
  -8.066  0.155E-01  0.155E-01
  -8.056  0.155E-01  0.155E-01
  -8.046  0.156E-01  0.156E-01
  -8.036  0.157E-01  0.157E-01
  -8.026  0.158E-01  0.158E-01
  -8.016  0.159E-01  0.159E-01
  -8.006  0.161E-01  0.161E-01
  -7.996  0.162E-01  0.162E-01
  -7.986  0.164E-01  0.164E-01
  -7.976  0.167E-01  0.167E-01
  -7.966  0.169E-01  0.169E-01
  -7.956  0.172E-01  0.172E-01
  -7.946  0.174E-01  0.174E-01
  -7.936  0.177E-01  0.177E-01
  -7.926  0.180E-01  0.180E-01
  -7.916  0.184E-01  0.184E-01
  -7.906  0.187E-01  0.187E-01
  -7.896  0.191E-01  0.191E-01
  -7.886  0.195E-01  0.195E-01
  -7.876  0.199E-01  0.199E-01
  -7.866  0.203E-01  0.203E-01
  -7.856  0.207E-01  0.207E-01
  -7.846  0.212E-01  0.212E-01
  -7.836  0.217E-01  0.217E-01
  -7.826  0.221E-01  0.221E-01
  -7.816  0.226E-01  0.226E-01
  -7.806  0.231E-01  0.231E-01
  -7.796  0.236E-01  0.236E-01
  -7.786  0.242E-01  0.242E-01
  -7.776  0.247E-01  0.247E-01
  -7.766  0.252E-01  0.252E-01
  -7.756  0.258E-01  0.258E-01
  -7.746  0.263E-01  0.263E-01
  -7.736  0.269E-01  0.269E-01
  -7.726  0.275E-01  0.275E-01
  -7.716  0.280E-01  0.280E-01
  -7.706  0.286E-01  0.286E-01
  -7.696  0.292E-01  0.292E-01
  -7.686  0.298E-01  0.298E-01
  -7.676  0.303E-01  0.303E-01
  -7.666  0.309E-01  0.309E-01
  -7.656  0.315E-01  0.315E-01
  -7.646  0.320E-01  0.320E-01
  -7.636  0.326E-01  0.326E-01
  -7.626  0.331E-01  0.331E-01
  -7.616  0.337E-01  0.337E-01
  -7.606  0.342E-01  0.342E-01
  -7.596  0.348E-01  0.348E-01
  -7.586  0.353E-01  0.353E-01
  -7.576  0.358E-01  0.358E-01
  -7.566  0.363E-01  0.363E-01
  -7.556  0.367E-01  0.367E-01
  -7.546  0.372E-01  0.372E-01
  -7.536  0.377E-01  0.377E-01
  -7.526  0.381E-01  0.381E-01
  -7.516  0.385E-01  0.385E-01
  -7.506  0.389E-01  0.389E-01
  -7.496  0.393E-01  0.393E-01
  -7.486  0.396E-01  0.396E-01
  -7.476  0.400E-01  0.400E-01
  -7.466  0.403E-01  0.403E-01
  -7.456  0.406E-01  0.406E-01
  -7.446  0.408E-01  0.408E-01
  -7.436  0.411E-01  0.411E-01
  -7.426  0.413E-01  0.413E-01
  -7.416  0.415E-01  0.415E-01
  -7.406  0.416E-01  0.416E-01
  -7.396  0.418E-01  0.418E-01
  -7.386  0.419E-01  0.419E-01
  -7.376  0.419E-01  0.419E-01
  -7.366  0.420E-01  0.420E-01
  -7.356  0.420E-01  0.420E-01
  -7.346  0.420E-01  0.420E-01
  -7.336  0.420E-01  0.420E-01
  -7.326  0.419E-01  0.419E-01
  -7.316  0.418E-01  0.418E-01
  -7.306  0.417E-01  0.417E-01
  -7.296  0.416E-01  0.416E-01
  -7.286  0.414E-01  0.414E-01
  -7.276  0.412E-01  0.412E-01
  -7.266  0.410E-01  0.410E-01
  -7.256  0.407E-01  0.407E-01
  -7.246  0.404E-01  0.404E-01
  -7.236  0.401E-01  0.401E-01
  -7.226  0.398E-01  0.398E-01
  -7.216  0.394E-01  0.394E-01
  -7.206  0.390E-01  0.390E-01
  -7.196  0.386E-01  0.386E-01
  -7.186  0.382E-01  0.382E-01
  -7.176  0.377E-01  0.377E-01
  -7.166  0.372E-01  0.372E-01
  -7.156  0.367E-01  0.367E-01
  -7.146  0.361E-01  0.361E-01
  -7.136  0.356E-01  0.356E-01
  -7.126  0.350E-01  0.350E-01
  -7.116  0.344E-01  0.344E-01
  -7.106  0.338E-01  0.338E-01
  -7.096  0.332E-01  0.332E-01
  -7.086  0.325E-01  0.325E-01
  -7.076  0.319E-01  0.319E-01
  -7.066  0.312E-01  0.312E-01
  -7.056  0.305E-01  0.305E-01
  -7.046  0.298E-01  0.298E-01
  -7.036  0.291E-01  0.291E-01
  -7.026  0.283E-01  0.283E-01
  -7.016  0.276E-01  0.276E-01
  -7.006  0.269E-01  0.269E-01
  -6.996  0.261E-01  0.261E-01
  -6.986  0.254E-01  0.254E-01
  -6.976  0.246E-01  0.246E-01
  -6.966  0.238E-01  0.238E-01
  -6.956  0.231E-01  0.231E-01
  -6.946  0.223E-01  0.223E-01
  -6.936  0.215E-01  0.215E-01
  -6.926  0.208E-01  0.208E-01
  -6.916  0.200E-01  0.200E-01
  -6.906  0.192E-01  0.192E-01
  -6.896  0.185E-01  0.185E-01
  -6.886  0.177E-01  0.177E-01
  -6.876  0.170E-01  0.170E-01
  -6.866  0.162E-01  0.162E-01
  -6.856  0.155E-01  0.155E-01
  -6.846  0.148E-01  0.148E-01
  -6.836  0.141E-01  0.141E-01
  -6.826  0.134E-01  0.134E-01
  -6.816  0.127E-01  0.127E-01
  -6.806  0.120E-01  0.120E-01
  -6.796  0.113E-01  0.113E-01
  -6.786  0.107E-01  0.107E-01
  -6.776  0.101E-01  0.101E-01
  -6.766  0.944E-02  0.944E-02
  -6.756  0.884E-02  0.884E-02
  -6.746  0.826E-02  0.826E-02
  -6.736  0.770E-02  0.770E-02
  -6.726  0.716E-02  0.716E-02
  -6.716  0.664E-02  0.664E-02
  -6.706  0.614E-02  0.614E-02
  -6.696  0.566E-02  0.566E-02
  -6.686  0.521E-02  0.521E-02
  -6.676  0.477E-02  0.477E-02
  -6.666  0.436E-02  0.436E-02
  -6.656  0.397E-02  0.397E-02
  -6.646  0.361E-02  0.361E-02
  -6.636  0.327E-02  0.327E-02
  -6.626  0.296E-02  0.296E-02
  -6.616  0.267E-02  0.267E-02
  -6.606  0.241E-02  0.241E-02
  -6.596  0.218E-02  0.218E-02
  -6.586  0.197E-02  0.197E-02
  -6.576  0.178E-02  0.178E-02
  -6.566  0.163E-02  0.163E-02
  -6.556  0.150E-02  0.150E-02
  -6.546  0.140E-02  0.140E-02
  -6.536  0.132E-02  0.132E-02
  -6.526  0.128E-02  0.128E-02
  -6.516  0.126E-02  0.126E-02
  -6.506  0.126E-02  0.126E-02
  -6.496  0.130E-02  0.130E-02
  -6.486  0.136E-02  0.136E-02
  -6.476  0.145E-02  0.145E-02
  -6.466  0.157E-02  0.157E-02
  -6.456  0.171E-02  0.171E-02
  -6.446  0.188E-02  0.188E-02
  -6.436  0.208E-02  0.208E-02
  -6.426  0.230E-02  0.230E-02
  -6.416  0.255E-02  0.255E-02
  -6.406  0.283E-02  0.283E-02
  -6.396  0.313E-02  0.313E-02
  -6.386  0.346E-02  0.346E-02
  -6.376  0.381E-02  0.381E-02
  -6.366  0.418E-02  0.418E-02
  -6.356  0.458E-02  0.458E-02
  -6.346  0.500E-02  0.500E-02
  -6.336  0.545E-02  0.545E-02
  -6.326  0.591E-02  0.591E-02
  -6.316  0.640E-02  0.640E-02
  -6.306  0.691E-02  0.691E-02
  -6.296  0.744E-02  0.744E-02
  -6.286  0.799E-02  0.799E-02
  -6.276  0.856E-02  0.856E-02
  -6.266  0.915E-02  0.915E-02
  -6.256  0.975E-02  0.975E-02
  -6.246  0.104E-01  0.104E-01
  -6.236  0.110E-01  0.110E-01
  -6.226  0.117E-01  0.117E-01
  -6.216  0.123E-01  0.123E-01
  -6.206  0.130E-01  0.130E-01
  -6.196  0.137E-01  0.137E-01
  -6.186  0.144E-01  0.144E-01
  -6.176  0.151E-01  0.151E-01
  -6.166  0.158E-01  0.158E-01
  -6.156  0.166E-01  0.166E-01
  -6.146  0.173E-01  0.173E-01
  -6.136  0.180E-01  0.180E-01
  -6.126  0.188E-01  0.188E-01
  -6.116  0.195E-01  0.195E-01
  -6.106  0.203E-01  0.203E-01
  -6.096  0.210E-01  0.210E-01
  -6.086  0.218E-01  0.218E-01
  -6.076  0.226E-01  0.226E-01
  -6.066  0.233E-01  0.233E-01
  -6.056  0.241E-01  0.241E-01
  -6.046  0.248E-01  0.248E-01
  -6.036  0.256E-01  0.256E-01
  -6.026  0.263E-01  0.263E-01
  -6.016  0.270E-01  0.270E-01
  -6.006  0.278E-01  0.278E-01
  -5.996  0.285E-01  0.285E-01
  -5.986  0.292E-01  0.292E-01
  -5.976  0.299E-01  0.299E-01
  -5.966  0.306E-01  0.306E-01
  -5.956  0.312E-01  0.312E-01
  -5.946  0.319E-01  0.319E-01
  -5.936  0.325E-01  0.325E-01
  -5.926  0.331E-01  0.331E-01
  -5.916  0.337E-01  0.337E-01
  -5.906  0.343E-01  0.343E-01
  -5.896  0.349E-01  0.349E-01
  -5.886  0.355E-01  0.355E-01
  -5.876  0.360E-01  0.360E-01
  -5.866  0.365E-01  0.365E-01
  -5.856  0.370E-01  0.370E-01
  -5.846  0.375E-01  0.375E-01
  -5.836  0.379E-01  0.379E-01
  -5.826  0.383E-01  0.383E-01
  -5.816  0.387E-01  0.387E-01
  -5.806  0.391E-01  0.391E-01
  -5.796  0.395E-01  0.395E-01
  -5.786  0.398E-01  0.398E-01
  -5.776  0.401E-01  0.401E-01
  -5.766  0.404E-01  0.404E-01
  -5.756  0.406E-01  0.406E-01
  -5.746  0.409E-01  0.409E-01
  -5.736  0.411E-01  0.411E-01
  -5.726  0.413E-01  0.413E-01
  -5.716  0.414E-01  0.414E-01
  -5.706  0.416E-01  0.416E-01
  -5.696  0.417E-01  0.417E-01
  -5.686  0.418E-01  0.418E-01
  -5.676  0.418E-01  0.418E-01
  -5.666  0.419E-01  0.419E-01
  -5.656  0.419E-01  0.419E-01
  -5.646  0.419E-01  0.419E-01
  -5.636  0.419E-01  0.419E-01
  -5.626  0.418E-01  0.418E-01
  -5.616  0.418E-01  0.418E-01
  -5.606  0.417E-01  0.417E-01
  -5.596  0.416E-01  0.416E-01
  -5.586  0.415E-01  0.415E-01
  -5.576  0.414E-01  0.414E-01
  -5.566  0.412E-01  0.412E-01
  -5.556  0.411E-01  0.411E-01
  -5.546  0.409E-01  0.409E-01
  -5.536  0.407E-01  0.407E-01
  -5.526  0.405E-01  0.405E-01
  -5.516  0.403E-01  0.403E-01
  -5.506  0.401E-01  0.401E-01
  -5.496  0.399E-01  0.399E-01
  -5.486  0.397E-01  0.397E-01
  -5.476  0.395E-01  0.395E-01
  -5.466  0.393E-01  0.393E-01
  -5.456  0.390E-01  0.390E-01
  -5.446  0.388E-01  0.388E-01
  -5.436  0.386E-01  0.386E-01
  -5.426  0.384E-01  0.384E-01
  -5.416  0.382E-01  0.382E-01
  -5.406  0.380E-01  0.380E-01
  -5.396  0.378E-01  0.378E-01
  -5.386  0.376E-01  0.376E-01
  -5.376  0.374E-01  0.374E-01
  -5.366  0.373E-01  0.373E-01
  -5.356  0.371E-01  0.371E-01
  -5.346  0.370E-01  0.370E-01
  -5.336  0.369E-01  0.369E-01
  -5.326  0.368E-01  0.368E-01
  -5.316  0.367E-01  0.367E-01
  -5.306  0.367E-01  0.367E-01
  -5.296  0.367E-01  0.367E-01
  -5.286  0.367E-01  0.367E-01
  -5.276  0.367E-01  0.367E-01
  -5.266  0.367E-01  0.367E-01
  -5.256  0.368E-01  0.368E-01
  -5.246  0.369E-01  0.369E-01
  -5.236  0.370E-01  0.370E-01
  -5.226  0.372E-01  0.372E-01
  -5.216  0.374E-01  0.374E-01
  -5.206  0.376E-01  0.376E-01
  -5.196  0.378E-01  0.378E-01
  -5.186  0.381E-01  0.381E-01
  -5.176  0.384E-01  0.384E-01
  -5.166  0.388E-01  0.388E-01
  -5.156  0.392E-01  0.392E-01
  -5.146  0.396E-01  0.396E-01
  -5.136  0.401E-01  0.401E-01
  -5.126  0.406E-01  0.406E-01
  -5.116  0.411E-01  0.411E-01
  -5.106  0.417E-01  0.417E-01
  -5.096  0.423E-01  0.423E-01
  -5.086  0.429E-01  0.429E-01
  -5.076  0.436E-01  0.436E-01
  -5.066  0.443E-01  0.443E-01
  -5.056  0.450E-01  0.450E-01
  -5.046  0.458E-01  0.458E-01
  -5.036  0.466E-01  0.466E-01
  -5.026  0.475E-01  0.475E-01
  -5.016  0.484E-01  0.484E-01
  -5.006  0.493E-01  0.493E-01
  -4.996  0.503E-01  0.503E-01
  -4.986  0.513E-01  0.513E-01
  -4.976  0.523E-01  0.523E-01
  -4.966  0.533E-01  0.533E-01
  -4.956  0.544E-01  0.544E-01
  -4.946  0.555E-01  0.555E-01
  -4.936  0.567E-01  0.567E-01
  -4.926  0.578E-01  0.578E-01
  -4.916  0.590E-01  0.590E-01
  -4.906  0.602E-01  0.602E-01
  -4.896  0.615E-01  0.615E-01
  -4.886  0.627E-01  0.627E-01
  -4.876  0.640E-01  0.640E-01
  -4.866  0.653E-01  0.653E-01
  -4.856  0.666E-01  0.666E-01
  -4.846  0.680E-01  0.680E-01
  -4.836  0.693E-01  0.693E-01
  -4.826  0.707E-01  0.707E-01
  -4.816  0.720E-01  0.720E-01
  -4.806  0.734E-01  0.734E-01
  -4.796  0.748E-01  0.748E-01
  -4.786  0.762E-01  0.762E-01
  -4.776  0.776E-01  0.776E-01
  -4.766  0.790E-01  0.790E-01
  -4.756  0.803E-01  0.803E-01
  -4.746  0.817E-01  0.817E-01
  -4.736  0.831E-01  0.831E-01
  -4.726  0.845E-01  0.845E-01
  -4.716  0.859E-01  0.859E-01
  -4.706  0.872E-01  0.872E-01
  -4.696  0.886E-01  0.886E-01
  -4.686  0.899E-01  0.899E-01
  -4.676  0.913E-01  0.913E-01
  -4.666  0.926E-01  0.926E-01
  -4.656  0.939E-01  0.939E-01
  -4.646  0.951E-01  0.951E-01
  -4.636  0.964E-01  0.964E-01
  -4.626  0.976E-01  0.976E-01
  -4.616  0.988E-01  0.988E-01
  -4.606  0.999E-01  0.999E-01
  -4.596  0.101E+00  0.101E+00
  -4.586  0.102E+00  0.102E+00
  -4.576  0.103E+00  0.103E+00
  -4.566  0.104E+00  0.104E+00
  -4.556  0.105E+00  0.105E+00
  -4.546  0.106E+00  0.106E+00
  -4.536  0.107E+00  0.107E+00
  -4.526  0.108E+00  0.108E+00
  -4.516  0.109E+00  0.109E+00
  -4.506  0.110E+00  0.110E+00
  -4.496  0.111E+00  0.111E+00
  -4.486  0.111E+00  0.111E+00
  -4.476  0.112E+00  0.112E+00
  -4.466  0.113E+00  0.113E+00
  -4.456  0.113E+00  0.113E+00
  -4.446  0.114E+00  0.114E+00
  -4.436  0.114E+00  0.114E+00
  -4.426  0.115E+00  0.115E+00
  -4.416  0.115E+00  0.115E+00
  -4.406  0.115E+00  0.115E+00
  -4.396  0.116E+00  0.116E+00
  -4.386  0.116E+00  0.116E+00
  -4.376  0.116E+00  0.116E+00
  -4.366  0.116E+00  0.116E+00
  -4.356  0.116E+00  0.116E+00
  -4.346  0.116E+00  0.116E+00
  -4.336  0.116E+00  0.116E+00
  -4.326  0.116E+00  0.116E+00
  -4.316  0.116E+00  0.116E+00
  -4.306  0.116E+00  0.116E+00
  -4.296  0.116E+00  0.116E+00
  -4.286  0.115E+00  0.115E+00
  -4.276  0.115E+00  0.115E+00
  -4.266  0.115E+00  0.115E+00
  -4.256  0.114E+00  0.114E+00
  -4.246  0.114E+00  0.114E+00
  -4.236  0.113E+00  0.113E+00
  -4.226  0.113E+00  0.113E+00
  -4.216  0.112E+00  0.112E+00
  -4.206  0.111E+00  0.111E+00
  -4.196  0.111E+00  0.111E+00
  -4.186  0.110E+00  0.110E+00
  -4.176  0.109E+00  0.109E+00
  -4.166  0.108E+00  0.108E+00
  -4.156  0.108E+00  0.108E+00
  -4.146  0.107E+00  0.107E+00
  -4.136  0.106E+00  0.106E+00
  -4.126  0.105E+00  0.105E+00
  -4.116  0.104E+00  0.104E+00
  -4.106  0.103E+00  0.103E+00
  -4.096  0.102E+00  0.102E+00
  -4.086  0.101E+00  0.101E+00
  -4.076  0.994E-01  0.994E-01
  -4.066  0.983E-01  0.983E-01
  -4.056  0.971E-01  0.971E-01
  -4.046  0.959E-01  0.959E-01
  -4.036  0.947E-01  0.947E-01
  -4.026  0.934E-01  0.934E-01
  -4.016  0.922E-01  0.922E-01
  -4.006  0.909E-01  0.909E-01
  -3.996  0.896E-01  0.896E-01
  -3.986  0.883E-01  0.883E-01
  -3.976  0.870E-01  0.870E-01
  -3.966  0.856E-01  0.856E-01
  -3.956  0.843E-01  0.843E-01
  -3.946  0.829E-01  0.829E-01
  -3.936  0.816E-01  0.816E-01
  -3.926  0.802E-01  0.802E-01
  -3.916  0.789E-01  0.789E-01
  -3.906  0.775E-01  0.775E-01
  -3.896  0.761E-01  0.761E-01
  -3.886  0.748E-01  0.748E-01
  -3.876  0.734E-01  0.734E-01
  -3.866  0.721E-01  0.721E-01
  -3.856  0.707E-01  0.707E-01
  -3.846  0.694E-01  0.694E-01
  -3.836  0.680E-01  0.680E-01
  -3.826  0.667E-01  0.667E-01
  -3.816  0.654E-01  0.654E-01
  -3.806  0.641E-01  0.641E-01
  -3.796  0.628E-01  0.628E-01
  -3.786  0.616E-01  0.616E-01
  -3.776  0.603E-01  0.603E-01
  -3.766  0.591E-01  0.591E-01
  -3.756  0.579E-01  0.579E-01
  -3.746  0.567E-01  0.567E-01
  -3.736  0.555E-01  0.555E-01
  -3.726  0.544E-01  0.544E-01
  -3.716  0.533E-01  0.533E-01
  -3.706  0.522E-01  0.522E-01
  -3.696  0.511E-01  0.511E-01
  -3.686  0.501E-01  0.501E-01
  -3.676  0.491E-01  0.491E-01
  -3.666  0.481E-01  0.481E-01
  -3.656  0.471E-01  0.471E-01
  -3.646  0.462E-01  0.462E-01
  -3.636  0.453E-01  0.453E-01
  -3.626  0.445E-01  0.445E-01
  -3.616  0.437E-01  0.437E-01
  -3.606  0.429E-01  0.429E-01
  -3.596  0.421E-01  0.421E-01
  -3.586  0.414E-01  0.414E-01
  -3.576  0.407E-01  0.407E-01
  -3.566  0.401E-01  0.401E-01
  -3.556  0.395E-01  0.395E-01
  -3.546  0.389E-01  0.389E-01
  -3.536  0.384E-01  0.384E-01
  -3.526  0.379E-01  0.379E-01
  -3.516  0.374E-01  0.374E-01
  -3.506  0.370E-01  0.370E-01
  -3.496  0.367E-01  0.367E-01
  -3.486  0.363E-01  0.363E-01
  -3.476  0.361E-01  0.361E-01
  -3.466  0.358E-01  0.358E-01
  -3.456  0.356E-01  0.356E-01
  -3.446  0.355E-01  0.355E-01
  -3.436  0.354E-01  0.354E-01
  -3.426  0.353E-01  0.353E-01
  -3.416  0.353E-01  0.353E-01
  -3.406  0.353E-01  0.353E-01
  -3.396  0.353E-01  0.353E-01
  -3.386  0.354E-01  0.354E-01
  -3.376  0.356E-01  0.356E-01
  -3.366  0.358E-01  0.358E-01
  -3.356  0.360E-01  0.360E-01
  -3.346  0.363E-01  0.363E-01
  -3.336  0.366E-01  0.366E-01
  -3.326  0.369E-01  0.369E-01
  -3.316  0.373E-01  0.373E-01
  -3.306  0.378E-01  0.378E-01
  -3.296  0.382E-01  0.382E-01
  -3.286  0.388E-01  0.388E-01
  -3.276  0.393E-01  0.393E-01
  -3.266  0.399E-01  0.399E-01
  -3.256  0.406E-01  0.406E-01
  -3.246  0.412E-01  0.412E-01
  -3.236  0.419E-01  0.419E-01
  -3.226  0.427E-01  0.427E-01
  -3.216  0.435E-01  0.435E-01
  -3.206  0.443E-01  0.443E-01
  -3.196  0.451E-01  0.451E-01
  -3.186  0.460E-01  0.460E-01
  -3.176  0.469E-01  0.469E-01
  -3.166  0.478E-01  0.478E-01
  -3.156  0.488E-01  0.488E-01
  -3.146  0.498E-01  0.498E-01
  -3.136  0.508E-01  0.508E-01
  -3.126  0.519E-01  0.519E-01
  -3.116  0.529E-01  0.529E-01
  -3.106  0.540E-01  0.540E-01
  -3.096  0.551E-01  0.551E-01
  -3.086  0.562E-01  0.562E-01
  -3.076  0.574E-01  0.574E-01
  -3.066  0.585E-01  0.585E-01
  -3.056  0.597E-01  0.597E-01
  -3.046  0.609E-01  0.609E-01
  -3.036  0.621E-01  0.621E-01
  -3.026  0.633E-01  0.633E-01
  -3.016  0.645E-01  0.645E-01
  -3.006  0.657E-01  0.657E-01
  -2.996  0.670E-01  0.670E-01
  -2.986  0.682E-01  0.682E-01
  -2.976  0.694E-01  0.694E-01
  -2.966  0.706E-01  0.706E-01
  -2.956  0.719E-01  0.719E-01
  -2.946  0.731E-01  0.731E-01
  -2.936  0.743E-01  0.743E-01
  -2.926  0.755E-01  0.755E-01
  -2.916  0.767E-01  0.767E-01
  -2.906  0.779E-01  0.779E-01
  -2.896  0.791E-01  0.791E-01
  -2.886  0.802E-01  0.802E-01
  -2.876  0.813E-01  0.813E-01
  -2.866  0.825E-01  0.825E-01
  -2.856  0.836E-01  0.836E-01
  -2.846  0.847E-01  0.847E-01
  -2.836  0.857E-01  0.857E-01
  -2.826  0.868E-01  0.868E-01
  -2.816  0.878E-01  0.878E-01
  -2.806  0.888E-01  0.888E-01
  -2.796  0.897E-01  0.897E-01
  -2.786  0.907E-01  0.907E-01
  -2.776  0.916E-01  0.916E-01
  -2.766  0.924E-01  0.924E-01
  -2.756  0.933E-01  0.933E-01
  -2.746  0.941E-01  0.941E-01
  -2.736  0.949E-01  0.949E-01
  -2.726  0.956E-01  0.956E-01
  -2.716  0.963E-01  0.963E-01
  -2.706  0.970E-01  0.970E-01
  -2.696  0.976E-01  0.976E-01
  -2.686  0.982E-01  0.982E-01
  -2.676  0.988E-01  0.988E-01
  -2.666  0.993E-01  0.993E-01
  -2.656  0.998E-01  0.998E-01
  -2.646  0.100E+00  0.100E+00
  -2.636  0.101E+00  0.101E+00
  -2.626  0.101E+00  0.101E+00
  -2.616  0.101E+00  0.101E+00
  -2.606  0.102E+00  0.102E+00
  -2.596  0.102E+00  0.102E+00
  -2.586  0.102E+00  0.102E+00
  -2.576  0.102E+00  0.102E+00
  -2.566  0.102E+00  0.102E+00
  -2.556  0.103E+00  0.103E+00
  -2.546  0.103E+00  0.103E+00
  -2.536  0.103E+00  0.103E+00
  -2.526  0.103E+00  0.103E+00
  -2.516  0.103E+00  0.103E+00
  -2.506  0.102E+00  0.102E+00
  -2.496  0.102E+00  0.102E+00
  -2.486  0.102E+00  0.102E+00
  -2.476  0.102E+00  0.102E+00
  -2.466  0.102E+00  0.102E+00
  -2.456  0.102E+00  0.102E+00
  -2.446  0.101E+00  0.101E+00
  -2.436  0.101E+00  0.101E+00
  -2.426  0.101E+00  0.101E+00
  -2.416  0.100E+00  0.100E+00
  -2.406  0.998E-01  0.998E-01
  -2.396  0.993E-01  0.993E-01
  -2.386  0.989E-01  0.989E-01
  -2.376  0.984E-01  0.984E-01
  -2.366  0.979E-01  0.979E-01
  -2.356  0.973E-01  0.973E-01
  -2.346  0.967E-01  0.967E-01
  -2.336  0.961E-01  0.961E-01
  -2.326  0.955E-01  0.955E-01
  -2.316  0.949E-01  0.949E-01
  -2.306  0.942E-01  0.942E-01
  -2.296  0.935E-01  0.935E-01
  -2.286  0.928E-01  0.928E-01
  -2.276  0.921E-01  0.921E-01
  -2.266  0.914E-01  0.914E-01
  -2.256  0.906E-01  0.906E-01
  -2.246  0.899E-01  0.899E-01
  -2.236  0.891E-01  0.891E-01
  -2.226  0.883E-01  0.883E-01
  -2.216  0.875E-01  0.875E-01
  -2.206  0.867E-01  0.867E-01
  -2.196  0.858E-01  0.858E-01
  -2.186  0.850E-01  0.850E-01
  -2.176  0.841E-01  0.841E-01
  -2.166  0.833E-01  0.833E-01
  -2.156  0.824E-01  0.824E-01
  -2.146  0.815E-01  0.815E-01
  -2.136  0.806E-01  0.806E-01
  -2.126  0.797E-01  0.797E-01
  -2.116  0.788E-01  0.788E-01
  -2.106  0.779E-01  0.779E-01
  -2.096  0.770E-01  0.770E-01
  -2.086  0.760E-01  0.760E-01
  -2.076  0.751E-01  0.751E-01
  -2.066  0.742E-01  0.742E-01
  -2.056  0.733E-01  0.733E-01
  -2.046  0.723E-01  0.723E-01
  -2.036  0.714E-01  0.714E-01
  -2.026  0.704E-01  0.704E-01
  -2.016  0.695E-01  0.695E-01
  -2.006  0.686E-01  0.686E-01
  -1.996  0.676E-01  0.676E-01
  -1.986  0.667E-01  0.667E-01
  -1.976  0.658E-01  0.658E-01
  -1.966  0.648E-01  0.648E-01
  -1.956  0.639E-01  0.639E-01
  -1.946  0.630E-01  0.630E-01
  -1.936  0.621E-01  0.621E-01
  -1.926  0.612E-01  0.612E-01
  -1.916  0.603E-01  0.603E-01
  -1.906  0.594E-01  0.594E-01
  -1.896  0.585E-01  0.585E-01
  -1.886  0.576E-01  0.576E-01
  -1.876  0.567E-01  0.567E-01
  -1.866  0.558E-01  0.558E-01
  -1.856  0.549E-01  0.549E-01
  -1.846  0.541E-01  0.541E-01
  -1.836  0.532E-01  0.532E-01
  -1.826  0.524E-01  0.524E-01
  -1.816  0.516E-01  0.516E-01
  -1.806  0.508E-01  0.508E-01
  -1.796  0.500E-01  0.500E-01
  -1.786  0.492E-01  0.492E-01
  -1.776  0.484E-01  0.484E-01
  -1.766  0.476E-01  0.476E-01
  -1.756  0.469E-01  0.469E-01
  -1.746  0.461E-01  0.461E-01
  -1.736  0.454E-01  0.454E-01
  -1.726  0.447E-01  0.447E-01
  -1.716  0.440E-01  0.440E-01
  -1.706  0.433E-01  0.433E-01
  -1.696  0.427E-01  0.427E-01
  -1.686  0.420E-01  0.420E-01
  -1.676  0.414E-01  0.414E-01
  -1.666  0.408E-01  0.408E-01
  -1.656  0.402E-01  0.402E-01
  -1.646  0.396E-01  0.396E-01
  -1.636  0.391E-01  0.391E-01
  -1.626  0.385E-01  0.385E-01
  -1.616  0.380E-01  0.380E-01
  -1.606  0.375E-01  0.375E-01
  -1.596  0.370E-01  0.370E-01
  -1.586  0.366E-01  0.366E-01
  -1.576  0.362E-01  0.362E-01
  -1.566  0.357E-01  0.357E-01
  -1.556  0.354E-01  0.354E-01
  -1.546  0.350E-01  0.350E-01
  -1.536  0.346E-01  0.346E-01
  -1.526  0.343E-01  0.343E-01
  -1.516  0.340E-01  0.340E-01
  -1.506  0.337E-01  0.337E-01
  -1.496  0.334E-01  0.334E-01
  -1.486  0.332E-01  0.332E-01
  -1.476  0.330E-01  0.330E-01
  -1.466  0.327E-01  0.327E-01
  -1.456  0.326E-01  0.326E-01
  -1.446  0.324E-01  0.324E-01
  -1.436  0.322E-01  0.322E-01
  -1.426  0.321E-01  0.321E-01
  -1.416  0.320E-01  0.320E-01
  -1.406  0.319E-01  0.319E-01
  -1.396  0.319E-01  0.319E-01
  -1.386  0.318E-01  0.318E-01
  -1.376  0.318E-01  0.318E-01
  -1.366  0.318E-01  0.318E-01
  -1.356  0.318E-01  0.318E-01
  -1.346  0.318E-01  0.318E-01
  -1.336  0.318E-01  0.318E-01
  -1.326  0.319E-01  0.319E-01
  -1.316  0.319E-01  0.319E-01
  -1.306  0.320E-01  0.320E-01
  -1.296  0.321E-01  0.321E-01
  -1.286  0.322E-01  0.322E-01
  -1.276  0.323E-01  0.323E-01
  -1.266  0.325E-01  0.325E-01
  -1.256  0.326E-01  0.326E-01
  -1.246  0.328E-01  0.328E-01
  -1.236  0.329E-01  0.329E-01
  -1.226  0.331E-01  0.331E-01
  -1.216  0.333E-01  0.333E-01
  -1.206  0.335E-01  0.335E-01
  -1.196  0.337E-01  0.337E-01
  -1.186  0.339E-01  0.339E-01
  -1.176  0.341E-01  0.341E-01
  -1.166  0.343E-01  0.343E-01
  -1.156  0.345E-01  0.345E-01
  -1.146  0.347E-01  0.347E-01
  -1.136  0.349E-01  0.349E-01
  -1.126  0.351E-01  0.351E-01
  -1.116  0.353E-01  0.353E-01
  -1.106  0.355E-01  0.355E-01
  -1.096  0.357E-01  0.357E-01
  -1.086  0.359E-01  0.359E-01
  -1.076  0.362E-01  0.362E-01
  -1.066  0.364E-01  0.364E-01
  -1.056  0.365E-01  0.365E-01
  -1.046  0.367E-01  0.367E-01
  -1.036  0.369E-01  0.369E-01
  -1.026  0.371E-01  0.371E-01
  -1.016  0.373E-01  0.373E-01
  -1.006  0.374E-01  0.374E-01
  -0.996  0.376E-01  0.376E-01
  -0.986  0.377E-01  0.377E-01
  -0.976  0.378E-01  0.378E-01
  -0.966  0.380E-01  0.380E-01
  -0.956  0.381E-01  0.381E-01
  -0.946  0.382E-01  0.382E-01
  -0.936  0.382E-01  0.382E-01
  -0.926  0.383E-01  0.383E-01
  -0.916  0.384E-01  0.384E-01
  -0.906  0.384E-01  0.384E-01
  -0.896  0.384E-01  0.384E-01
  -0.886  0.385E-01  0.385E-01
  -0.876  0.385E-01  0.385E-01
  -0.866  0.384E-01  0.384E-01
  -0.856  0.384E-01  0.384E-01
  -0.846  0.384E-01  0.384E-01
  -0.836  0.383E-01  0.383E-01
  -0.826  0.382E-01  0.382E-01
  -0.816  0.381E-01  0.381E-01
  -0.806  0.380E-01  0.380E-01
  -0.796  0.379E-01  0.379E-01
  -0.786  0.378E-01  0.378E-01
  -0.776  0.376E-01  0.376E-01
  -0.766  0.375E-01  0.375E-01
  -0.756  0.373E-01  0.373E-01
  -0.746  0.371E-01  0.371E-01
  -0.736  0.369E-01  0.369E-01
  -0.726  0.367E-01  0.367E-01
  -0.716  0.364E-01  0.364E-01
  -0.706  0.362E-01  0.362E-01
  -0.696  0.359E-01  0.359E-01
  -0.686  0.357E-01  0.357E-01
  -0.676  0.354E-01  0.354E-01
  -0.666  0.351E-01  0.351E-01
  -0.656  0.348E-01  0.348E-01
  -0.646  0.345E-01  0.345E-01
  -0.636  0.342E-01  0.342E-01
  -0.626  0.338E-01  0.338E-01
  -0.616  0.335E-01  0.335E-01
  -0.606  0.332E-01  0.332E-01
  -0.596  0.328E-01  0.328E-01
  -0.586  0.325E-01  0.325E-01
  -0.576  0.321E-01  0.321E-01
  -0.566  0.318E-01  0.318E-01
  -0.556  0.314E-01  0.314E-01
  -0.546  0.311E-01  0.311E-01
  -0.536  0.307E-01  0.307E-01
  -0.526  0.303E-01  0.303E-01
  -0.516  0.300E-01  0.300E-01
  -0.506  0.296E-01  0.296E-01
  -0.496  0.293E-01  0.293E-01
  -0.486  0.289E-01  0.289E-01
  -0.476  0.286E-01  0.286E-01
  -0.466  0.282E-01  0.282E-01
  -0.456  0.279E-01  0.279E-01
  -0.446  0.276E-01  0.276E-01
  -0.436  0.273E-01  0.273E-01
  -0.426  0.270E-01  0.270E-01
  -0.416  0.267E-01  0.267E-01
  -0.406  0.264E-01  0.264E-01
  -0.396  0.261E-01  0.261E-01
  -0.386  0.259E-01  0.259E-01
  -0.376  0.256E-01  0.256E-01
  -0.366  0.254E-01  0.254E-01
  -0.356  0.252E-01  0.252E-01
  -0.346  0.250E-01  0.250E-01
  -0.336  0.248E-01  0.248E-01
  -0.326  0.247E-01  0.247E-01
  -0.316  0.245E-01  0.245E-01
  -0.306  0.244E-01  0.244E-01
  -0.296  0.243E-01  0.243E-01
  -0.286  0.242E-01  0.242E-01
  -0.276  0.241E-01  0.241E-01
  -0.266  0.241E-01  0.241E-01
  -0.256  0.241E-01  0.241E-01
  -0.246  0.241E-01  0.241E-01
  -0.236  0.241E-01  0.241E-01
  -0.226  0.241E-01  0.241E-01
  -0.216  0.242E-01  0.242E-01
  -0.206  0.243E-01  0.243E-01
  -0.196  0.244E-01  0.244E-01
  -0.186  0.245E-01  0.245E-01
  -0.176  0.247E-01  0.247E-01
  -0.166  0.248E-01  0.248E-01
  -0.156  0.250E-01  0.250E-01
  -0.146  0.252E-01  0.252E-01
  -0.136  0.255E-01  0.255E-01
  -0.126  0.258E-01  0.258E-01
  -0.116  0.260E-01  0.260E-01
  -0.106  0.263E-01  0.263E-01
  -0.096  0.267E-01  0.267E-01
  -0.086  0.270E-01  0.270E-01
  -0.076  0.274E-01  0.274E-01
  -0.066  0.278E-01  0.278E-01
  -0.056  0.282E-01  0.282E-01
  -0.046  0.286E-01  0.286E-01
  -0.036  0.291E-01  0.291E-01
  -0.026  0.296E-01  0.296E-01
  -0.016  0.300E-01  0.300E-01
  -0.006  0.306E-01  0.306E-01
   0.004  0.311E-01  0.311E-01
   0.014  0.316E-01  0.316E-01
   0.024  0.322E-01  0.322E-01
   0.034  0.327E-01  0.327E-01
   0.044  0.333E-01  0.333E-01
   0.054  0.339E-01  0.339E-01
   0.064  0.345E-01  0.345E-01
   0.074  0.351E-01  0.351E-01
   0.084  0.358E-01  0.358E-01
   0.094  0.364E-01  0.364E-01
   0.104  0.371E-01  0.371E-01
   0.114  0.377E-01  0.377E-01
   0.124  0.384E-01  0.384E-01
   0.134  0.391E-01  0.391E-01
   0.144  0.398E-01  0.398E-01
   0.154  0.405E-01  0.405E-01
   0.164  0.412E-01  0.412E-01
   0.174  0.419E-01  0.419E-01
   0.184  0.426E-01  0.426E-01
   0.194  0.433E-01  0.433E-01
   0.204  0.440E-01  0.440E-01
   0.214  0.447E-01  0.447E-01
   0.224  0.455E-01  0.455E-01
   0.234  0.462E-01  0.462E-01
   0.244  0.469E-01  0.469E-01
   0.254  0.476E-01  0.476E-01
   0.264  0.484E-01  0.484E-01
   0.274  0.491E-01  0.491E-01
   0.284  0.498E-01  0.498E-01
   0.294  0.506E-01  0.506E-01
   0.304  0.513E-01  0.513E-01
   0.314  0.520E-01  0.520E-01
   0.324  0.528E-01  0.528E-01
   0.334  0.535E-01  0.535E-01
   0.344  0.543E-01  0.543E-01
   0.354  0.550E-01  0.550E-01
   0.364  0.557E-01  0.557E-01
   0.374  0.565E-01  0.565E-01
   0.384  0.572E-01  0.572E-01
   0.394  0.579E-01  0.579E-01
   0.404  0.587E-01  0.587E-01
   0.414  0.594E-01  0.594E-01
   0.424  0.602E-01  0.602E-01
   0.434  0.609E-01  0.609E-01
   0.444  0.617E-01  0.617E-01
   0.454  0.624E-01  0.624E-01
   0.464  0.632E-01  0.632E-01
   0.474  0.639E-01  0.639E-01
   0.484  0.647E-01  0.647E-01
   0.494  0.655E-01  0.655E-01
   0.504  0.662E-01  0.662E-01
   0.514  0.670E-01  0.670E-01
   0.524  0.678E-01  0.678E-01
   0.534  0.686E-01  0.686E-01
   0.544  0.694E-01  0.694E-01
   0.554  0.702E-01  0.702E-01
   0.564  0.710E-01  0.710E-01
   0.574  0.719E-01  0.719E-01
   0.584  0.727E-01  0.727E-01
   0.594  0.736E-01  0.736E-01
   0.604  0.745E-01  0.745E-01
   0.614  0.753E-01  0.753E-01
   0.624  0.762E-01  0.762E-01
   0.634  0.772E-01  0.772E-01
   0.644  0.781E-01  0.781E-01
   0.654  0.790E-01  0.790E-01
   0.664  0.800E-01  0.800E-01
   0.674  0.810E-01  0.810E-01
   0.684  0.820E-01  0.820E-01
   0.694  0.830E-01  0.830E-01
   0.704  0.841E-01  0.841E-01
   0.714  0.851E-01  0.851E-01
   0.724  0.862E-01  0.862E-01
   0.734  0.873E-01  0.873E-01
   0.744  0.885E-01  0.885E-01
   0.754  0.896E-01  0.896E-01
   0.764  0.908E-01  0.908E-01
   0.774  0.920E-01  0.920E-01
   0.784  0.932E-01  0.932E-01
   0.794  0.945E-01  0.945E-01
   0.804  0.957E-01  0.957E-01
   0.814  0.970E-01  0.970E-01
   0.824  0.983E-01  0.983E-01
   0.834  0.997E-01  0.997E-01
   0.844  0.101E+00  0.101E+00
   0.854  0.102E+00  0.102E+00
   0.864  0.104E+00  0.104E+00
   0.874  0.105E+00  0.105E+00
   0.884  0.107E+00  0.107E+00
   0.894  0.108E+00  0.108E+00
   0.904  0.110E+00  0.110E+00
   0.914  0.111E+00  0.111E+00
   0.924  0.113E+00  0.113E+00
   0.934  0.114E+00  0.114E+00
   0.944  0.116E+00  0.116E+00
   0.954  0.118E+00  0.118E+00
   0.964  0.119E+00  0.119E+00
   0.974  0.121E+00  0.121E+00
   0.984  0.123E+00  0.123E+00
   0.994  0.124E+00  0.124E+00
   1.004  0.126E+00  0.126E+00
   1.014  0.128E+00  0.128E+00
   1.024  0.130E+00  0.130E+00
   1.034  0.131E+00  0.131E+00
   1.044  0.133E+00  0.133E+00
   1.054  0.135E+00  0.135E+00
   1.064  0.137E+00  0.137E+00
   1.074  0.138E+00  0.138E+00
   1.084  0.140E+00  0.140E+00
   1.094  0.142E+00  0.142E+00
   1.104  0.144E+00  0.144E+00
   1.114  0.146E+00  0.146E+00
   1.124  0.147E+00  0.147E+00
   1.134  0.149E+00  0.149E+00
   1.144  0.151E+00  0.151E+00
   1.154  0.153E+00  0.153E+00
   1.164  0.155E+00  0.155E+00
   1.174  0.156E+00  0.156E+00
   1.184  0.158E+00  0.158E+00
   1.194  0.160E+00  0.160E+00
   1.204  0.162E+00  0.162E+00
   1.214  0.163E+00  0.163E+00
   1.224  0.165E+00  0.165E+00
   1.234  0.167E+00  0.167E+00
   1.244  0.168E+00  0.168E+00
   1.254  0.170E+00  0.170E+00
   1.264  0.172E+00  0.172E+00
   1.274  0.173E+00  0.173E+00
   1.284  0.175E+00  0.175E+00
   1.294  0.176E+00  0.176E+00
   1.304  0.178E+00  0.178E+00
   1.314  0.179E+00  0.179E+00
   1.324  0.180E+00  0.180E+00
   1.334  0.182E+00  0.182E+00
   1.344  0.183E+00  0.183E+00
   1.354  0.184E+00  0.184E+00
   1.364  0.185E+00  0.185E+00
   1.374  0.186E+00  0.186E+00
   1.384  0.188E+00  0.188E+00
   1.394  0.189E+00  0.189E+00
   1.404  0.190E+00  0.190E+00
   1.414  0.190E+00  0.190E+00
   1.424  0.191E+00  0.191E+00
   1.434  0.192E+00  0.192E+00
   1.444  0.193E+00  0.193E+00
   1.454  0.193E+00  0.193E+00
   1.464  0.194E+00  0.194E+00
   1.474  0.195E+00  0.195E+00
   1.484  0.195E+00  0.195E+00
   1.494  0.195E+00  0.195E+00
   1.504  0.196E+00  0.196E+00
   1.514  0.196E+00  0.196E+00
   1.524  0.196E+00  0.196E+00
   1.534  0.196E+00  0.196E+00
   1.544  0.196E+00  0.196E+00
   1.554  0.196E+00  0.196E+00
   1.564  0.196E+00  0.196E+00
   1.574  0.196E+00  0.196E+00
   1.584  0.196E+00  0.196E+00
   1.594  0.195E+00  0.195E+00
   1.604  0.195E+00  0.195E+00
   1.614  0.194E+00  0.194E+00
   1.624  0.194E+00  0.194E+00
   1.634  0.193E+00  0.193E+00
   1.644  0.192E+00  0.192E+00
   1.654  0.192E+00  0.192E+00
   1.664  0.191E+00  0.191E+00
   1.674  0.190E+00  0.190E+00
   1.684  0.189E+00  0.189E+00
   1.694  0.188E+00  0.188E+00
   1.704  0.186E+00  0.186E+00
   1.714  0.185E+00  0.185E+00
   1.724  0.184E+00  0.184E+00
   1.734  0.183E+00  0.183E+00
   1.744  0.181E+00  0.181E+00
   1.754  0.180E+00  0.180E+00
   1.764  0.178E+00  0.178E+00
   1.774  0.177E+00  0.177E+00
   1.784  0.175E+00  0.175E+00
   1.794  0.173E+00  0.173E+00
   1.804  0.172E+00  0.172E+00
   1.814  0.170E+00  0.170E+00
   1.824  0.168E+00  0.168E+00
   1.834  0.166E+00  0.166E+00
   1.844  0.164E+00  0.164E+00
   1.854  0.162E+00  0.162E+00
   1.864  0.161E+00  0.161E+00
   1.874  0.159E+00  0.159E+00
   1.884  0.157E+00  0.157E+00
   1.894  0.155E+00  0.155E+00
   1.904  0.153E+00  0.153E+00
   1.914  0.151E+00  0.151E+00
   1.924  0.149E+00  0.149E+00
   1.934  0.147E+00  0.147E+00
   1.944  0.145E+00  0.145E+00
   1.954  0.143E+00  0.143E+00
   1.964  0.141E+00  0.141E+00
   1.974  0.139E+00  0.139E+00
   1.984  0.138E+00  0.138E+00
   1.994  0.136E+00  0.136E+00
   2.004  0.134E+00  0.134E+00
   2.014  0.132E+00  0.132E+00
   2.024  0.131E+00  0.131E+00
   2.034  0.129E+00  0.129E+00
   2.044  0.127E+00  0.127E+00
   2.054  0.126E+00  0.126E+00
   2.064  0.125E+00  0.125E+00
   2.074  0.123E+00  0.123E+00
   2.084  0.122E+00  0.122E+00
   2.094  0.121E+00  0.121E+00
   2.104  0.120E+00  0.120E+00
   2.114  0.119E+00  0.119E+00
   2.124  0.118E+00  0.118E+00
   2.134  0.117E+00  0.117E+00
   2.144  0.116E+00  0.116E+00
   2.154  0.116E+00  0.116E+00
   2.164  0.115E+00  0.115E+00
   2.174  0.115E+00  0.115E+00
   2.184  0.114E+00  0.114E+00
   2.194  0.114E+00  0.114E+00
   2.204  0.114E+00  0.114E+00
   2.214  0.114E+00  0.114E+00
   2.224  0.114E+00  0.114E+00
   2.234  0.115E+00  0.115E+00
   2.244  0.115E+00  0.115E+00
   2.254  0.116E+00  0.116E+00
   2.264  0.116E+00  0.116E+00
   2.274  0.117E+00  0.117E+00
   2.284  0.118E+00  0.118E+00
   2.294  0.119E+00  0.119E+00
   2.304  0.120E+00  0.120E+00
   2.314  0.122E+00  0.122E+00
   2.324  0.123E+00  0.123E+00
   2.334  0.125E+00  0.125E+00
   2.344  0.126E+00  0.126E+00
   2.354  0.128E+00  0.128E+00
   2.364  0.130E+00  0.130E+00
   2.374  0.132E+00  0.132E+00
   2.384  0.134E+00  0.134E+00
   2.394  0.136E+00  0.136E+00
   2.404  0.139E+00  0.139E+00
   2.414  0.141E+00  0.141E+00
   2.424  0.144E+00  0.144E+00
   2.434  0.146E+00  0.146E+00
   2.444  0.149E+00  0.149E+00
   2.454  0.152E+00  0.152E+00
   2.464  0.154E+00  0.154E+00
   2.474  0.157E+00  0.157E+00
   2.484  0.160E+00  0.160E+00
   2.494  0.163E+00  0.163E+00
   2.504  0.166E+00  0.166E+00
   2.514  0.170E+00  0.170E+00
   2.524  0.173E+00  0.173E+00
   2.534  0.176E+00  0.176E+00
   2.544  0.179E+00  0.179E+00
   2.554  0.182E+00  0.182E+00
   2.564  0.186E+00  0.186E+00
   2.574  0.189E+00  0.189E+00
   2.584  0.192E+00  0.192E+00
   2.594  0.196E+00  0.196E+00
   2.604  0.199E+00  0.199E+00
   2.614  0.202E+00  0.202E+00
   2.624  0.205E+00  0.205E+00
   2.634  0.209E+00  0.209E+00
   2.644  0.212E+00  0.212E+00
   2.654  0.215E+00  0.215E+00
   2.664  0.218E+00  0.218E+00
   2.674  0.221E+00  0.221E+00
   2.684  0.224E+00  0.224E+00
   2.694  0.227E+00  0.227E+00
   2.704  0.229E+00  0.229E+00
   2.714  0.232E+00  0.232E+00
   2.724  0.234E+00  0.234E+00
   2.734  0.237E+00  0.237E+00
   2.744  0.239E+00  0.239E+00
   2.754  0.242E+00  0.242E+00
   2.764  0.244E+00  0.244E+00
   2.774  0.246E+00  0.246E+00
   2.784  0.248E+00  0.248E+00
   2.794  0.249E+00  0.249E+00
   2.804  0.251E+00  0.251E+00
   2.814  0.252E+00  0.252E+00
   2.824  0.254E+00  0.254E+00
   2.834  0.255E+00  0.255E+00
   2.844  0.256E+00  0.256E+00
   2.854  0.257E+00  0.257E+00
   2.864  0.257E+00  0.257E+00
   2.874  0.258E+00  0.258E+00
   2.884  0.258E+00  0.258E+00
   2.894  0.258E+00  0.258E+00
   2.904  0.258E+00  0.258E+00
   2.914  0.258E+00  0.258E+00
   2.924  0.258E+00  0.258E+00
   2.934  0.258E+00  0.258E+00
   2.944  0.257E+00  0.257E+00
   2.954  0.256E+00  0.256E+00
   2.964  0.255E+00  0.255E+00
   2.974  0.254E+00  0.254E+00
   2.984  0.253E+00  0.253E+00
   2.994  0.251E+00  0.251E+00
   3.004  0.250E+00  0.250E+00
   3.014  0.248E+00  0.248E+00
   3.024  0.246E+00  0.246E+00
   3.034  0.244E+00  0.244E+00
   3.044  0.241E+00  0.241E+00
   3.054  0.239E+00  0.239E+00
   3.064  0.236E+00  0.236E+00
   3.074  0.234E+00  0.234E+00
   3.084  0.231E+00  0.231E+00
   3.094  0.228E+00  0.228E+00
   3.104  0.225E+00  0.225E+00
   3.114  0.222E+00  0.222E+00
   3.124  0.218E+00  0.218E+00
   3.134  0.215E+00  0.215E+00
   3.144  0.211E+00  0.211E+00
   3.154  0.208E+00  0.208E+00
   3.164  0.204E+00  0.204E+00
   3.174  0.200E+00  0.200E+00
   3.184  0.196E+00  0.196E+00
   3.194  0.192E+00  0.192E+00
   3.204  0.188E+00  0.188E+00
   3.214  0.184E+00  0.184E+00
   3.224  0.180E+00  0.180E+00
   3.234  0.176E+00  0.176E+00
   3.244  0.171E+00  0.171E+00
   3.254  0.167E+00  0.167E+00
   3.264  0.163E+00  0.163E+00
   3.274  0.158E+00  0.158E+00
   3.284  0.154E+00  0.154E+00
   3.294  0.149E+00  0.149E+00
   3.304  0.145E+00  0.145E+00
   3.314  0.140E+00  0.140E+00
   3.324  0.136E+00  0.136E+00
   3.334  0.131E+00  0.131E+00
   3.344  0.127E+00  0.127E+00
   3.354  0.123E+00  0.123E+00
   3.364  0.118E+00  0.118E+00
   3.374  0.114E+00  0.114E+00
   3.384  0.110E+00  0.110E+00
   3.394  0.105E+00  0.105E+00
   3.404  0.101E+00  0.101E+00
   3.414  0.968E-01  0.968E-01
   3.424  0.927E-01  0.927E-01
   3.434  0.886E-01  0.886E-01
   3.444  0.845E-01  0.845E-01
   3.454  0.806E-01  0.806E-01
   3.464  0.767E-01  0.767E-01
   3.474  0.728E-01  0.728E-01
   3.484  0.691E-01  0.691E-01
   3.494  0.654E-01  0.654E-01
   3.504  0.617E-01  0.617E-01
   3.514  0.582E-01  0.582E-01
   3.524  0.548E-01  0.548E-01
   3.534  0.514E-01  0.514E-01
   3.544  0.481E-01  0.481E-01
   3.554  0.449E-01  0.449E-01
   3.564  0.418E-01  0.418E-01
   3.574  0.388E-01  0.388E-01
   3.584  0.359E-01  0.359E-01
   3.594  0.330E-01  0.330E-01
   3.604  0.303E-01  0.303E-01
   3.614  0.277E-01  0.277E-01
   3.624  0.251E-01  0.251E-01
   3.634  0.226E-01  0.226E-01
   3.644  0.203E-01  0.203E-01
   3.654  0.180E-01  0.180E-01
   3.664  0.158E-01  0.158E-01
   3.674  0.137E-01  0.137E-01
   3.684  0.117E-01  0.117E-01
   3.694  0.982E-02  0.982E-02
   3.704  0.800E-02  0.800E-02
   3.714  0.627E-02  0.627E-02
   3.724  0.462E-02  0.462E-02
   3.734  0.306E-02  0.306E-02
   3.744  0.158E-02  0.158E-02
   3.754  0.184E-03  0.184E-03
   3.764 -0.113E-02 -0.113E-02
   3.774 -0.237E-02 -0.237E-02
   3.784 -0.353E-02 -0.353E-02
   3.794 -0.462E-02 -0.462E-02
   3.804 -0.563E-02 -0.563E-02
   3.814 -0.657E-02 -0.657E-02
   3.824 -0.745E-02 -0.745E-02
   3.834 -0.826E-02 -0.826E-02
   3.844 -0.900E-02 -0.900E-02
   3.854 -0.968E-02 -0.968E-02
   3.864 -0.103E-01 -0.103E-01
   3.874 -0.109E-01 -0.109E-01
   3.884 -0.114E-01 -0.114E-01
   3.894 -0.118E-01 -0.118E-01
   3.904 -0.122E-01 -0.122E-01
   3.914 -0.126E-01 -0.126E-01
   3.924 -0.129E-01 -0.129E-01
   3.934 -0.131E-01 -0.131E-01
   3.944 -0.134E-01 -0.134E-01
   3.954 -0.135E-01 -0.135E-01
   3.964 -0.137E-01 -0.137E-01
   3.974 -0.138E-01 -0.138E-01
   3.984 -0.138E-01 -0.138E-01
   3.994 -0.139E-01 -0.139E-01
   4.004 -0.139E-01 -0.139E-01
   4.014 -0.139E-01 -0.139E-01
   4.024 -0.138E-01 -0.138E-01
   4.034 -0.137E-01 -0.137E-01
   4.044 -0.136E-01 -0.136E-01
   4.054 -0.135E-01 -0.135E-01
   4.064 -0.134E-01 -0.134E-01
   4.074 -0.132E-01 -0.132E-01
   4.084 -0.130E-01 -0.130E-01
   4.094 -0.128E-01 -0.128E-01
   4.104 -0.126E-01 -0.126E-01
   4.114 -0.124E-01 -0.124E-01
   4.124 -0.122E-01 -0.122E-01
   4.134 -0.120E-01 -0.120E-01
   4.144 -0.117E-01 -0.117E-01
   4.154 -0.114E-01 -0.114E-01
   4.164 -0.112E-01 -0.112E-01
   4.174 -0.109E-01 -0.109E-01
   4.184 -0.106E-01 -0.106E-01
   4.194 -0.104E-01 -0.104E-01
   4.204 -0.101E-01 -0.101E-01
   4.214 -0.982E-02 -0.982E-02
   4.224 -0.954E-02 -0.954E-02
   4.234 -0.926E-02 -0.926E-02
   4.244 -0.898E-02 -0.898E-02
   4.254 -0.870E-02 -0.870E-02
   4.264 -0.842E-02 -0.842E-02
   4.274 -0.815E-02 -0.815E-02
   4.284 -0.787E-02 -0.787E-02
   4.294 -0.760E-02 -0.760E-02
   4.304 -0.734E-02 -0.734E-02
   4.314 -0.707E-02 -0.707E-02
   4.324 -0.682E-02 -0.682E-02
   4.334 -0.656E-02 -0.656E-02
   4.344 -0.631E-02 -0.631E-02
   4.354 -0.607E-02 -0.607E-02
   4.364 -0.583E-02 -0.583E-02
   4.374 -0.560E-02 -0.560E-02
   4.384 -0.537E-02 -0.537E-02
   4.394 -0.515E-02 -0.515E-02
   4.404 -0.493E-02 -0.493E-02
   4.414 -0.472E-02 -0.472E-02
   4.424 -0.452E-02 -0.452E-02
   4.434 -0.432E-02 -0.432E-02
   4.444 -0.413E-02 -0.413E-02
   4.454 -0.394E-02 -0.394E-02
   4.464 -0.376E-02 -0.376E-02
   4.474 -0.359E-02 -0.359E-02
   4.484 -0.342E-02 -0.342E-02
   4.494 -0.326E-02 -0.326E-02
   4.504 -0.310E-02 -0.310E-02
   4.514 -0.295E-02 -0.295E-02
   4.524 -0.280E-02 -0.280E-02
   4.534 -0.266E-02 -0.266E-02
   4.544 -0.253E-02 -0.253E-02
   4.554 -0.240E-02 -0.240E-02
   4.564 -0.228E-02 -0.228E-02
   4.574 -0.216E-02 -0.216E-02
   4.584 -0.204E-02 -0.204E-02
   4.594 -0.194E-02 -0.194E-02
   4.604 -0.183E-02 -0.183E-02
   4.614 -0.173E-02 -0.173E-02
   4.624 -0.164E-02 -0.164E-02
   4.634 -0.155E-02 -0.155E-02
   4.644 -0.146E-02 -0.146E-02
   4.654 -0.138E-02 -0.138E-02
   4.664 -0.130E-02 -0.130E-02
   4.674 -0.122E-02 -0.122E-02
   4.684 -0.115E-02 -0.115E-02
   4.694 -0.109E-02 -0.109E-02
   4.704 -0.102E-02 -0.102E-02
   4.714 -0.961E-03 -0.961E-03
   4.724 -0.903E-03 -0.903E-03
   4.734 -0.849E-03 -0.849E-03
   4.744 -0.797E-03 -0.797E-03
   4.754 -0.748E-03 -0.748E-03
   4.764 -0.701E-03 -0.701E-03
   4.774 -0.657E-03 -0.657E-03
   4.784 -0.616E-03 -0.616E-03
   4.794 -0.577E-03 -0.577E-03
   4.804 -0.540E-03 -0.540E-03
   4.814 -0.505E-03 -0.505E-03
   4.824 -0.472E-03 -0.472E-03
   4.834 -0.441E-03 -0.441E-03
   4.844 -0.412E-03 -0.412E-03
   4.854 -0.385E-03 -0.385E-03
   4.864 -0.359E-03 -0.359E-03
   4.874 -0.335E-03 -0.335E-03
   4.884 -0.312E-03 -0.312E-03
   4.894 -0.291E-03 -0.291E-03
   4.904 -0.271E-03 -0.271E-03
   4.914 -0.252E-03 -0.252E-03
   4.924 -0.235E-03 -0.235E-03
   4.934 -0.218E-03 -0.218E-03
   4.944 -0.203E-03 -0.203E-03
   4.954 -0.188E-03 -0.188E-03
   4.964 -0.175E-03 -0.175E-03
   4.974 -0.162E-03 -0.162E-03
   4.984 -0.150E-03 -0.150E-03
   4.994 -0.139E-03 -0.139E-03
   5.004 -0.129E-03 -0.129E-03
   5.014 -0.120E-03 -0.120E-03
   5.024 -0.111E-03 -0.111E-03
   5.034 -0.102E-03 -0.102E-03
   5.044 -0.948E-04 -0.948E-04
   5.054 -0.876E-04 -0.876E-04
   5.064 -0.809E-04 -0.809E-04
   5.074 -0.748E-04 -0.748E-04
   5.084 -0.690E-04 -0.690E-04
   5.094 -0.637E-04 -0.637E-04
   5.104 -0.587E-04 -0.587E-04
   5.114 -0.541E-04 -0.541E-04
   5.124 -0.498E-04 -0.498E-04
   5.134 -0.459E-04 -0.459E-04
   5.144 -0.422E-04 -0.422E-04
   5.154 -0.388E-04 -0.388E-04
   5.164 -0.357E-04 -0.357E-04
   5.174 -0.328E-04 -0.328E-04
   5.184 -0.302E-04 -0.302E-04
   5.194 -0.277E-04 -0.277E-04
   5.204 -0.254E-04 -0.254E-04
   5.214 -0.233E-04 -0.233E-04
   5.224 -0.214E-04 -0.214E-04
   5.234 -0.196E-04 -0.196E-04
   5.244 -0.179E-04 -0.179E-04
   5.254 -0.164E-04 -0.164E-04
   5.264 -0.150E-04 -0.150E-04
   5.274 -0.138E-04 -0.138E-04
   5.284 -0.126E-04 -0.126E-04
   5.294 -0.115E-04 -0.115E-04
