# E (eV)   ldos(E)   pdos(E)   
 -27.116 -0.407E-03 -0.407E-03
 -27.106 -0.439E-03 -0.439E-03
 -27.096 -0.474E-03 -0.474E-03
 -27.086 -0.511E-03 -0.511E-03
 -27.076 -0.550E-03 -0.550E-03
 -27.066 -0.593E-03 -0.593E-03
 -27.056 -0.638E-03 -0.638E-03
 -27.046 -0.686E-03 -0.686E-03
 -27.036 -0.738E-03 -0.738E-03
 -27.026 -0.793E-03 -0.793E-03
 -27.016 -0.852E-03 -0.852E-03
 -27.006 -0.915E-03 -0.915E-03
 -26.996 -0.981E-03 -0.981E-03
 -26.986 -0.105E-02 -0.105E-02
 -26.976 -0.113E-02 -0.113E-02
 -26.966 -0.121E-02 -0.121E-02
 -26.956 -0.129E-02 -0.129E-02
 -26.946 -0.138E-02 -0.138E-02
 -26.936 -0.148E-02 -0.148E-02
 -26.926 -0.158E-02 -0.158E-02
 -26.916 -0.169E-02 -0.169E-02
 -26.906 -0.181E-02 -0.181E-02
 -26.896 -0.193E-02 -0.193E-02
 -26.886 -0.206E-02 -0.206E-02
 -26.876 -0.219E-02 -0.219E-02
 -26.866 -0.234E-02 -0.234E-02
 -26.856 -0.249E-02 -0.249E-02
 -26.846 -0.265E-02 -0.265E-02
 -26.836 -0.282E-02 -0.282E-02
 -26.826 -0.299E-02 -0.299E-02
 -26.816 -0.318E-02 -0.318E-02
 -26.806 -0.338E-02 -0.338E-02
 -26.796 -0.358E-02 -0.358E-02
 -26.786 -0.380E-02 -0.380E-02
 -26.776 -0.403E-02 -0.403E-02
 -26.766 -0.427E-02 -0.427E-02
 -26.756 -0.452E-02 -0.452E-02
 -26.746 -0.478E-02 -0.478E-02
 -26.736 -0.506E-02 -0.506E-02
 -26.726 -0.535E-02 -0.535E-02
 -26.716 -0.565E-02 -0.565E-02
 -26.706 -0.596E-02 -0.596E-02
 -26.696 -0.629E-02 -0.629E-02
 -26.686 -0.663E-02 -0.663E-02
 -26.676 -0.699E-02 -0.699E-02
 -26.666 -0.736E-02 -0.736E-02
 -26.656 -0.775E-02 -0.775E-02
 -26.646 -0.815E-02 -0.815E-02
 -26.636 -0.857E-02 -0.857E-02
 -26.626 -0.900E-02 -0.900E-02
 -26.616 -0.944E-02 -0.944E-02
 -26.606 -0.991E-02 -0.991E-02
 -26.596 -0.104E-01 -0.104E-01
 -26.586 -0.109E-01 -0.109E-01
 -26.576 -0.114E-01 -0.114E-01
 -26.566 -0.119E-01 -0.119E-01
 -26.556 -0.125E-01 -0.125E-01
 -26.546 -0.130E-01 -0.130E-01
 -26.536 -0.136E-01 -0.136E-01
 -26.526 -0.142E-01 -0.142E-01
 -26.516 -0.148E-01 -0.148E-01
 -26.506 -0.154E-01 -0.154E-01
 -26.496 -0.161E-01 -0.161E-01
 -26.486 -0.167E-01 -0.167E-01
 -26.476 -0.174E-01 -0.174E-01
 -26.466 -0.180E-01 -0.180E-01
 -26.456 -0.187E-01 -0.187E-01
 -26.446 -0.194E-01 -0.194E-01
 -26.436 -0.201E-01 -0.201E-01
 -26.426 -0.208E-01 -0.208E-01
 -26.416 -0.216E-01 -0.216E-01
 -26.406 -0.223E-01 -0.223E-01
 -26.396 -0.230E-01 -0.230E-01
 -26.386 -0.238E-01 -0.238E-01
 -26.376 -0.245E-01 -0.245E-01
 -26.366 -0.252E-01 -0.252E-01
 -26.356 -0.260E-01 -0.260E-01
 -26.346 -0.267E-01 -0.267E-01
 -26.336 -0.274E-01 -0.274E-01
 -26.326 -0.281E-01 -0.281E-01
 -26.316 -0.288E-01 -0.288E-01
 -26.306 -0.295E-01 -0.295E-01
 -26.296 -0.302E-01 -0.302E-01
 -26.286 -0.309E-01 -0.309E-01
 -26.276 -0.315E-01 -0.315E-01
 -26.266 -0.321E-01 -0.321E-01
 -26.256 -0.327E-01 -0.327E-01
 -26.246 -0.333E-01 -0.333E-01
 -26.236 -0.338E-01 -0.338E-01
 -26.226 -0.342E-01 -0.342E-01
 -26.216 -0.347E-01 -0.347E-01
 -26.206 -0.351E-01 -0.351E-01
 -26.196 -0.354E-01 -0.354E-01
 -26.186 -0.357E-01 -0.357E-01
 -26.176 -0.359E-01 -0.359E-01
 -26.166 -0.360E-01 -0.360E-01
 -26.156 -0.361E-01 -0.361E-01
 -26.146 -0.361E-01 -0.361E-01
 -26.136 -0.360E-01 -0.360E-01
 -26.126 -0.359E-01 -0.359E-01
 -26.116 -0.356E-01 -0.356E-01
 -26.106 -0.352E-01 -0.352E-01
 -26.096 -0.348E-01 -0.348E-01
 -26.086 -0.342E-01 -0.342E-01
 -26.076 -0.336E-01 -0.336E-01
 -26.066 -0.328E-01 -0.328E-01
 -26.056 -0.318E-01 -0.318E-01
 -26.046 -0.308E-01 -0.308E-01
 -26.036 -0.296E-01 -0.296E-01
 -26.026 -0.283E-01 -0.283E-01
 -26.016 -0.268E-01 -0.268E-01
 -26.006 -0.252E-01 -0.252E-01
 -25.996 -0.234E-01 -0.234E-01
 -25.986 -0.214E-01 -0.214E-01
 -25.976 -0.193E-01 -0.193E-01
 -25.966 -0.170E-01 -0.170E-01
 -25.956 -0.145E-01 -0.145E-01
 -25.946 -0.119E-01 -0.119E-01
 -25.936 -0.899E-02 -0.899E-02
 -25.926 -0.592E-02 -0.592E-02
 -25.916 -0.265E-02 -0.265E-02
 -25.906  0.826E-03  0.826E-03
 -25.896  0.452E-02  0.452E-02
 -25.886  0.842E-02  0.842E-02
 -25.876  0.126E-01  0.126E-01
 -25.866  0.169E-01  0.169E-01
 -25.856  0.215E-01  0.215E-01
 -25.846  0.263E-01  0.263E-01
 -25.836  0.314E-01  0.314E-01
 -25.826  0.367E-01  0.367E-01
 -25.816  0.422E-01  0.422E-01
 -25.806  0.480E-01  0.480E-01
 -25.796  0.540E-01  0.540E-01
 -25.786  0.602E-01  0.602E-01
 -25.776  0.667E-01  0.667E-01
 -25.766  0.735E-01  0.735E-01
 -25.756  0.805E-01  0.805E-01
 -25.746  0.877E-01  0.877E-01
 -25.736  0.952E-01  0.952E-01
 -25.726  0.103E+00  0.103E+00
 -25.716  0.111E+00  0.111E+00
 -25.706  0.119E+00  0.119E+00
 -25.696  0.128E+00  0.128E+00
 -25.686  0.136E+00  0.136E+00
 -25.676  0.145E+00  0.145E+00
 -25.666  0.154E+00  0.154E+00
 -25.656  0.164E+00  0.164E+00
 -25.646  0.173E+00  0.173E+00
 -25.636  0.183E+00  0.183E+00
 -25.626  0.193E+00  0.193E+00
 -25.616  0.203E+00  0.203E+00
 -25.606  0.213E+00  0.213E+00
 -25.596  0.224E+00  0.224E+00
 -25.586  0.234E+00  0.234E+00
 -25.576  0.245E+00  0.245E+00
 -25.566  0.256E+00  0.256E+00
 -25.556  0.267E+00  0.267E+00
 -25.546  0.278E+00  0.278E+00
 -25.536  0.289E+00  0.289E+00
 -25.526  0.301E+00  0.301E+00
 -25.516  0.312E+00  0.312E+00
 -25.506  0.324E+00  0.324E+00
 -25.496  0.335E+00  0.335E+00
 -25.486  0.347E+00  0.347E+00
 -25.476  0.358E+00  0.358E+00
 -25.466  0.370E+00  0.370E+00
 -25.456  0.381E+00  0.381E+00
 -25.446  0.393E+00  0.393E+00
 -25.436  0.405E+00  0.405E+00
 -25.426  0.416E+00  0.416E+00
 -25.416  0.427E+00  0.427E+00
 -25.406  0.439E+00  0.439E+00
 -25.396  0.450E+00  0.450E+00
 -25.386  0.461E+00  0.461E+00
 -25.376  0.472E+00  0.472E+00
 -25.366  0.483E+00  0.483E+00
 -25.356  0.493E+00  0.493E+00
 -25.346  0.504E+00  0.504E+00
 -25.336  0.514E+00  0.514E+00
 -25.326  0.524E+00  0.524E+00
 -25.316  0.533E+00  0.533E+00
 -25.306  0.543E+00  0.543E+00
 -25.296  0.552E+00  0.552E+00
 -25.286  0.561E+00  0.561E+00
 -25.276  0.570E+00  0.570E+00
 -25.266  0.578E+00  0.578E+00
 -25.256  0.586E+00  0.586E+00
 -25.246  0.593E+00  0.593E+00
 -25.236  0.601E+00  0.601E+00
 -25.226  0.608E+00  0.608E+00
 -25.216  0.614E+00  0.614E+00
 -25.206  0.620E+00  0.620E+00
 -25.196  0.626E+00  0.626E+00
 -25.186  0.631E+00  0.631E+00
 -25.176  0.636E+00  0.636E+00
 -25.166  0.640E+00  0.640E+00
 -25.156  0.644E+00  0.644E+00
 -25.146  0.648E+00  0.648E+00
 -25.136  0.651E+00  0.651E+00
 -25.126  0.654E+00  0.654E+00
 -25.116  0.656E+00  0.656E+00
 -25.106  0.658E+00  0.658E+00
 -25.096  0.659E+00  0.659E+00
 -25.086  0.660E+00  0.660E+00
 -25.076  0.660E+00  0.660E+00
 -25.066  0.660E+00  0.660E+00
 -25.056  0.659E+00  0.659E+00
 -25.046  0.658E+00  0.658E+00
 -25.036  0.656E+00  0.656E+00
 -25.026  0.654E+00  0.654E+00
 -25.016  0.652E+00  0.652E+00
 -25.006  0.649E+00  0.649E+00
 -24.996  0.645E+00  0.645E+00
 -24.986  0.641E+00  0.641E+00
 -24.976  0.637E+00  0.637E+00
 -24.966  0.632E+00  0.632E+00
 -24.956  0.627E+00  0.627E+00
 -24.946  0.621E+00  0.621E+00
 -24.936  0.615E+00  0.615E+00
 -24.926  0.609E+00  0.609E+00
 -24.916  0.602E+00  0.602E+00
 -24.906  0.595E+00  0.595E+00
 -24.896  0.587E+00  0.587E+00
 -24.886  0.579E+00  0.579E+00
 -24.876  0.571E+00  0.571E+00
 -24.866  0.562E+00  0.562E+00
 -24.856  0.554E+00  0.554E+00
 -24.846  0.544E+00  0.544E+00
 -24.836  0.535E+00  0.535E+00
 -24.826  0.525E+00  0.525E+00
 -24.816  0.515E+00  0.515E+00
 -24.806  0.505E+00  0.505E+00
 -24.796  0.495E+00  0.495E+00
 -24.786  0.484E+00  0.484E+00
 -24.776  0.474E+00  0.474E+00
 -24.766  0.463E+00  0.463E+00
 -24.756  0.452E+00  0.452E+00
 -24.746  0.441E+00  0.441E+00
 -24.736  0.429E+00  0.429E+00
 -24.726  0.418E+00  0.418E+00
 -24.716  0.407E+00  0.407E+00
 -24.706  0.395E+00  0.395E+00
 -24.696  0.383E+00  0.383E+00
 -24.686  0.372E+00  0.372E+00
 -24.676  0.360E+00  0.360E+00
 -24.666  0.349E+00  0.349E+00
 -24.656  0.337E+00  0.337E+00
 -24.646  0.326E+00  0.326E+00
 -24.636  0.314E+00  0.314E+00
 -24.626  0.303E+00  0.303E+00
 -24.616  0.291E+00  0.291E+00
 -24.606  0.280E+00  0.280E+00
 -24.596  0.269E+00  0.269E+00
 -24.586  0.258E+00  0.258E+00
 -24.576  0.247E+00  0.247E+00
 -24.566  0.236E+00  0.236E+00
 -24.556  0.225E+00  0.225E+00
 -24.546  0.215E+00  0.215E+00
 -24.536  0.205E+00  0.205E+00
 -24.526  0.194E+00  0.194E+00
 -24.516  0.185E+00  0.185E+00
 -24.506  0.175E+00  0.175E+00
 -24.496  0.165E+00  0.165E+00
 -24.486  0.156E+00  0.156E+00
 -24.476  0.147E+00  0.147E+00
 -24.466  0.138E+00  0.138E+00
 -24.456  0.129E+00  0.129E+00
 -24.446  0.121E+00  0.121E+00
 -24.436  0.112E+00  0.112E+00
 -24.426  0.104E+00  0.104E+00
 -24.416  0.965E-01  0.965E-01
 -24.406  0.890E-01  0.890E-01
 -24.396  0.817E-01  0.817E-01
 -24.386  0.747E-01  0.747E-01
 -24.376  0.679E-01  0.679E-01
 -24.366  0.613E-01  0.613E-01
 -24.356  0.550E-01  0.550E-01
 -24.346  0.490E-01  0.490E-01
 -24.336  0.432E-01  0.432E-01
 -24.326  0.376E-01  0.376E-01
 -24.316  0.323E-01  0.323E-01
 -24.306  0.272E-01  0.272E-01
 -24.296  0.223E-01  0.223E-01
 -24.286  0.177E-01  0.177E-01
 -24.276  0.133E-01  0.133E-01
 -24.266  0.911E-02  0.911E-02
 -24.256  0.517E-02  0.517E-02
 -24.246  0.144E-02  0.144E-02
 -24.236 -0.207E-02 -0.207E-02
 -24.226 -0.538E-02 -0.538E-02
 -24.216 -0.848E-02 -0.848E-02
 -24.206 -0.114E-01 -0.114E-01
 -24.196 -0.141E-01 -0.141E-01
 -24.186 -0.166E-01 -0.166E-01
 -24.176 -0.189E-01 -0.189E-01
 -24.166 -0.211E-01 -0.211E-01
 -24.156 -0.231E-01 -0.231E-01
 -24.146 -0.249E-01 -0.249E-01
 -24.136 -0.265E-01 -0.265E-01
 -24.126 -0.280E-01 -0.280E-01
 -24.116 -0.294E-01 -0.294E-01
 -24.106 -0.306E-01 -0.306E-01
 -24.096 -0.317E-01 -0.317E-01
 -24.086 -0.326E-01 -0.326E-01
 -24.076 -0.334E-01 -0.334E-01
 -24.066 -0.341E-01 -0.341E-01
 -24.056 -0.347E-01 -0.347E-01
 -24.046 -0.352E-01 -0.352E-01
 -24.036 -0.355E-01 -0.355E-01
 -24.026 -0.358E-01 -0.358E-01
 -24.016 -0.360E-01 -0.360E-01
 -24.006 -0.361E-01 -0.361E-01
 -23.996 -0.361E-01 -0.361E-01
 -23.986 -0.360E-01 -0.360E-01
 -23.976 -0.359E-01 -0.359E-01
 -23.966 -0.357E-01 -0.357E-01
 -23.956 -0.354E-01 -0.354E-01
 -23.946 -0.351E-01 -0.351E-01
 -23.936 -0.347E-01 -0.347E-01
 -23.926 -0.343E-01 -0.343E-01
 -23.916 -0.339E-01 -0.339E-01
 -23.906 -0.333E-01 -0.333E-01
 -23.896 -0.328E-01 -0.328E-01
 -23.886 -0.322E-01 -0.322E-01
 -23.876 -0.316E-01 -0.316E-01
 -23.866 -0.310E-01 -0.310E-01
 -23.856 -0.303E-01 -0.303E-01
 -23.846 -0.297E-01 -0.297E-01
 -23.836 -0.290E-01 -0.290E-01
 -23.826 -0.283E-01 -0.283E-01
 -23.816 -0.275E-01 -0.275E-01
 -23.806 -0.268E-01 -0.268E-01
 -23.796 -0.261E-01 -0.261E-01
 -23.786 -0.254E-01 -0.254E-01
 -23.776 -0.246E-01 -0.246E-01
 -23.766 -0.239E-01 -0.239E-01
 -23.756 -0.231E-01 -0.231E-01
 -23.746 -0.224E-01 -0.224E-01
 -23.736 -0.217E-01 -0.217E-01
 -23.726 -0.210E-01 -0.210E-01
 -23.716 -0.202E-01 -0.202E-01
 -23.706 -0.195E-01 -0.195E-01
 -23.696 -0.188E-01 -0.188E-01
 -23.686 -0.181E-01 -0.181E-01
 -23.676 -0.175E-01 -0.175E-01
 -23.666 -0.168E-01 -0.168E-01
 -23.656 -0.162E-01 -0.162E-01
 -23.646 -0.155E-01 -0.155E-01
 -23.636 -0.149E-01 -0.149E-01
 -23.626 -0.143E-01 -0.143E-01
 -23.616 -0.137E-01 -0.137E-01
 -23.606 -0.131E-01 -0.131E-01
 -23.596 -0.126E-01 -0.126E-01
 -23.586 -0.120E-01 -0.120E-01
 -23.576 -0.115E-01 -0.115E-01
 -23.566 -0.110E-01 -0.110E-01
 -23.556 -0.105E-01 -0.105E-01
 -23.546 -0.999E-02 -0.999E-02
 -23.536 -0.952E-02 -0.952E-02
 -23.526 -0.907E-02 -0.907E-02
 -23.516 -0.864E-02 -0.864E-02
 -23.506 -0.822E-02 -0.822E-02
 -23.496 -0.781E-02 -0.781E-02
 -23.486 -0.743E-02 -0.743E-02
 -23.476 -0.705E-02 -0.705E-02
 -23.466 -0.669E-02 -0.669E-02
 -23.456 -0.635E-02 -0.635E-02
 -23.446 -0.602E-02 -0.602E-02
 -23.436 -0.570E-02 -0.570E-02
 -23.426 -0.540E-02 -0.540E-02
 -23.416 -0.511E-02 -0.511E-02
 -23.406 -0.483E-02 -0.483E-02
 -23.396 -0.456E-02 -0.456E-02
 -23.386 -0.431E-02 -0.431E-02
 -23.376 -0.407E-02 -0.407E-02
 -23.366 -0.384E-02 -0.384E-02
 -23.356 -0.362E-02 -0.362E-02
 -23.346 -0.341E-02 -0.341E-02
 -23.336 -0.321E-02 -0.321E-02
 -23.326 -0.302E-02 -0.302E-02
 -23.316 -0.285E-02 -0.285E-02
 -23.306 -0.268E-02 -0.268E-02
 -23.296 -0.251E-02 -0.251E-02
 -23.286 -0.236E-02 -0.236E-02
 -23.276 -0.222E-02 -0.222E-02
 -23.266 -0.208E-02 -0.208E-02
 -23.256 -0.195E-02 -0.195E-02
 -23.246 -0.183E-02 -0.183E-02
 -23.236 -0.171E-02 -0.171E-02
 -23.226 -0.160E-02 -0.160E-02
 -23.216 -0.150E-02 -0.150E-02
 -23.206 -0.140E-02 -0.140E-02
 -23.196 -0.131E-02 -0.131E-02
 -23.186 -0.122E-02 -0.122E-02
 -23.176 -0.114E-02 -0.114E-02
 -23.166 -0.107E-02 -0.107E-02
 -23.156 -0.993E-03 -0.993E-03
 -23.146 -0.926E-03 -0.926E-03
 -23.136 -0.862E-03 -0.862E-03
 -23.126 -0.803E-03 -0.803E-03
 -23.116 -0.747E-03 -0.747E-03
 -23.106 -0.695E-03 -0.695E-03
 -23.096 -0.646E-03 -0.646E-03
 -23.086 -0.600E-03 -0.600E-03
 -23.076 -0.558E-03 -0.558E-03
 -23.066 -0.517E-03 -0.517E-03
 -23.056 -0.480E-03 -0.480E-03
 -23.046 -0.445E-03 -0.445E-03
 -23.036 -0.413E-03 -0.413E-03
 -23.026 -0.382E-03 -0.382E-03
 -23.016 -0.354E-03 -0.354E-03
 -23.006 -0.327E-03 -0.327E-03
 -22.996 -0.303E-03 -0.303E-03
 -22.986 -0.280E-03 -0.280E-03
 -22.976 -0.259E-03 -0.259E-03
 -22.966 -0.239E-03 -0.239E-03
 -22.956 -0.220E-03 -0.220E-03
 -22.946 -0.203E-03 -0.203E-03
 -22.936 -0.188E-03 -0.188E-03
 -22.926 -0.173E-03 -0.173E-03
 -22.916 -0.159E-03 -0.159E-03
 -22.906 -0.147E-03 -0.147E-03
 -22.896 -0.135E-03 -0.135E-03
 -22.886 -0.124E-03 -0.124E-03
 -22.876 -0.114E-03 -0.114E-03
 -22.866 -0.105E-03 -0.105E-03
 -22.856 -0.964E-04 -0.964E-04
 -22.846 -0.885E-04 -0.885E-04
 -22.836 -0.813E-04 -0.813E-04
 -22.826 -0.746E-04 -0.746E-04
 -22.816 -0.684E-04 -0.684E-04
 -22.806 -0.628E-04 -0.628E-04
 -22.796 -0.576E-04 -0.576E-04
 -22.786 -0.528E-04 -0.528E-04
 -22.776 -0.484E-04 -0.484E-04
 -22.766 -0.443E-04 -0.443E-04
 -22.756 -0.406E-04 -0.406E-04
 -22.746 -0.373E-04 -0.373E-04
 -22.736 -0.342E-04 -0.342E-04
 -22.726 -0.313E-04 -0.313E-04
 -22.716 -0.288E-04 -0.288E-04
 -22.706 -0.264E-04 -0.264E-04
 -22.696 -0.243E-04 -0.243E-04
 -22.686 -0.224E-04 -0.224E-04
 -22.676 -0.206E-04 -0.206E-04
 -22.666 -0.191E-04 -0.191E-04
 -22.656 -0.176E-04 -0.176E-04
 -22.646 -0.164E-04 -0.164E-04
 -22.636 -0.153E-04 -0.153E-04
 -22.626 -0.143E-04 -0.143E-04
 -22.616 -0.134E-04 -0.134E-04
 -22.606 -0.127E-04 -0.127E-04
 -22.596 -0.121E-04 -0.121E-04
 -22.586 -0.115E-04 -0.115E-04
 -22.576 -0.111E-04 -0.111E-04
 -22.566 -0.108E-04 -0.108E-04
 -22.556 -0.105E-04 -0.105E-04
 -22.546 -0.104E-04 -0.104E-04
 -22.536 -0.103E-04 -0.103E-04
 -22.526 -0.103E-04 -0.103E-04
 -22.516 -0.105E-04 -0.105E-04
 -22.506 -0.106E-04 -0.106E-04
 -22.496 -0.109E-04 -0.109E-04
 -22.486 -0.113E-04 -0.113E-04
 -22.476 -0.117E-04 -0.117E-04
 -22.466 -0.123E-04 -0.123E-04
 -22.456 -0.129E-04 -0.129E-04
 -22.446 -0.136E-04 -0.136E-04
 -22.436 -0.144E-04 -0.144E-04
 -22.426 -0.153E-04 -0.153E-04
 -22.416 -0.163E-04 -0.163E-04
 -22.406 -0.174E-04 -0.174E-04
 -22.396 -0.186E-04 -0.186E-04
 -22.386 -0.200E-04 -0.200E-04
 -22.376 -0.214E-04 -0.214E-04
 -22.366 -0.230E-04 -0.230E-04
 -22.356 -0.247E-04 -0.247E-04
 -22.346 -0.266E-04 -0.266E-04
 -22.336 -0.286E-04 -0.286E-04
 -22.326 -0.308E-04 -0.308E-04
 -22.316 -0.331E-04 -0.331E-04
 -22.306 -0.356E-04 -0.356E-04
 -22.296 -0.383E-04 -0.383E-04
 -22.286 -0.412E-04 -0.412E-04
 -22.276 -0.443E-04 -0.443E-04
 -22.266 -0.476E-04 -0.476E-04
 -22.256 -0.512E-04 -0.512E-04
 -22.246 -0.550E-04 -0.550E-04
 -22.236 -0.590E-04 -0.590E-04
 -22.226 -0.634E-04 -0.634E-04
 -22.216 -0.680E-04 -0.680E-04
 -22.206 -0.729E-04 -0.729E-04
 -22.196 -0.782E-04 -0.782E-04
 -22.186 -0.837E-04 -0.837E-04
 -22.176 -0.897E-04 -0.897E-04
 -22.166 -0.960E-04 -0.960E-04
 -22.156 -0.103E-03 -0.103E-03
 -22.146 -0.110E-03 -0.110E-03
 -22.136 -0.117E-03 -0.117E-03
 -22.126 -0.125E-03 -0.125E-03
 -22.116 -0.134E-03 -0.134E-03
 -22.106 -0.143E-03 -0.143E-03
 -22.096 -0.152E-03 -0.152E-03
 -22.086 -0.162E-03 -0.162E-03
 -22.076 -0.173E-03 -0.173E-03
 -22.066 -0.184E-03 -0.184E-03
 -22.056 -0.196E-03 -0.196E-03
 -22.046 -0.208E-03 -0.208E-03
 -22.036 -0.221E-03 -0.221E-03
 -22.026 -0.235E-03 -0.235E-03
 -22.016 -0.250E-03 -0.250E-03
 -22.006 -0.265E-03 -0.265E-03
 -21.996 -0.281E-03 -0.281E-03
 -21.986 -0.298E-03 -0.298E-03
 -21.976 -0.315E-03 -0.315E-03
 -21.966 -0.334E-03 -0.334E-03
 -21.956 -0.353E-03 -0.353E-03
 -21.946 -0.374E-03 -0.374E-03
 -21.936 -0.395E-03 -0.395E-03
 -21.926 -0.417E-03 -0.417E-03
 -21.916 -0.440E-03 -0.440E-03
 -21.906 -0.464E-03 -0.464E-03
 -21.896 -0.489E-03 -0.489E-03
 -21.886 -0.516E-03 -0.516E-03
 -21.876 -0.543E-03 -0.543E-03
 -21.866 -0.571E-03 -0.571E-03
 -21.856 -0.601E-03 -0.601E-03
 -21.846 -0.631E-03 -0.631E-03
 -21.836 -0.663E-03 -0.663E-03
 -21.826 -0.696E-03 -0.696E-03
 -21.816 -0.730E-03 -0.730E-03
 -21.806 -0.765E-03 -0.765E-03
 -21.796 -0.802E-03 -0.802E-03
 -21.786 -0.839E-03 -0.839E-03
 -21.776 -0.878E-03 -0.878E-03
 -21.766 -0.918E-03 -0.918E-03
 -21.756 -0.959E-03 -0.959E-03
 -21.746 -0.100E-02 -0.100E-02
 -21.736 -0.104E-02 -0.104E-02
 -21.726 -0.109E-02 -0.109E-02
 -21.716 -0.113E-02 -0.113E-02
 -21.706 -0.118E-02 -0.118E-02
 -21.696 -0.123E-02 -0.123E-02
 -21.686 -0.128E-02 -0.128E-02
 -21.676 -0.132E-02 -0.132E-02
 -21.666 -0.138E-02 -0.138E-02
 -21.656 -0.143E-02 -0.143E-02
 -21.646 -0.148E-02 -0.148E-02
 -21.636 -0.153E-02 -0.153E-02
 -21.626 -0.158E-02 -0.158E-02
 -21.616 -0.164E-02 -0.164E-02
 -21.606 -0.169E-02 -0.169E-02
 -21.596 -0.174E-02 -0.174E-02
 -21.586 -0.180E-02 -0.180E-02
 -21.576 -0.185E-02 -0.185E-02
 -21.566 -0.190E-02 -0.190E-02
 -21.556 -0.196E-02 -0.196E-02
 -21.546 -0.201E-02 -0.201E-02
 -21.536 -0.206E-02 -0.206E-02
 -21.526 -0.211E-02 -0.211E-02
 -21.516 -0.216E-02 -0.216E-02
 -21.506 -0.221E-02 -0.221E-02
 -21.496 -0.226E-02 -0.226E-02
 -21.486 -0.230E-02 -0.230E-02
 -21.476 -0.235E-02 -0.235E-02
 -21.466 -0.239E-02 -0.239E-02
 -21.456 -0.243E-02 -0.243E-02
 -21.446 -0.247E-02 -0.247E-02
 -21.436 -0.250E-02 -0.250E-02
 -21.426 -0.253E-02 -0.253E-02
 -21.416 -0.256E-02 -0.256E-02
 -21.406 -0.258E-02 -0.258E-02
 -21.396 -0.260E-02 -0.260E-02
 -21.386 -0.261E-02 -0.261E-02
 -21.376 -0.262E-02 -0.262E-02
 -21.366 -0.263E-02 -0.263E-02
 -21.356 -0.263E-02 -0.263E-02
 -21.346 -0.262E-02 -0.262E-02
 -21.336 -0.261E-02 -0.261E-02
 -21.326 -0.259E-02 -0.259E-02
 -21.316 -0.256E-02 -0.256E-02
 -21.306 -0.253E-02 -0.253E-02
 -21.296 -0.249E-02 -0.249E-02
 -21.286 -0.243E-02 -0.243E-02
 -21.276 -0.238E-02 -0.238E-02
 -21.266 -0.231E-02 -0.231E-02
 -21.256 -0.223E-02 -0.223E-02
 -21.246 -0.214E-02 -0.214E-02
 -21.236 -0.204E-02 -0.204E-02
 -21.226 -0.194E-02 -0.194E-02
 -21.216 -0.182E-02 -0.182E-02
 -21.206 -0.168E-02 -0.168E-02
 -21.196 -0.154E-02 -0.154E-02
 -21.186 -0.139E-02 -0.139E-02
 -21.176 -0.122E-02 -0.122E-02
 -21.166 -0.104E-02 -0.104E-02
 -21.156 -0.840E-03 -0.840E-03
 -21.146 -0.631E-03 -0.631E-03
 -21.136 -0.407E-03 -0.407E-03
 -21.126 -0.169E-03 -0.169E-03
 -21.116  0.837E-04  0.837E-04
 -21.106  0.352E-03  0.352E-03
 -21.096  0.636E-03  0.636E-03
 -21.086  0.936E-03  0.936E-03
 -21.076  0.125E-02  0.125E-02
 -21.066  0.158E-02  0.158E-02
 -21.056  0.193E-02  0.193E-02
 -21.046  0.230E-02  0.230E-02
 -21.036  0.268E-02  0.268E-02
 -21.026  0.308E-02  0.308E-02
 -21.016  0.350E-02  0.350E-02
 -21.006  0.393E-02  0.393E-02
 -20.996  0.438E-02  0.438E-02
 -20.986  0.485E-02  0.485E-02
 -20.976  0.533E-02  0.533E-02
 -20.966  0.583E-02  0.583E-02
 -20.956  0.635E-02  0.635E-02
 -20.946  0.689E-02  0.689E-02
 -20.936  0.744E-02  0.744E-02
 -20.926  0.801E-02  0.801E-02
 -20.916  0.860E-02  0.860E-02
 -20.906  0.920E-02  0.920E-02
 -20.896  0.981E-02  0.981E-02
 -20.886  0.104E-01  0.104E-01
 -20.876  0.111E-01  0.111E-01
 -20.866  0.118E-01  0.118E-01
 -20.856  0.124E-01  0.124E-01
 -20.846  0.131E-01  0.131E-01
 -20.836  0.138E-01  0.138E-01
 -20.826  0.145E-01  0.145E-01
 -20.816  0.152E-01  0.152E-01
 -20.806  0.160E-01  0.160E-01
 -20.796  0.167E-01  0.167E-01
 -20.786  0.175E-01  0.175E-01
 -20.776  0.182E-01  0.182E-01
 -20.766  0.190E-01  0.190E-01
 -20.756  0.198E-01  0.198E-01
 -20.746  0.206E-01  0.206E-01
 -20.736  0.213E-01  0.213E-01
 -20.726  0.221E-01  0.221E-01
 -20.716  0.229E-01  0.229E-01
 -20.706  0.237E-01  0.237E-01
 -20.696  0.245E-01  0.245E-01
 -20.686  0.253E-01  0.253E-01
 -20.676  0.260E-01  0.260E-01
 -20.666  0.268E-01  0.268E-01
 -20.656  0.276E-01  0.276E-01
 -20.646  0.284E-01  0.284E-01
 -20.636  0.291E-01  0.291E-01
 -20.626  0.299E-01  0.299E-01
 -20.616  0.306E-01  0.306E-01
 -20.606  0.313E-01  0.313E-01
 -20.596  0.321E-01  0.321E-01
 -20.586  0.328E-01  0.328E-01
 -20.576  0.335E-01  0.335E-01
 -20.566  0.341E-01  0.341E-01
 -20.556  0.348E-01  0.348E-01
 -20.546  0.354E-01  0.354E-01
 -20.536  0.360E-01  0.360E-01
 -20.526  0.366E-01  0.366E-01
 -20.516  0.372E-01  0.372E-01
 -20.506  0.377E-01  0.377E-01
 -20.496  0.383E-01  0.383E-01
 -20.486  0.388E-01  0.388E-01
 -20.476  0.392E-01  0.392E-01
 -20.466  0.397E-01  0.397E-01
 -20.456  0.401E-01  0.401E-01
 -20.446  0.405E-01  0.405E-01
 -20.436  0.408E-01  0.408E-01
 -20.426  0.411E-01  0.411E-01
 -20.416  0.414E-01  0.414E-01
 -20.406  0.417E-01  0.417E-01
 -20.396  0.419E-01  0.419E-01
 -20.386  0.421E-01  0.421E-01
 -20.376  0.422E-01  0.422E-01
 -20.366  0.424E-01  0.424E-01
 -20.356  0.425E-01  0.425E-01
 -20.346  0.425E-01  0.425E-01
 -20.336  0.425E-01  0.425E-01
 -20.326  0.425E-01  0.425E-01
 -20.316  0.425E-01  0.425E-01
 -20.306  0.424E-01  0.424E-01
 -20.296  0.422E-01  0.422E-01
 -20.286  0.421E-01  0.421E-01
 -20.276  0.419E-01  0.419E-01
 -20.266  0.417E-01  0.417E-01
 -20.256  0.414E-01  0.414E-01
 -20.246  0.411E-01  0.411E-01
 -20.236  0.408E-01  0.408E-01
 -20.226  0.405E-01  0.405E-01
 -20.216  0.401E-01  0.401E-01
 -20.206  0.397E-01  0.397E-01
 -20.196  0.393E-01  0.393E-01
 -20.186  0.388E-01  0.388E-01
 -20.176  0.383E-01  0.383E-01
 -20.166  0.378E-01  0.378E-01
 -20.156  0.373E-01  0.373E-01
 -20.146  0.367E-01  0.367E-01
 -20.136  0.362E-01  0.362E-01
 -20.126  0.356E-01  0.356E-01
 -20.116  0.350E-01  0.350E-01
 -20.106  0.344E-01  0.344E-01
 -20.096  0.338E-01  0.338E-01
 -20.086  0.332E-01  0.332E-01
 -20.076  0.325E-01  0.325E-01
 -20.066  0.319E-01  0.319E-01
 -20.056  0.313E-01  0.313E-01
 -20.046  0.306E-01  0.306E-01
 -20.036  0.300E-01  0.300E-01
 -20.026  0.294E-01  0.294E-01
 -20.016  0.288E-01  0.288E-01
 -20.006  0.282E-01  0.282E-01
 -19.996  0.276E-01  0.276E-01
 -19.986  0.270E-01  0.270E-01
 -19.976  0.264E-01  0.264E-01
 -19.966  0.259E-01  0.259E-01
 -19.956  0.254E-01  0.254E-01
 -19.946  0.249E-01  0.249E-01
 -19.936  0.244E-01  0.244E-01
 -19.926  0.240E-01  0.240E-01
 -19.916  0.236E-01  0.236E-01
 -19.906  0.232E-01  0.232E-01
 -19.896  0.229E-01  0.229E-01
 -19.886  0.226E-01  0.226E-01
 -19.876  0.224E-01  0.224E-01
 -19.866  0.222E-01  0.222E-01
 -19.856  0.220E-01  0.220E-01
 -19.846  0.219E-01  0.219E-01
 -19.836  0.219E-01  0.219E-01
 -19.826  0.219E-01  0.219E-01
 -19.816  0.220E-01  0.220E-01
 -19.806  0.221E-01  0.221E-01
 -19.796  0.223E-01  0.223E-01
 -19.786  0.225E-01  0.225E-01
 -19.776  0.228E-01  0.228E-01
 -19.766  0.232E-01  0.232E-01
 -19.756  0.236E-01  0.236E-01
 -19.746  0.241E-01  0.241E-01
 -19.736  0.247E-01  0.247E-01
 -19.726  0.253E-01  0.253E-01
 -19.716  0.260E-01  0.260E-01
 -19.706  0.268E-01  0.268E-01
 -19.696  0.276E-01  0.276E-01
 -19.686  0.286E-01  0.286E-01
 -19.676  0.295E-01  0.295E-01
 -19.666  0.306E-01  0.306E-01
 -19.656  0.317E-01  0.317E-01
 -19.646  0.329E-01  0.329E-01
 -19.636  0.342E-01  0.342E-01
 -19.626  0.355E-01  0.355E-01
 -19.616  0.370E-01  0.370E-01
 -19.606  0.384E-01  0.384E-01
 -19.596  0.400E-01  0.400E-01
 -19.586  0.416E-01  0.416E-01
 -19.576  0.433E-01  0.433E-01
 -19.566  0.450E-01  0.450E-01
 -19.556  0.468E-01  0.468E-01
 -19.546  0.487E-01  0.487E-01
 -19.536  0.506E-01  0.506E-01
 -19.526  0.526E-01  0.526E-01
 -19.516  0.546E-01  0.546E-01
 -19.506  0.567E-01  0.567E-01
 -19.496  0.588E-01  0.588E-01
 -19.486  0.610E-01  0.610E-01
 -19.476  0.632E-01  0.632E-01
 -19.466  0.655E-01  0.655E-01
 -19.456  0.678E-01  0.678E-01
 -19.446  0.701E-01  0.701E-01
 -19.436  0.724E-01  0.724E-01
 -19.426  0.748E-01  0.748E-01
 -19.416  0.772E-01  0.772E-01
 -19.406  0.796E-01  0.796E-01
 -19.396  0.821E-01  0.821E-01
 -19.386  0.845E-01  0.845E-01
 -19.376  0.870E-01  0.870E-01
 -19.366  0.894E-01  0.894E-01
 -19.356  0.919E-01  0.919E-01
 -19.346  0.943E-01  0.943E-01
 -19.336  0.968E-01  0.968E-01
 -19.326  0.992E-01  0.992E-01
 -19.316  0.102E+00  0.102E+00
 -19.306  0.104E+00  0.104E+00
 -19.296  0.106E+00  0.106E+00
 -19.286  0.109E+00  0.109E+00
 -19.276  0.111E+00  0.111E+00
 -19.266  0.113E+00  0.113E+00
 -19.256  0.115E+00  0.115E+00
 -19.246  0.118E+00  0.118E+00
 -19.236  0.120E+00  0.120E+00
 -19.226  0.122E+00  0.122E+00
 -19.216  0.124E+00  0.124E+00
 -19.206  0.126E+00  0.126E+00
 -19.196  0.128E+00  0.128E+00
 -19.186  0.129E+00  0.129E+00
 -19.176  0.131E+00  0.131E+00
 -19.166  0.133E+00  0.133E+00
 -19.156  0.134E+00  0.134E+00
 -19.146  0.136E+00  0.136E+00
 -19.136  0.137E+00  0.137E+00
 -19.126  0.139E+00  0.139E+00
 -19.116  0.140E+00  0.140E+00
 -19.106  0.141E+00  0.141E+00
 -19.096  0.142E+00  0.142E+00
 -19.086  0.143E+00  0.143E+00
 -19.076  0.144E+00  0.144E+00
 -19.066  0.145E+00  0.145E+00
 -19.056  0.145E+00  0.145E+00
 -19.046  0.146E+00  0.146E+00
 -19.036  0.146E+00  0.146E+00
 -19.026  0.147E+00  0.147E+00
 -19.016  0.147E+00  0.147E+00
 -19.006  0.147E+00  0.147E+00
 -18.996  0.147E+00  0.147E+00
 -18.986  0.147E+00  0.147E+00
 -18.976  0.147E+00  0.147E+00
 -18.966  0.146E+00  0.146E+00
 -18.956  0.146E+00  0.146E+00
 -18.946  0.145E+00  0.145E+00
 -18.936  0.145E+00  0.145E+00
 -18.926  0.144E+00  0.144E+00
 -18.916  0.143E+00  0.143E+00
 -18.906  0.142E+00  0.142E+00
 -18.896  0.141E+00  0.141E+00
 -18.886  0.140E+00  0.140E+00
 -18.876  0.139E+00  0.139E+00
 -18.866  0.137E+00  0.137E+00
 -18.856  0.136E+00  0.136E+00
 -18.846  0.134E+00  0.134E+00
 -18.836  0.133E+00  0.133E+00
 -18.826  0.131E+00  0.131E+00
 -18.816  0.129E+00  0.129E+00
 -18.806  0.128E+00  0.128E+00
 -18.796  0.126E+00  0.126E+00
 -18.786  0.124E+00  0.124E+00
 -18.776  0.122E+00  0.122E+00
 -18.766  0.119E+00  0.119E+00
 -18.756  0.117E+00  0.117E+00
 -18.746  0.115E+00  0.115E+00
 -18.736  0.113E+00  0.113E+00
 -18.726  0.110E+00  0.110E+00
 -18.716  0.108E+00  0.108E+00
 -18.706  0.106E+00  0.106E+00
 -18.696  0.103E+00  0.103E+00
 -18.686  0.101E+00  0.101E+00
 -18.676  0.980E-01  0.980E-01
 -18.666  0.954E-01  0.954E-01
 -18.656  0.928E-01  0.928E-01
 -18.646  0.902E-01  0.902E-01
 -18.636  0.875E-01  0.875E-01
 -18.626  0.849E-01  0.849E-01
 -18.616  0.822E-01  0.822E-01
 -18.606  0.795E-01  0.795E-01
 -18.596  0.768E-01  0.768E-01
 -18.586  0.741E-01  0.741E-01
 -18.576  0.714E-01  0.714E-01
 -18.566  0.687E-01  0.687E-01
 -18.556  0.660E-01  0.660E-01
 -18.546  0.634E-01  0.634E-01
 -18.536  0.607E-01  0.607E-01
 -18.526  0.581E-01  0.581E-01
 -18.516  0.555E-01  0.555E-01
 -18.506  0.529E-01  0.529E-01
 -18.496  0.503E-01  0.503E-01
 -18.486  0.477E-01  0.477E-01
 -18.476  0.452E-01  0.452E-01
 -18.466  0.427E-01  0.427E-01
 -18.456  0.402E-01  0.402E-01
 -18.446  0.378E-01  0.378E-01
 -18.436  0.354E-01  0.354E-01
 -18.426  0.331E-01  0.331E-01
 -18.416  0.308E-01  0.308E-01
 -18.406  0.285E-01  0.285E-01
 -18.396  0.263E-01  0.263E-01
 -18.386  0.241E-01  0.241E-01
 -18.376  0.219E-01  0.219E-01
 -18.366  0.198E-01  0.198E-01
 -18.356  0.178E-01  0.178E-01
 -18.346  0.158E-01  0.158E-01
 -18.336  0.138E-01  0.138E-01
 -18.326  0.119E-01  0.119E-01
 -18.316  0.100E-01  0.100E-01
 -18.306  0.819E-02  0.819E-02
 -18.296  0.642E-02  0.642E-02
 -18.286  0.469E-02  0.469E-02
 -18.276  0.302E-02  0.302E-02
 -18.266  0.140E-02  0.140E-02
 -18.256 -0.178E-03 -0.178E-03
 -18.246 -0.170E-02 -0.170E-02
 -18.236 -0.318E-02 -0.318E-02
 -18.226 -0.461E-02 -0.461E-02
 -18.216 -0.599E-02 -0.599E-02
 -18.206 -0.732E-02 -0.732E-02
 -18.196 -0.860E-02 -0.860E-02
 -18.186 -0.983E-02 -0.983E-02
 -18.176 -0.110E-01 -0.110E-01
 -18.166 -0.121E-01 -0.121E-01
 -18.156 -0.132E-01 -0.132E-01
 -18.146 -0.143E-01 -0.143E-01
 -18.136 -0.153E-01 -0.153E-01
 -18.126 -0.162E-01 -0.162E-01
 -18.116 -0.171E-01 -0.171E-01
 -18.106 -0.180E-01 -0.180E-01
 -18.096 -0.188E-01 -0.188E-01
 -18.086 -0.195E-01 -0.195E-01
 -18.076 -0.202E-01 -0.202E-01
 -18.066 -0.209E-01 -0.209E-01
 -18.056 -0.215E-01 -0.215E-01
 -18.046 -0.221E-01 -0.221E-01
 -18.036 -0.226E-01 -0.226E-01
 -18.026 -0.230E-01 -0.230E-01
 -18.016 -0.234E-01 -0.234E-01
 -18.006 -0.238E-01 -0.238E-01
 -17.996 -0.241E-01 -0.241E-01
 -17.986 -0.244E-01 -0.244E-01
 -17.976 -0.246E-01 -0.246E-01
 -17.966 -0.247E-01 -0.247E-01
 -17.956 -0.248E-01 -0.248E-01
 -17.946 -0.249E-01 -0.249E-01
 -17.936 -0.249E-01 -0.249E-01
 -17.926 -0.248E-01 -0.248E-01
 -17.916 -0.247E-01 -0.247E-01
 -17.906 -0.245E-01 -0.245E-01
 -17.896 -0.242E-01 -0.242E-01
 -17.886 -0.239E-01 -0.239E-01
 -17.876 -0.235E-01 -0.235E-01
 -17.866 -0.231E-01 -0.231E-01
 -17.856 -0.226E-01 -0.226E-01
 -17.846 -0.220E-01 -0.220E-01
 -17.836 -0.213E-01 -0.213E-01
 -17.826 -0.206E-01 -0.206E-01
 -17.816 -0.198E-01 -0.198E-01
 -17.806 -0.189E-01 -0.189E-01
 -17.796 -0.179E-01 -0.179E-01
 -17.786 -0.169E-01 -0.169E-01
 -17.776 -0.157E-01 -0.157E-01
 -17.766 -0.145E-01 -0.145E-01
 -17.756 -0.132E-01 -0.132E-01
 -17.746 -0.118E-01 -0.118E-01
 -17.736 -0.103E-01 -0.103E-01
 -17.726 -0.873E-02 -0.873E-02
 -17.716 -0.705E-02 -0.705E-02
 -17.706 -0.528E-02 -0.528E-02
 -17.696 -0.340E-02 -0.340E-02
 -17.686 -0.143E-02 -0.143E-02
 -17.676  0.647E-03  0.647E-03
 -17.666  0.283E-02  0.283E-02
 -17.656  0.511E-02  0.511E-02
 -17.646  0.750E-02  0.750E-02
 -17.636  0.100E-01  0.100E-01
 -17.626  0.126E-01  0.126E-01
 -17.616  0.153E-01  0.153E-01
 -17.606  0.181E-01  0.181E-01
 -17.596  0.211E-01  0.211E-01
 -17.586  0.241E-01  0.241E-01
 -17.576  0.273E-01  0.273E-01
 -17.566  0.306E-01  0.306E-01
 -17.556  0.339E-01  0.339E-01
 -17.546  0.374E-01  0.374E-01
 -17.536  0.410E-01  0.410E-01
 -17.526  0.447E-01  0.447E-01
 -17.516  0.485E-01  0.485E-01
 -17.506  0.525E-01  0.525E-01
 -17.496  0.565E-01  0.565E-01
 -17.486  0.606E-01  0.606E-01
 -17.476  0.648E-01  0.648E-01
 -17.466  0.692E-01  0.692E-01
 -17.456  0.736E-01  0.736E-01
 -17.446  0.781E-01  0.781E-01
 -17.436  0.827E-01  0.827E-01
 -17.426  0.874E-01  0.874E-01
 -17.416  0.922E-01  0.922E-01
 -17.406  0.970E-01  0.970E-01
 -17.396  0.102E+00  0.102E+00
 -17.386  0.107E+00  0.107E+00
 -17.376  0.112E+00  0.112E+00
 -17.366  0.117E+00  0.117E+00
 -17.356  0.122E+00  0.122E+00
 -17.346  0.128E+00  0.128E+00
 -17.336  0.133E+00  0.133E+00
 -17.326  0.138E+00  0.138E+00
 -17.316  0.144E+00  0.144E+00
 -17.306  0.149E+00  0.149E+00
 -17.296  0.154E+00  0.154E+00
 -17.286  0.160E+00  0.160E+00
 -17.276  0.165E+00  0.165E+00
 -17.266  0.171E+00  0.171E+00
 -17.256  0.176E+00  0.176E+00
 -17.246  0.181E+00  0.181E+00
 -17.236  0.187E+00  0.187E+00
 -17.226  0.192E+00  0.192E+00
 -17.216  0.197E+00  0.197E+00
 -17.206  0.203E+00  0.203E+00
 -17.196  0.208E+00  0.208E+00
 -17.186  0.213E+00  0.213E+00
 -17.176  0.218E+00  0.218E+00
 -17.166  0.223E+00  0.223E+00
 -17.156  0.228E+00  0.228E+00
 -17.146  0.233E+00  0.233E+00
 -17.136  0.238E+00  0.238E+00
 -17.126  0.242E+00  0.242E+00
 -17.116  0.247E+00  0.247E+00
 -17.106  0.251E+00  0.251E+00
 -17.096  0.256E+00  0.256E+00
 -17.086  0.260E+00  0.260E+00
 -17.076  0.264E+00  0.264E+00
 -17.066  0.268E+00  0.268E+00
 -17.056  0.271E+00  0.271E+00
 -17.046  0.275E+00  0.275E+00
 -17.036  0.278E+00  0.278E+00
 -17.026  0.282E+00  0.282E+00
 -17.016  0.285E+00  0.285E+00
 -17.006  0.287E+00  0.287E+00
 -16.996  0.290E+00  0.290E+00
 -16.986  0.293E+00  0.293E+00
 -16.976  0.295E+00  0.295E+00
 -16.966  0.297E+00  0.297E+00
 -16.956  0.299E+00  0.299E+00
 -16.946  0.301E+00  0.301E+00
 -16.936  0.302E+00  0.302E+00
 -16.926  0.303E+00  0.303E+00
 -16.916  0.304E+00  0.304E+00
 -16.906  0.305E+00  0.305E+00
 -16.896  0.306E+00  0.306E+00
 -16.886  0.306E+00  0.306E+00
 -16.876  0.306E+00  0.306E+00
 -16.866  0.306E+00  0.306E+00
 -16.856  0.306E+00  0.306E+00
 -16.846  0.305E+00  0.305E+00
 -16.836  0.305E+00  0.305E+00
 -16.826  0.304E+00  0.304E+00
 -16.816  0.303E+00  0.303E+00
 -16.806  0.301E+00  0.301E+00
 -16.796  0.300E+00  0.300E+00
 -16.786  0.298E+00  0.298E+00
 -16.776  0.296E+00  0.296E+00
 -16.766  0.294E+00  0.294E+00
 -16.756  0.291E+00  0.291E+00
 -16.746  0.289E+00  0.289E+00
 -16.736  0.286E+00  0.286E+00
 -16.726  0.283E+00  0.283E+00
 -16.716  0.280E+00  0.280E+00
 -16.706  0.277E+00  0.277E+00
 -16.696  0.273E+00  0.273E+00
 -16.686  0.270E+00  0.270E+00
 -16.676  0.266E+00  0.266E+00
 -16.666  0.262E+00  0.262E+00
 -16.656  0.258E+00  0.258E+00
 -16.646  0.254E+00  0.254E+00
 -16.636  0.250E+00  0.250E+00
 -16.626  0.245E+00  0.245E+00
 -16.616  0.241E+00  0.241E+00
 -16.606  0.236E+00  0.236E+00
 -16.596  0.231E+00  0.231E+00
 -16.586  0.226E+00  0.226E+00
 -16.576  0.221E+00  0.221E+00
 -16.566  0.216E+00  0.216E+00
 -16.556  0.211E+00  0.211E+00
 -16.546  0.206E+00  0.206E+00
 -16.536  0.201E+00  0.201E+00
 -16.526  0.196E+00  0.196E+00
 -16.516  0.191E+00  0.191E+00
 -16.506  0.185E+00  0.185E+00
 -16.496  0.180E+00  0.180E+00
 -16.486  0.175E+00  0.175E+00
 -16.476  0.169E+00  0.169E+00
 -16.466  0.164E+00  0.164E+00
 -16.456  0.159E+00  0.159E+00
 -16.446  0.154E+00  0.154E+00
 -16.436  0.148E+00  0.148E+00
 -16.426  0.143E+00  0.143E+00
 -16.416  0.138E+00  0.138E+00
 -16.406  0.133E+00  0.133E+00
 -16.396  0.128E+00  0.128E+00
 -16.386  0.122E+00  0.122E+00
 -16.376  0.117E+00  0.117E+00
 -16.366  0.112E+00  0.112E+00
 -16.356  0.108E+00  0.108E+00
 -16.346  0.103E+00  0.103E+00
 -16.336  0.980E-01  0.980E-01
 -16.326  0.933E-01  0.933E-01
 -16.316  0.887E-01  0.887E-01
 -16.306  0.843E-01  0.843E-01
 -16.296  0.799E-01  0.799E-01
 -16.286  0.755E-01  0.755E-01
 -16.276  0.713E-01  0.713E-01
 -16.266  0.672E-01  0.672E-01
 -16.256  0.632E-01  0.632E-01
 -16.246  0.593E-01  0.593E-01
 -16.236  0.555E-01  0.555E-01
 -16.226  0.518E-01  0.518E-01
 -16.216  0.482E-01  0.482E-01
 -16.206  0.448E-01  0.448E-01
 -16.196  0.414E-01  0.414E-01
 -16.186  0.381E-01  0.381E-01
 -16.176  0.350E-01  0.350E-01
 -16.166  0.320E-01  0.320E-01
 -16.156  0.291E-01  0.291E-01
 -16.146  0.263E-01  0.263E-01
 -16.136  0.236E-01  0.236E-01
 -16.126  0.210E-01  0.210E-01
 -16.116  0.185E-01  0.185E-01
 -16.106  0.161E-01  0.161E-01
 -16.096  0.139E-01  0.139E-01
 -16.086  0.117E-01  0.117E-01
 -16.076  0.967E-02  0.967E-02
 -16.066  0.772E-02  0.772E-02
 -16.056  0.587E-02  0.587E-02
 -16.046  0.413E-02  0.413E-02
 -16.036  0.247E-02  0.247E-02
 -16.026  0.917E-03  0.917E-03
 -16.016 -0.548E-03 -0.548E-03
 -16.006 -0.192E-02 -0.192E-02
 -15.996 -0.321E-02 -0.321E-02
 -15.986 -0.441E-02 -0.441E-02
 -15.976 -0.553E-02 -0.553E-02
 -15.966 -0.657E-02 -0.657E-02
 -15.956 -0.753E-02 -0.753E-02
 -15.946 -0.841E-02 -0.841E-02
 -15.936 -0.923E-02 -0.923E-02
 -15.926 -0.997E-02 -0.997E-02
 -15.916 -0.106E-01 -0.106E-01
 -15.906 -0.113E-01 -0.113E-01
 -15.896 -0.118E-01 -0.118E-01
 -15.886 -0.123E-01 -0.123E-01
 -15.876 -0.127E-01 -0.127E-01
 -15.866 -0.131E-01 -0.131E-01
 -15.856 -0.134E-01 -0.134E-01
 -15.846 -0.137E-01 -0.137E-01
 -15.836 -0.140E-01 -0.140E-01
 -15.826 -0.142E-01 -0.142E-01
 -15.816 -0.143E-01 -0.143E-01
 -15.806 -0.144E-01 -0.144E-01
 -15.796 -0.145E-01 -0.145E-01
 -15.786 -0.145E-01 -0.145E-01
 -15.776 -0.145E-01 -0.145E-01
 -15.766 -0.145E-01 -0.145E-01
 -15.756 -0.145E-01 -0.145E-01
 -15.746 -0.144E-01 -0.144E-01
 -15.736 -0.143E-01 -0.143E-01
 -15.726 -0.142E-01 -0.142E-01
 -15.716 -0.141E-01 -0.141E-01
 -15.706 -0.139E-01 -0.139E-01
 -15.696 -0.137E-01 -0.137E-01
 -15.686 -0.136E-01 -0.136E-01
 -15.676 -0.134E-01 -0.134E-01
 -15.666 -0.132E-01 -0.132E-01
 -15.656 -0.129E-01 -0.129E-01
 -15.646 -0.127E-01 -0.127E-01
 -15.636 -0.125E-01 -0.125E-01
 -15.626 -0.123E-01 -0.123E-01
 -15.616 -0.120E-01 -0.120E-01
 -15.606 -0.118E-01 -0.118E-01
 -15.596 -0.115E-01 -0.115E-01
 -15.586 -0.113E-01 -0.113E-01
 -15.576 -0.110E-01 -0.110E-01
 -15.566 -0.108E-01 -0.108E-01
 -15.556 -0.106E-01 -0.106E-01
 -15.546 -0.103E-01 -0.103E-01
 -15.536 -0.101E-01 -0.101E-01
 -15.526 -0.988E-02 -0.988E-02
 -15.516 -0.966E-02 -0.966E-02
 -15.506 -0.944E-02 -0.944E-02
 -15.496 -0.923E-02 -0.923E-02
 -15.486 -0.903E-02 -0.903E-02
 -15.476 -0.884E-02 -0.884E-02
 -15.466 -0.865E-02 -0.865E-02
 -15.456 -0.847E-02 -0.847E-02
 -15.446 -0.830E-02 -0.830E-02
 -15.436 -0.815E-02 -0.815E-02
 -15.426 -0.800E-02 -0.800E-02
 -15.416 -0.786E-02 -0.786E-02
 -15.406 -0.773E-02 -0.773E-02
 -15.396 -0.761E-02 -0.761E-02
 -15.386 -0.750E-02 -0.750E-02
 -15.376 -0.740E-02 -0.740E-02
 -15.366 -0.731E-02 -0.731E-02
 -15.356 -0.724E-02 -0.724E-02
 -15.346 -0.717E-02 -0.717E-02
 -15.336 -0.711E-02 -0.711E-02
 -15.326 -0.707E-02 -0.707E-02
 -15.316 -0.704E-02 -0.704E-02
 -15.306 -0.702E-02 -0.702E-02
 -15.296 -0.700E-02 -0.700E-02
 -15.286 -0.700E-02 -0.700E-02
 -15.276 -0.701E-02 -0.701E-02
 -15.266 -0.704E-02 -0.704E-02
 -15.256 -0.707E-02 -0.707E-02
 -15.246 -0.711E-02 -0.711E-02
 -15.236 -0.716E-02 -0.716E-02
 -15.226 -0.722E-02 -0.722E-02
 -15.216 -0.729E-02 -0.729E-02
 -15.206 -0.737E-02 -0.737E-02
 -15.196 -0.746E-02 -0.746E-02
 -15.186 -0.756E-02 -0.756E-02
 -15.176 -0.767E-02 -0.767E-02
 -15.166 -0.778E-02 -0.778E-02
 -15.156 -0.790E-02 -0.790E-02
 -15.146 -0.803E-02 -0.803E-02
 -15.136 -0.816E-02 -0.816E-02
 -15.126 -0.830E-02 -0.830E-02
 -15.116 -0.845E-02 -0.845E-02
 -15.106 -0.860E-02 -0.860E-02
 -15.096 -0.876E-02 -0.876E-02
 -15.086 -0.892E-02 -0.892E-02
 -15.076 -0.908E-02 -0.908E-02
 -15.066 -0.924E-02 -0.924E-02
 -15.056 -0.941E-02 -0.941E-02
 -15.046 -0.957E-02 -0.957E-02
 -15.036 -0.974E-02 -0.974E-02
 -15.026 -0.990E-02 -0.990E-02
 -15.016 -0.101E-01 -0.101E-01
 -15.006 -0.102E-01 -0.102E-01
 -14.996 -0.104E-01 -0.104E-01
 -14.986 -0.105E-01 -0.105E-01
 -14.976 -0.107E-01 -0.107E-01
 -14.966 -0.108E-01 -0.108E-01
 -14.956 -0.109E-01 -0.109E-01
 -14.946 -0.111E-01 -0.111E-01
 -14.936 -0.112E-01 -0.112E-01
 -14.926 -0.113E-01 -0.113E-01
 -14.916 -0.113E-01 -0.113E-01
 -14.906 -0.114E-01 -0.114E-01
 -14.896 -0.115E-01 -0.115E-01
 -14.886 -0.115E-01 -0.115E-01
 -14.876 -0.115E-01 -0.115E-01
 -14.866 -0.115E-01 -0.115E-01
 -14.856 -0.115E-01 -0.115E-01
 -14.846 -0.114E-01 -0.114E-01
 -14.836 -0.113E-01 -0.113E-01
 -14.826 -0.112E-01 -0.112E-01
 -14.816 -0.111E-01 -0.111E-01
 -14.806 -0.109E-01 -0.109E-01
 -14.796 -0.107E-01 -0.107E-01
 -14.786 -0.104E-01 -0.104E-01
 -14.776 -0.102E-01 -0.102E-01
 -14.766 -0.986E-02 -0.986E-02
 -14.756 -0.950E-02 -0.950E-02
 -14.746 -0.911E-02 -0.911E-02
 -14.736 -0.867E-02 -0.867E-02
 -14.726 -0.818E-02 -0.818E-02
 -14.716 -0.765E-02 -0.765E-02
 -14.706 -0.706E-02 -0.706E-02
 -14.696 -0.643E-02 -0.643E-02
 -14.686 -0.574E-02 -0.574E-02
 -14.676 -0.500E-02 -0.500E-02
 -14.666 -0.420E-02 -0.420E-02
 -14.656 -0.334E-02 -0.334E-02
 -14.646 -0.243E-02 -0.243E-02
 -14.636 -0.145E-02 -0.145E-02
 -14.626 -0.410E-03 -0.410E-03
 -14.616  0.694E-03  0.694E-03
 -14.606  0.186E-02  0.186E-02
 -14.596  0.310E-02  0.310E-02
 -14.586  0.441E-02  0.441E-02
 -14.576  0.578E-02  0.578E-02
 -14.566  0.723E-02  0.723E-02
 -14.556  0.875E-02  0.875E-02
 -14.546  0.103E-01  0.103E-01
 -14.536  0.120E-01  0.120E-01
 -14.526  0.137E-01  0.137E-01
 -14.516  0.156E-01  0.156E-01
 -14.506  0.174E-01  0.174E-01
 -14.496  0.194E-01  0.194E-01
 -14.486  0.214E-01  0.214E-01
 -14.476  0.235E-01  0.235E-01
 -14.466  0.257E-01  0.257E-01
 -14.456  0.280E-01  0.280E-01
 -14.446  0.303E-01  0.303E-01
 -14.436  0.327E-01  0.327E-01
 -14.426  0.352E-01  0.352E-01
 -14.416  0.378E-01  0.378E-01
 -14.406  0.404E-01  0.404E-01
 -14.396  0.431E-01  0.431E-01
 -14.386  0.459E-01  0.459E-01
 -14.376  0.487E-01  0.487E-01
 -14.366  0.516E-01  0.516E-01
 -14.356  0.545E-01  0.545E-01
 -14.346  0.576E-01  0.576E-01
 -14.336  0.606E-01  0.606E-01
 -14.326  0.638E-01  0.638E-01
 -14.316  0.670E-01  0.670E-01
 -14.306  0.702E-01  0.702E-01
 -14.296  0.735E-01  0.735E-01
 -14.286  0.768E-01  0.768E-01
 -14.276  0.802E-01  0.802E-01
 -14.266  0.836E-01  0.836E-01
 -14.256  0.870E-01  0.870E-01
 -14.246  0.905E-01  0.905E-01
 -14.236  0.940E-01  0.940E-01
 -14.226  0.975E-01  0.975E-01
 -14.216  0.101E+00  0.101E+00
 -14.206  0.105E+00  0.105E+00
 -14.196  0.108E+00  0.108E+00
 -14.186  0.112E+00  0.112E+00
 -14.176  0.115E+00  0.115E+00
 -14.166  0.119E+00  0.119E+00
 -14.156  0.122E+00  0.122E+00
 -14.146  0.126E+00  0.126E+00
 -14.136  0.129E+00  0.129E+00
 -14.126  0.133E+00  0.133E+00
 -14.116  0.136E+00  0.136E+00
 -14.106  0.140E+00  0.140E+00
 -14.096  0.143E+00  0.143E+00
 -14.086  0.146E+00  0.146E+00
 -14.076  0.150E+00  0.150E+00
 -14.066  0.153E+00  0.153E+00
 -14.056  0.156E+00  0.156E+00
 -14.046  0.159E+00  0.159E+00
 -14.036  0.162E+00  0.162E+00
 -14.026  0.165E+00  0.165E+00
 -14.016  0.168E+00  0.168E+00
 -14.006  0.171E+00  0.171E+00
 -13.996  0.173E+00  0.173E+00
 -13.986  0.176E+00  0.176E+00
 -13.976  0.178E+00  0.178E+00
 -13.966  0.181E+00  0.181E+00
 -13.956  0.183E+00  0.183E+00
 -13.946  0.185E+00  0.185E+00
 -13.936  0.187E+00  0.187E+00
 -13.926  0.189E+00  0.189E+00
 -13.916  0.191E+00  0.191E+00
 -13.906  0.193E+00  0.193E+00
 -13.896  0.194E+00  0.194E+00
 -13.886  0.196E+00  0.196E+00
 -13.876  0.197E+00  0.197E+00
 -13.866  0.198E+00  0.198E+00
 -13.856  0.199E+00  0.199E+00
 -13.846  0.200E+00  0.200E+00
 -13.836  0.201E+00  0.201E+00
 -13.826  0.202E+00  0.202E+00
 -13.816  0.202E+00  0.202E+00
 -13.806  0.202E+00  0.202E+00
 -13.796  0.203E+00  0.203E+00
 -13.786  0.203E+00  0.203E+00
 -13.776  0.202E+00  0.202E+00
 -13.766  0.202E+00  0.202E+00
 -13.756  0.202E+00  0.202E+00
 -13.746  0.201E+00  0.201E+00
 -13.736  0.201E+00  0.201E+00
 -13.726  0.200E+00  0.200E+00
 -13.716  0.199E+00  0.199E+00
 -13.706  0.198E+00  0.198E+00
 -13.696  0.196E+00  0.196E+00
 -13.686  0.195E+00  0.195E+00
 -13.676  0.194E+00  0.194E+00
 -13.666  0.192E+00  0.192E+00
 -13.656  0.190E+00  0.190E+00
 -13.646  0.188E+00  0.188E+00
 -13.636  0.186E+00  0.186E+00
 -13.626  0.184E+00  0.184E+00
 -13.616  0.182E+00  0.182E+00
 -13.606  0.180E+00  0.180E+00
 -13.596  0.177E+00  0.177E+00
 -13.586  0.175E+00  0.175E+00
 -13.576  0.172E+00  0.172E+00
 -13.566  0.169E+00  0.169E+00
 -13.556  0.166E+00  0.166E+00
 -13.546  0.164E+00  0.164E+00
 -13.536  0.161E+00  0.161E+00
 -13.526  0.158E+00  0.158E+00
 -13.516  0.154E+00  0.154E+00
 -13.506  0.151E+00  0.151E+00
 -13.496  0.148E+00  0.148E+00
 -13.486  0.145E+00  0.145E+00
 -13.476  0.141E+00  0.141E+00
 -13.466  0.138E+00  0.138E+00
 -13.456  0.135E+00  0.135E+00
 -13.446  0.131E+00  0.131E+00
 -13.436  0.128E+00  0.128E+00
 -13.426  0.124E+00  0.124E+00
 -13.416  0.121E+00  0.121E+00
 -13.406  0.117E+00  0.117E+00
 -13.396  0.114E+00  0.114E+00
 -13.386  0.110E+00  0.110E+00
 -13.376  0.107E+00  0.107E+00
 -13.366  0.103E+00  0.103E+00
 -13.356  0.999E-01  0.999E-01
 -13.346  0.965E-01  0.965E-01
 -13.336  0.930E-01  0.930E-01
 -13.326  0.896E-01  0.896E-01
 -13.316  0.862E-01  0.862E-01
 -13.306  0.829E-01  0.829E-01
 -13.296  0.796E-01  0.796E-01
 -13.286  0.763E-01  0.763E-01
 -13.276  0.730E-01  0.730E-01
 -13.266  0.698E-01  0.698E-01
 -13.256  0.667E-01  0.667E-01
 -13.246  0.636E-01  0.636E-01
 -13.236  0.606E-01  0.606E-01
 -13.226  0.576E-01  0.576E-01
 -13.216  0.547E-01  0.547E-01
 -13.206  0.518E-01  0.518E-01
 -13.196  0.490E-01  0.490E-01
 -13.186  0.463E-01  0.463E-01
 -13.176  0.436E-01  0.436E-01
 -13.166  0.410E-01  0.410E-01
 -13.156  0.385E-01  0.385E-01
 -13.146  0.361E-01  0.361E-01
 -13.136  0.337E-01  0.337E-01
 -13.126  0.314E-01  0.314E-01
 -13.116  0.291E-01  0.291E-01
 -13.106  0.270E-01  0.270E-01
 -13.096  0.249E-01  0.249E-01
 -13.086  0.229E-01  0.229E-01
 -13.076  0.209E-01  0.209E-01
 -13.066  0.191E-01  0.191E-01
 -13.056  0.173E-01  0.173E-01
 -13.046  0.155E-01  0.155E-01
 -13.036  0.139E-01  0.139E-01
 -13.026  0.123E-01  0.123E-01
 -13.016  0.108E-01  0.108E-01
 -13.006  0.934E-02  0.934E-02
 -12.996  0.797E-02  0.797E-02
 -12.986  0.667E-02  0.667E-02
 -12.976  0.543E-02  0.543E-02
 -12.966  0.426E-02  0.426E-02
 -12.956  0.315E-02  0.315E-02
 -12.946  0.210E-02  0.210E-02
 -12.936  0.112E-02  0.112E-02
 -12.926  0.190E-03  0.190E-03
 -12.916 -0.678E-03 -0.678E-03
 -12.906 -0.149E-02 -0.149E-02
 -12.896 -0.225E-02 -0.225E-02
 -12.886 -0.295E-02 -0.295E-02
 -12.876 -0.360E-02 -0.360E-02
 -12.866 -0.420E-02 -0.420E-02
 -12.856 -0.476E-02 -0.476E-02
 -12.846 -0.527E-02 -0.527E-02
 -12.836 -0.573E-02 -0.573E-02
 -12.826 -0.615E-02 -0.615E-02
 -12.816 -0.653E-02 -0.653E-02
 -12.806 -0.687E-02 -0.687E-02
 -12.796 -0.718E-02 -0.718E-02
 -12.786 -0.745E-02 -0.745E-02
 -12.776 -0.768E-02 -0.768E-02
 -12.766 -0.789E-02 -0.789E-02
 -12.756 -0.806E-02 -0.806E-02
 -12.746 -0.820E-02 -0.820E-02
 -12.736 -0.832E-02 -0.832E-02
 -12.726 -0.841E-02 -0.841E-02
 -12.716 -0.847E-02 -0.847E-02
 -12.706 -0.852E-02 -0.852E-02
 -12.696 -0.854E-02 -0.854E-02
 -12.686 -0.854E-02 -0.854E-02
 -12.676 -0.853E-02 -0.853E-02
 -12.666 -0.850E-02 -0.850E-02
 -12.656 -0.845E-02 -0.845E-02
 -12.646 -0.839E-02 -0.839E-02
 -12.636 -0.831E-02 -0.831E-02
 -12.626 -0.822E-02 -0.822E-02
 -12.616 -0.812E-02 -0.812E-02
 -12.606 -0.802E-02 -0.802E-02
 -12.596 -0.790E-02 -0.790E-02
 -12.586 -0.777E-02 -0.777E-02
 -12.576 -0.764E-02 -0.764E-02
 -12.566 -0.750E-02 -0.750E-02
 -12.556 -0.736E-02 -0.736E-02
 -12.546 -0.721E-02 -0.721E-02
 -12.536 -0.706E-02 -0.706E-02
 -12.526 -0.691E-02 -0.691E-02
 -12.516 -0.675E-02 -0.675E-02
 -12.506 -0.659E-02 -0.659E-02
 -12.496 -0.643E-02 -0.643E-02
 -12.486 -0.627E-02 -0.627E-02
 -12.476 -0.611E-02 -0.611E-02
 -12.466 -0.595E-02 -0.595E-02
 -12.456 -0.579E-02 -0.579E-02
 -12.446 -0.564E-02 -0.564E-02
 -12.436 -0.548E-02 -0.548E-02
 -12.426 -0.532E-02 -0.532E-02
 -12.416 -0.517E-02 -0.517E-02
 -12.406 -0.502E-02 -0.502E-02
 -12.396 -0.487E-02 -0.487E-02
 -12.386 -0.473E-02 -0.473E-02
 -12.376 -0.458E-02 -0.458E-02
 -12.366 -0.444E-02 -0.444E-02
 -12.356 -0.430E-02 -0.430E-02
 -12.346 -0.417E-02 -0.417E-02
 -12.336 -0.404E-02 -0.404E-02
 -12.326 -0.391E-02 -0.391E-02
 -12.316 -0.379E-02 -0.379E-02
 -12.306 -0.366E-02 -0.366E-02
 -12.296 -0.355E-02 -0.355E-02
 -12.286 -0.343E-02 -0.343E-02
 -12.276 -0.332E-02 -0.332E-02
 -12.266 -0.321E-02 -0.321E-02
 -12.256 -0.310E-02 -0.310E-02
 -12.246 -0.300E-02 -0.300E-02
 -12.236 -0.290E-02 -0.290E-02
 -12.226 -0.280E-02 -0.280E-02
 -12.216 -0.271E-02 -0.271E-02
 -12.206 -0.261E-02 -0.261E-02
 -12.196 -0.252E-02 -0.252E-02
 -12.186 -0.243E-02 -0.243E-02
 -12.176 -0.235E-02 -0.235E-02
 -12.166 -0.226E-02 -0.226E-02
 -12.156 -0.218E-02 -0.218E-02
 -12.146 -0.209E-02 -0.209E-02
 -12.136 -0.201E-02 -0.201E-02
 -12.126 -0.193E-02 -0.193E-02
 -12.116 -0.186E-02 -0.186E-02
 -12.106 -0.178E-02 -0.178E-02
 -12.096 -0.170E-02 -0.170E-02
 -12.086 -0.163E-02 -0.163E-02
 -12.076 -0.155E-02 -0.155E-02
 -12.066 -0.147E-02 -0.147E-02
 -12.056 -0.140E-02 -0.140E-02
 -12.046 -0.132E-02 -0.132E-02
 -12.036 -0.125E-02 -0.125E-02
 -12.026 -0.117E-02 -0.117E-02
 -12.016 -0.109E-02 -0.109E-02
 -12.006 -0.101E-02 -0.101E-02
 -11.996 -0.936E-03 -0.936E-03
 -11.986 -0.856E-03 -0.856E-03
 -11.976 -0.775E-03 -0.775E-03
 -11.966 -0.693E-03 -0.693E-03
 -11.956 -0.610E-03 -0.610E-03
 -11.946 -0.525E-03 -0.525E-03
 -11.936 -0.438E-03 -0.438E-03
 -11.926 -0.350E-03 -0.350E-03
 -11.916 -0.260E-03 -0.260E-03
 -11.906 -0.168E-03 -0.168E-03
 -11.896 -0.742E-04 -0.742E-04
 -11.886  0.217E-04  0.217E-04
 -11.876  0.120E-03  0.120E-03
 -11.866  0.220E-03  0.220E-03
 -11.856  0.322E-03  0.322E-03
 -11.846  0.427E-03  0.427E-03
 -11.836  0.534E-03  0.534E-03
 -11.826  0.643E-03  0.643E-03
 -11.816  0.755E-03  0.755E-03
 -11.806  0.869E-03  0.869E-03
 -11.796  0.985E-03  0.985E-03
 -11.786  0.110E-02  0.110E-02
 -11.776  0.123E-02  0.123E-02
 -11.766  0.135E-02  0.135E-02
 -11.756  0.147E-02  0.147E-02
 -11.746  0.160E-02  0.160E-02
 -11.736  0.173E-02  0.173E-02
 -11.726  0.187E-02  0.187E-02
 -11.716  0.200E-02  0.200E-02
 -11.706  0.214E-02  0.214E-02
 -11.696  0.228E-02  0.228E-02
 -11.686  0.242E-02  0.242E-02
 -11.676  0.256E-02  0.256E-02
 -11.666  0.271E-02  0.271E-02
 -11.656  0.285E-02  0.285E-02
 -11.646  0.300E-02  0.300E-02
 -11.636  0.315E-02  0.315E-02
 -11.626  0.330E-02  0.330E-02
 -11.616  0.345E-02  0.345E-02
 -11.606  0.360E-02  0.360E-02
 -11.596  0.376E-02  0.376E-02
 -11.586  0.391E-02  0.391E-02
 -11.576  0.407E-02  0.407E-02
 -11.566  0.422E-02  0.422E-02
 -11.556  0.438E-02  0.438E-02
 -11.546  0.454E-02  0.454E-02
 -11.536  0.469E-02  0.469E-02
 -11.526  0.485E-02  0.485E-02
 -11.516  0.501E-02  0.501E-02
 -11.506  0.516E-02  0.516E-02
 -11.496  0.532E-02  0.532E-02
 -11.486  0.547E-02  0.547E-02
 -11.476  0.563E-02  0.563E-02
 -11.466  0.578E-02  0.578E-02
 -11.456  0.593E-02  0.593E-02
 -11.446  0.608E-02  0.608E-02
 -11.436  0.623E-02  0.623E-02
 -11.426  0.638E-02  0.638E-02
 -11.416  0.652E-02  0.652E-02
 -11.406  0.667E-02  0.667E-02
 -11.396  0.681E-02  0.681E-02
 -11.386  0.695E-02  0.695E-02
 -11.376  0.708E-02  0.708E-02
 -11.366  0.722E-02  0.722E-02
 -11.356  0.735E-02  0.735E-02
 -11.346  0.748E-02  0.748E-02
 -11.336  0.760E-02  0.760E-02
 -11.326  0.772E-02  0.772E-02
 -11.316  0.784E-02  0.784E-02
 -11.306  0.796E-02  0.796E-02
 -11.296  0.807E-02  0.807E-02
 -11.286  0.818E-02  0.818E-02
 -11.276  0.828E-02  0.828E-02
 -11.266  0.838E-02  0.838E-02
 -11.256  0.848E-02  0.848E-02
 -11.246  0.857E-02  0.857E-02
 -11.236  0.866E-02  0.866E-02
 -11.226  0.875E-02  0.875E-02
 -11.216  0.883E-02  0.883E-02
 -11.206  0.891E-02  0.891E-02
 -11.196  0.898E-02  0.898E-02
 -11.186  0.905E-02  0.905E-02
 -11.176  0.911E-02  0.911E-02
 -11.166  0.917E-02  0.917E-02
 -11.156  0.923E-02  0.923E-02
 -11.146  0.928E-02  0.928E-02
 -11.136  0.932E-02  0.932E-02
 -11.126  0.937E-02  0.937E-02
 -11.116  0.941E-02  0.941E-02
 -11.106  0.944E-02  0.944E-02
 -11.096  0.947E-02  0.947E-02
 -11.086  0.949E-02  0.949E-02
 -11.076  0.952E-02  0.952E-02
 -11.066  0.953E-02  0.953E-02
 -11.056  0.955E-02  0.955E-02
 -11.046  0.955E-02  0.955E-02
 -11.036  0.956E-02  0.956E-02
 -11.026  0.956E-02  0.956E-02
 -11.016  0.956E-02  0.956E-02
 -11.006  0.955E-02  0.955E-02
 -10.996  0.954E-02  0.954E-02
 -10.986  0.952E-02  0.952E-02
 -10.976  0.950E-02  0.950E-02
 -10.966  0.948E-02  0.948E-02
 -10.956  0.945E-02  0.945E-02
 -10.946  0.942E-02  0.942E-02
 -10.936  0.938E-02  0.938E-02
 -10.926  0.935E-02  0.935E-02
 -10.916  0.930E-02  0.930E-02
 -10.906  0.926E-02  0.926E-02
 -10.896  0.921E-02  0.921E-02
 -10.886  0.916E-02  0.916E-02
 -10.876  0.910E-02  0.910E-02
 -10.866  0.904E-02  0.904E-02
 -10.856  0.898E-02  0.898E-02
 -10.846  0.891E-02  0.891E-02
 -10.836  0.884E-02  0.884E-02
 -10.826  0.877E-02  0.877E-02
 -10.816  0.870E-02  0.870E-02
 -10.806  0.862E-02  0.862E-02
 -10.796  0.853E-02  0.853E-02
 -10.786  0.845E-02  0.845E-02
 -10.776  0.836E-02  0.836E-02
 -10.766  0.827E-02  0.827E-02
 -10.756  0.817E-02  0.817E-02
 -10.746  0.807E-02  0.807E-02
 -10.736  0.797E-02  0.797E-02
 -10.726  0.787E-02  0.787E-02
 -10.716  0.776E-02  0.776E-02
 -10.706  0.765E-02  0.765E-02
 -10.696  0.754E-02  0.754E-02
 -10.686  0.742E-02  0.742E-02
 -10.676  0.730E-02  0.730E-02
 -10.666  0.718E-02  0.718E-02
 -10.656  0.706E-02  0.706E-02
 -10.646  0.693E-02  0.693E-02
 -10.636  0.680E-02  0.680E-02
 -10.626  0.667E-02  0.667E-02
 -10.616  0.653E-02  0.653E-02
 -10.606  0.639E-02  0.639E-02
 -10.596  0.625E-02  0.625E-02
 -10.586  0.611E-02  0.611E-02
 -10.576  0.597E-02  0.597E-02
 -10.566  0.582E-02  0.582E-02
 -10.556  0.568E-02  0.568E-02
 -10.546  0.553E-02  0.553E-02
 -10.536  0.538E-02  0.538E-02
 -10.526  0.522E-02  0.522E-02
 -10.516  0.507E-02  0.507E-02
 -10.506  0.492E-02  0.492E-02
 -10.496  0.477E-02  0.477E-02
 -10.486  0.461E-02  0.461E-02
 -10.476  0.446E-02  0.446E-02
 -10.466  0.431E-02  0.431E-02
 -10.456  0.415E-02  0.415E-02
 -10.446  0.400E-02  0.400E-02
 -10.436  0.385E-02  0.385E-02
 -10.426  0.371E-02  0.371E-02
 -10.416  0.356E-02  0.356E-02
 -10.406  0.342E-02  0.342E-02
 -10.396  0.328E-02  0.328E-02
 -10.386  0.315E-02  0.315E-02
 -10.376  0.302E-02  0.302E-02
 -10.366  0.289E-02  0.289E-02
 -10.356  0.277E-02  0.277E-02
 -10.346  0.266E-02  0.266E-02
 -10.336  0.255E-02  0.255E-02
 -10.326  0.245E-02  0.245E-02
 -10.316  0.236E-02  0.236E-02
 -10.306  0.228E-02  0.228E-02
 -10.296  0.220E-02  0.220E-02
 -10.286  0.214E-02  0.214E-02
 -10.276  0.209E-02  0.209E-02
 -10.266  0.205E-02  0.205E-02
 -10.256  0.202E-02  0.202E-02
 -10.246  0.201E-02  0.201E-02
 -10.236  0.201E-02  0.201E-02
 -10.226  0.202E-02  0.202E-02
 -10.216  0.205E-02  0.205E-02
 -10.206  0.210E-02  0.210E-02
 -10.196  0.216E-02  0.216E-02
 -10.186  0.224E-02  0.224E-02
 -10.176  0.234E-02  0.234E-02
 -10.166  0.247E-02  0.247E-02
 -10.156  0.261E-02  0.261E-02
 -10.146  0.277E-02  0.277E-02
 -10.136  0.295E-02  0.295E-02
 -10.126  0.316E-02  0.316E-02
 -10.116  0.340E-02  0.340E-02
 -10.106  0.365E-02  0.365E-02
 -10.096  0.393E-02  0.393E-02
 -10.086  0.424E-02  0.424E-02
 -10.076  0.458E-02  0.458E-02
 -10.066  0.494E-02  0.494E-02
 -10.056  0.533E-02  0.533E-02
 -10.046  0.575E-02  0.575E-02
 -10.036  0.620E-02  0.620E-02
 -10.026  0.668E-02  0.668E-02
 -10.016  0.719E-02  0.719E-02
 -10.006  0.773E-02  0.773E-02
  -9.996  0.831E-02  0.831E-02
  -9.986  0.891E-02  0.891E-02
  -9.976  0.955E-02  0.955E-02
  -9.966  0.102E-01  0.102E-01
  -9.956  0.109E-01  0.109E-01
  -9.946  0.116E-01  0.116E-01
  -9.936  0.124E-01  0.124E-01
  -9.926  0.132E-01  0.132E-01
  -9.916  0.140E-01  0.140E-01
  -9.906  0.149E-01  0.149E-01
  -9.896  0.158E-01  0.158E-01
  -9.886  0.167E-01  0.167E-01
  -9.876  0.177E-01  0.177E-01
  -9.866  0.187E-01  0.187E-01
  -9.856  0.197E-01  0.197E-01
  -9.846  0.208E-01  0.208E-01
  -9.836  0.219E-01  0.219E-01
  -9.826  0.230E-01  0.230E-01
  -9.816  0.241E-01  0.241E-01
  -9.806  0.253E-01  0.253E-01
  -9.796  0.265E-01  0.265E-01
  -9.786  0.277E-01  0.277E-01
  -9.776  0.290E-01  0.290E-01
  -9.766  0.302E-01  0.302E-01
  -9.756  0.315E-01  0.315E-01
  -9.746  0.329E-01  0.329E-01
  -9.736  0.342E-01  0.342E-01
  -9.726  0.356E-01  0.356E-01
  -9.716  0.369E-01  0.369E-01
  -9.706  0.383E-01  0.383E-01
  -9.696  0.397E-01  0.397E-01
  -9.686  0.411E-01  0.411E-01
  -9.676  0.426E-01  0.426E-01
  -9.666  0.440E-01  0.440E-01
  -9.656  0.454E-01  0.454E-01
  -9.646  0.469E-01  0.469E-01
  -9.636  0.483E-01  0.483E-01
  -9.626  0.498E-01  0.498E-01
  -9.616  0.512E-01  0.512E-01
  -9.606  0.527E-01  0.527E-01
  -9.596  0.541E-01  0.541E-01
  -9.586  0.555E-01  0.555E-01
  -9.576  0.570E-01  0.570E-01
  -9.566  0.584E-01  0.584E-01
  -9.556  0.598E-01  0.598E-01
  -9.546  0.611E-01  0.611E-01
  -9.536  0.625E-01  0.625E-01
  -9.526  0.639E-01  0.639E-01
  -9.516  0.652E-01  0.652E-01
  -9.506  0.665E-01  0.665E-01
  -9.496  0.677E-01  0.677E-01
  -9.486  0.690E-01  0.690E-01
  -9.476  0.702E-01  0.702E-01
  -9.466  0.714E-01  0.714E-01
  -9.456  0.725E-01  0.725E-01
  -9.446  0.736E-01  0.736E-01
  -9.436  0.747E-01  0.747E-01
  -9.426  0.757E-01  0.757E-01
  -9.416  0.767E-01  0.767E-01
  -9.406  0.777E-01  0.777E-01
  -9.396  0.786E-01  0.786E-01
  -9.386  0.794E-01  0.794E-01
  -9.376  0.802E-01  0.802E-01
  -9.366  0.810E-01  0.810E-01
  -9.356  0.817E-01  0.817E-01
  -9.346  0.823E-01  0.823E-01
  -9.336  0.829E-01  0.829E-01
  -9.326  0.835E-01  0.835E-01
  -9.316  0.839E-01  0.839E-01
  -9.306  0.844E-01  0.844E-01
  -9.296  0.848E-01  0.848E-01
  -9.286  0.851E-01  0.851E-01
  -9.276  0.853E-01  0.853E-01
  -9.266  0.855E-01  0.855E-01
  -9.256  0.857E-01  0.857E-01
  -9.246  0.857E-01  0.857E-01
  -9.236  0.858E-01  0.858E-01
  -9.226  0.857E-01  0.857E-01
  -9.216  0.856E-01  0.856E-01
  -9.206  0.855E-01  0.855E-01
  -9.196  0.853E-01  0.853E-01
  -9.186  0.850E-01  0.850E-01
  -9.176  0.846E-01  0.846E-01
  -9.166  0.843E-01  0.843E-01
  -9.156  0.838E-01  0.838E-01
  -9.146  0.833E-01  0.833E-01
  -9.136  0.828E-01  0.828E-01
  -9.126  0.821E-01  0.821E-01
  -9.116  0.815E-01  0.815E-01
  -9.106  0.808E-01  0.808E-01
  -9.096  0.800E-01  0.800E-01
  -9.086  0.792E-01  0.792E-01
  -9.076  0.783E-01  0.783E-01
  -9.066  0.774E-01  0.774E-01
  -9.056  0.765E-01  0.765E-01
  -9.046  0.755E-01  0.755E-01
  -9.036  0.744E-01  0.744E-01
  -9.026  0.734E-01  0.734E-01
  -9.016  0.722E-01  0.722E-01
  -9.006  0.711E-01  0.711E-01
  -8.996  0.699E-01  0.699E-01
  -8.986  0.687E-01  0.687E-01
  -8.976  0.675E-01  0.675E-01
  -8.966  0.662E-01  0.662E-01
  -8.956  0.649E-01  0.649E-01
  -8.946  0.636E-01  0.636E-01
  -8.936  0.622E-01  0.622E-01
  -8.926  0.609E-01  0.609E-01
  -8.916  0.595E-01  0.595E-01
  -8.906  0.581E-01  0.581E-01
  -8.896  0.567E-01  0.567E-01
  -8.886  0.553E-01  0.553E-01
  -8.876  0.539E-01  0.539E-01
  -8.866  0.525E-01  0.525E-01
  -8.856  0.510E-01  0.510E-01
  -8.846  0.496E-01  0.496E-01
  -8.836  0.482E-01  0.482E-01
  -8.826  0.467E-01  0.467E-01
  -8.816  0.453E-01  0.453E-01
  -8.806  0.439E-01  0.439E-01
  -8.796  0.425E-01  0.425E-01
  -8.786  0.411E-01  0.411E-01
  -8.776  0.397E-01  0.397E-01
  -8.766  0.383E-01  0.383E-01
  -8.756  0.369E-01  0.369E-01
  -8.746  0.356E-01  0.356E-01
  -8.736  0.342E-01  0.342E-01
  -8.726  0.329E-01  0.329E-01
  -8.716  0.316E-01  0.316E-01
  -8.706  0.304E-01  0.304E-01
  -8.696  0.291E-01  0.291E-01
  -8.686  0.279E-01  0.279E-01
  -8.676  0.267E-01  0.267E-01
  -8.666  0.255E-01  0.255E-01
  -8.656  0.244E-01  0.244E-01
  -8.646  0.233E-01  0.233E-01
  -8.636  0.222E-01  0.222E-01
  -8.626  0.211E-01  0.211E-01
  -8.616  0.201E-01  0.201E-01
  -8.606  0.191E-01  0.191E-01
  -8.596  0.182E-01  0.182E-01
  -8.586  0.172E-01  0.172E-01
  -8.576  0.164E-01  0.164E-01
  -8.566  0.155E-01  0.155E-01
  -8.556  0.147E-01  0.147E-01
  -8.546  0.139E-01  0.139E-01
  -8.536  0.131E-01  0.131E-01
  -8.526  0.124E-01  0.124E-01
  -8.516  0.117E-01  0.117E-01
  -8.506  0.111E-01  0.111E-01
  -8.496  0.105E-01  0.105E-01
  -8.486  0.989E-02  0.989E-02
  -8.476  0.935E-02  0.935E-02
  -8.466  0.884E-02  0.884E-02
  -8.456  0.837E-02  0.837E-02
  -8.446  0.792E-02  0.792E-02
  -8.436  0.752E-02  0.752E-02
  -8.426  0.714E-02  0.714E-02
  -8.416  0.680E-02  0.680E-02
  -8.406  0.649E-02  0.649E-02
  -8.396  0.621E-02  0.621E-02
  -8.386  0.596E-02  0.596E-02
  -8.376  0.574E-02  0.574E-02
  -8.366  0.555E-02  0.555E-02
  -8.356  0.539E-02  0.539E-02
  -8.346  0.526E-02  0.526E-02
  -8.336  0.516E-02  0.516E-02
  -8.326  0.508E-02  0.508E-02
  -8.316  0.503E-02  0.503E-02
  -8.306  0.500E-02  0.500E-02
  -8.296  0.500E-02  0.500E-02
  -8.286  0.502E-02  0.502E-02
  -8.276  0.506E-02  0.506E-02
  -8.266  0.513E-02  0.513E-02
  -8.256  0.522E-02  0.522E-02
  -8.246  0.532E-02  0.532E-02
  -8.236  0.545E-02  0.545E-02
  -8.226  0.559E-02  0.559E-02
  -8.216  0.575E-02  0.575E-02
  -8.206  0.593E-02  0.593E-02
  -8.196  0.612E-02  0.612E-02
  -8.186  0.633E-02  0.633E-02
  -8.176  0.655E-02  0.655E-02
  -8.166  0.679E-02  0.679E-02
  -8.156  0.704E-02  0.704E-02
  -8.146  0.729E-02  0.729E-02
  -8.136  0.756E-02  0.756E-02
  -8.126  0.784E-02  0.784E-02
  -8.116  0.813E-02  0.813E-02
  -8.106  0.842E-02  0.842E-02
  -8.096  0.872E-02  0.872E-02
  -8.086  0.903E-02  0.903E-02
  -8.076  0.934E-02  0.934E-02
  -8.066  0.966E-02  0.966E-02
  -8.056  0.998E-02  0.998E-02
  -8.046  0.103E-01  0.103E-01
  -8.036  0.106E-01  0.106E-01
  -8.026  0.110E-01  0.110E-01
  -8.016  0.113E-01  0.113E-01
  -8.006  0.116E-01  0.116E-01
  -7.996  0.120E-01  0.120E-01
  -7.986  0.123E-01  0.123E-01
  -7.976  0.126E-01  0.126E-01
  -7.966  0.130E-01  0.130E-01
  -7.956  0.133E-01  0.133E-01
  -7.946  0.136E-01  0.136E-01
  -7.936  0.139E-01  0.139E-01
  -7.926  0.142E-01  0.142E-01
  -7.916  0.146E-01  0.146E-01
  -7.906  0.149E-01  0.149E-01
  -7.896  0.152E-01  0.152E-01
  -7.886  0.155E-01  0.155E-01
  -7.876  0.158E-01  0.158E-01
  -7.866  0.161E-01  0.161E-01
  -7.856  0.164E-01  0.164E-01
  -7.846  0.167E-01  0.167E-01
  -7.836  0.169E-01  0.169E-01
  -7.826  0.172E-01  0.172E-01
  -7.816  0.175E-01  0.175E-01
  -7.806  0.177E-01  0.177E-01
  -7.796  0.180E-01  0.180E-01
  -7.786  0.182E-01  0.182E-01
  -7.776  0.185E-01  0.185E-01
  -7.766  0.187E-01  0.187E-01
  -7.756  0.189E-01  0.189E-01
  -7.746  0.192E-01  0.192E-01
  -7.736  0.194E-01  0.194E-01
  -7.726  0.196E-01  0.196E-01
  -7.716  0.198E-01  0.198E-01
  -7.706  0.200E-01  0.200E-01
  -7.696  0.202E-01  0.202E-01
  -7.686  0.204E-01  0.204E-01
  -7.676  0.206E-01  0.206E-01
  -7.666  0.208E-01  0.208E-01
  -7.656  0.209E-01  0.209E-01
  -7.646  0.211E-01  0.211E-01
  -7.636  0.213E-01  0.213E-01
  -7.626  0.214E-01  0.214E-01
  -7.616  0.216E-01  0.216E-01
  -7.606  0.217E-01  0.217E-01
  -7.596  0.219E-01  0.219E-01
  -7.586  0.220E-01  0.220E-01
  -7.576  0.222E-01  0.222E-01
  -7.566  0.223E-01  0.223E-01
  -7.556  0.224E-01  0.224E-01
  -7.546  0.226E-01  0.226E-01
  -7.536  0.227E-01  0.227E-01
  -7.526  0.228E-01  0.228E-01
  -7.516  0.229E-01  0.229E-01
  -7.506  0.230E-01  0.230E-01
  -7.496  0.232E-01  0.232E-01
  -7.486  0.233E-01  0.233E-01
  -7.476  0.234E-01  0.234E-01
  -7.466  0.235E-01  0.235E-01
  -7.456  0.236E-01  0.236E-01
  -7.446  0.237E-01  0.237E-01
  -7.436  0.238E-01  0.238E-01
  -7.426  0.239E-01  0.239E-01
  -7.416  0.240E-01  0.240E-01
  -7.406  0.241E-01  0.241E-01
  -7.396  0.242E-01  0.242E-01
  -7.386  0.243E-01  0.243E-01
  -7.376  0.244E-01  0.244E-01
  -7.366  0.245E-01  0.245E-01
  -7.356  0.246E-01  0.246E-01
  -7.346  0.247E-01  0.247E-01
  -7.336  0.248E-01  0.248E-01
  -7.326  0.248E-01  0.248E-01
  -7.316  0.249E-01  0.249E-01
  -7.306  0.250E-01  0.250E-01
  -7.296  0.251E-01  0.251E-01
  -7.286  0.252E-01  0.252E-01
  -7.276  0.252E-01  0.252E-01
  -7.266  0.253E-01  0.253E-01
  -7.256  0.254E-01  0.254E-01
  -7.246  0.254E-01  0.254E-01
  -7.236  0.255E-01  0.255E-01
  -7.226  0.255E-01  0.255E-01
  -7.216  0.256E-01  0.256E-01
  -7.206  0.256E-01  0.256E-01
  -7.196  0.257E-01  0.257E-01
  -7.186  0.257E-01  0.257E-01
  -7.176  0.257E-01  0.257E-01
  -7.166  0.258E-01  0.258E-01
  -7.156  0.258E-01  0.258E-01
  -7.146  0.258E-01  0.258E-01
  -7.136  0.258E-01  0.258E-01
  -7.126  0.258E-01  0.258E-01
  -7.116  0.258E-01  0.258E-01
  -7.106  0.258E-01  0.258E-01
  -7.096  0.258E-01  0.258E-01
  -7.086  0.258E-01  0.258E-01
  -7.076  0.257E-01  0.257E-01
  -7.066  0.257E-01  0.257E-01
  -7.056  0.256E-01  0.256E-01
  -7.046  0.256E-01  0.256E-01
  -7.036  0.255E-01  0.255E-01
  -7.026  0.254E-01  0.254E-01
  -7.016  0.253E-01  0.253E-01
  -7.006  0.252E-01  0.252E-01
  -6.996  0.251E-01  0.251E-01
  -6.986  0.250E-01  0.250E-01
  -6.976  0.249E-01  0.249E-01
  -6.966  0.248E-01  0.248E-01
  -6.956  0.246E-01  0.246E-01
  -6.946  0.245E-01  0.245E-01
  -6.936  0.243E-01  0.243E-01
  -6.926  0.241E-01  0.241E-01
  -6.916  0.240E-01  0.240E-01
  -6.906  0.238E-01  0.238E-01
  -6.896  0.236E-01  0.236E-01
  -6.886  0.234E-01  0.234E-01
  -6.876  0.231E-01  0.231E-01
  -6.866  0.229E-01  0.229E-01
  -6.856  0.227E-01  0.227E-01
  -6.846  0.224E-01  0.224E-01
  -6.836  0.222E-01  0.222E-01
  -6.826  0.219E-01  0.219E-01
  -6.816  0.216E-01  0.216E-01
  -6.806  0.213E-01  0.213E-01
  -6.796  0.210E-01  0.210E-01
  -6.786  0.207E-01  0.207E-01
  -6.776  0.204E-01  0.204E-01
  -6.766  0.201E-01  0.201E-01
  -6.756  0.198E-01  0.198E-01
  -6.746  0.194E-01  0.194E-01
  -6.736  0.191E-01  0.191E-01
  -6.726  0.188E-01  0.188E-01
  -6.716  0.184E-01  0.184E-01
  -6.706  0.180E-01  0.180E-01
  -6.696  0.177E-01  0.177E-01
  -6.686  0.173E-01  0.173E-01
  -6.676  0.169E-01  0.169E-01
  -6.666  0.166E-01  0.166E-01
  -6.656  0.162E-01  0.162E-01
  -6.646  0.158E-01  0.158E-01
  -6.636  0.154E-01  0.154E-01
  -6.626  0.150E-01  0.150E-01
  -6.616  0.146E-01  0.146E-01
  -6.606  0.142E-01  0.142E-01
  -6.596  0.138E-01  0.138E-01
  -6.586  0.134E-01  0.134E-01
  -6.576  0.130E-01  0.130E-01
  -6.566  0.126E-01  0.126E-01
  -6.556  0.122E-01  0.122E-01
  -6.546  0.119E-01  0.119E-01
  -6.536  0.115E-01  0.115E-01
  -6.526  0.111E-01  0.111E-01
  -6.516  0.107E-01  0.107E-01
  -6.506  0.103E-01  0.103E-01
  -6.496  0.991E-02  0.991E-02
  -6.486  0.952E-02  0.952E-02
  -6.476  0.915E-02  0.915E-02
  -6.466  0.877E-02  0.877E-02
  -6.456  0.841E-02  0.841E-02
  -6.446  0.804E-02  0.804E-02
  -6.436  0.768E-02  0.768E-02
  -6.426  0.733E-02  0.733E-02
  -6.416  0.698E-02  0.698E-02
  -6.406  0.664E-02  0.664E-02
  -6.396  0.631E-02  0.631E-02
  -6.386  0.598E-02  0.598E-02
  -6.376  0.566E-02  0.566E-02
  -6.366  0.535E-02  0.535E-02
  -6.356  0.504E-02  0.504E-02
  -6.346  0.475E-02  0.475E-02
  -6.336  0.446E-02  0.446E-02
  -6.326  0.418E-02  0.418E-02
  -6.316  0.391E-02  0.391E-02
  -6.306  0.364E-02  0.364E-02
  -6.296  0.339E-02  0.339E-02
  -6.286  0.314E-02  0.314E-02
  -6.276  0.291E-02  0.291E-02
  -6.266  0.268E-02  0.268E-02
  -6.256  0.247E-02  0.247E-02
  -6.246  0.226E-02  0.226E-02
  -6.236  0.206E-02  0.206E-02
  -6.226  0.187E-02  0.187E-02
  -6.216  0.170E-02  0.170E-02
  -6.206  0.153E-02  0.153E-02
  -6.196  0.137E-02  0.137E-02
  -6.186  0.122E-02  0.122E-02
  -6.176  0.108E-02  0.108E-02
  -6.166  0.958E-03  0.958E-03
  -6.156  0.840E-03  0.840E-03
  -6.146  0.733E-03  0.733E-03
  -6.136  0.636E-03  0.636E-03
  -6.126  0.549E-03  0.549E-03
  -6.116  0.471E-03  0.471E-03
  -6.106  0.404E-03  0.404E-03
  -6.096  0.347E-03  0.347E-03
  -6.086  0.299E-03  0.299E-03
  -6.076  0.262E-03  0.262E-03
  -6.066  0.233E-03  0.233E-03
  -6.056  0.215E-03  0.215E-03
  -6.046  0.205E-03  0.205E-03
  -6.036  0.205E-03  0.205E-03
  -6.026  0.215E-03  0.215E-03
  -6.016  0.233E-03  0.233E-03
  -6.006  0.260E-03  0.260E-03
  -5.996  0.296E-03  0.296E-03
  -5.986  0.340E-03  0.340E-03
  -5.976  0.393E-03  0.393E-03
  -5.966  0.454E-03  0.454E-03
  -5.956  0.523E-03  0.523E-03
  -5.946  0.600E-03  0.600E-03
  -5.936  0.685E-03  0.685E-03
  -5.926  0.778E-03  0.778E-03
  -5.916  0.877E-03  0.877E-03
  -5.906  0.984E-03  0.984E-03
  -5.896  0.110E-02  0.110E-02
  -5.886  0.122E-02  0.122E-02
  -5.876  0.134E-02  0.134E-02
  -5.866  0.148E-02  0.148E-02
  -5.856  0.162E-02  0.162E-02
  -5.846  0.176E-02  0.176E-02
  -5.836  0.191E-02  0.191E-02
  -5.826  0.207E-02  0.207E-02
  -5.816  0.223E-02  0.223E-02
  -5.806  0.239E-02  0.239E-02
  -5.796  0.256E-02  0.256E-02
  -5.786  0.274E-02  0.274E-02
  -5.776  0.292E-02  0.292E-02
  -5.766  0.310E-02  0.310E-02
  -5.756  0.328E-02  0.328E-02
  -5.746  0.347E-02  0.347E-02
  -5.736  0.367E-02  0.367E-02
  -5.726  0.386E-02  0.386E-02
  -5.716  0.406E-02  0.406E-02
  -5.706  0.426E-02  0.426E-02
  -5.696  0.447E-02  0.447E-02
  -5.686  0.467E-02  0.467E-02
  -5.676  0.488E-02  0.488E-02
  -5.666  0.509E-02  0.509E-02
  -5.656  0.530E-02  0.530E-02
  -5.646  0.551E-02  0.551E-02
  -5.636  0.572E-02  0.572E-02
  -5.626  0.594E-02  0.594E-02
  -5.616  0.615E-02  0.615E-02
  -5.606  0.637E-02  0.637E-02
  -5.596  0.659E-02  0.659E-02
  -5.586  0.680E-02  0.680E-02
  -5.576  0.702E-02  0.702E-02
  -5.566  0.724E-02  0.724E-02
  -5.556  0.746E-02  0.746E-02
  -5.546  0.768E-02  0.768E-02
  -5.536  0.789E-02  0.789E-02
  -5.526  0.811E-02  0.811E-02
  -5.516  0.833E-02  0.833E-02
  -5.506  0.855E-02  0.855E-02
  -5.496  0.877E-02  0.877E-02
  -5.486  0.899E-02  0.899E-02
  -5.476  0.921E-02  0.921E-02
  -5.466  0.943E-02  0.943E-02
  -5.456  0.965E-02  0.965E-02
  -5.446  0.988E-02  0.988E-02
  -5.436  0.101E-01  0.101E-01
  -5.426  0.103E-01  0.103E-01
  -5.416  0.105E-01  0.105E-01
  -5.406  0.108E-01  0.108E-01
  -5.396  0.110E-01  0.110E-01
  -5.386  0.112E-01  0.112E-01
  -5.376  0.115E-01  0.115E-01
  -5.366  0.117E-01  0.117E-01
  -5.356  0.119E-01  0.119E-01
  -5.346  0.122E-01  0.122E-01
  -5.336  0.124E-01  0.124E-01
  -5.326  0.127E-01  0.127E-01
  -5.316  0.129E-01  0.129E-01
  -5.306  0.132E-01  0.132E-01
  -5.296  0.134E-01  0.134E-01
  -5.286  0.137E-01  0.137E-01
  -5.276  0.140E-01  0.140E-01
  -5.266  0.142E-01  0.142E-01
  -5.256  0.145E-01  0.145E-01
  -5.246  0.148E-01  0.148E-01
  -5.236  0.151E-01  0.151E-01
  -5.226  0.154E-01  0.154E-01
  -5.216  0.157E-01  0.157E-01
  -5.206  0.160E-01  0.160E-01
  -5.196  0.164E-01  0.164E-01
  -5.186  0.167E-01  0.167E-01
  -5.176  0.170E-01  0.170E-01
  -5.166  0.174E-01  0.174E-01
  -5.156  0.178E-01  0.178E-01
  -5.146  0.181E-01  0.181E-01
  -5.136  0.185E-01  0.185E-01
  -5.126  0.189E-01  0.189E-01
  -5.116  0.193E-01  0.193E-01
  -5.106  0.198E-01  0.198E-01
  -5.096  0.202E-01  0.202E-01
  -5.086  0.207E-01  0.207E-01
  -5.076  0.211E-01  0.211E-01
  -5.066  0.216E-01  0.216E-01
  -5.056  0.221E-01  0.221E-01
  -5.046  0.226E-01  0.226E-01
  -5.036  0.231E-01  0.231E-01
  -5.026  0.236E-01  0.236E-01
  -5.016  0.242E-01  0.242E-01
  -5.006  0.247E-01  0.247E-01
  -4.996  0.253E-01  0.253E-01
  -4.986  0.259E-01  0.259E-01
  -4.976  0.265E-01  0.265E-01
  -4.966  0.271E-01  0.271E-01
  -4.956  0.277E-01  0.277E-01
  -4.946  0.283E-01  0.283E-01
  -4.936  0.290E-01  0.290E-01
  -4.926  0.297E-01  0.297E-01
  -4.916  0.303E-01  0.303E-01
  -4.906  0.310E-01  0.310E-01
  -4.896  0.317E-01  0.317E-01
  -4.886  0.324E-01  0.324E-01
  -4.876  0.331E-01  0.331E-01
  -4.866  0.338E-01  0.338E-01
  -4.856  0.346E-01  0.346E-01
  -4.846  0.353E-01  0.353E-01
  -4.836  0.361E-01  0.361E-01
  -4.826  0.368E-01  0.368E-01
  -4.816  0.376E-01  0.376E-01
  -4.806  0.384E-01  0.384E-01
  -4.796  0.391E-01  0.391E-01
  -4.786  0.399E-01  0.399E-01
  -4.776  0.407E-01  0.407E-01
  -4.766  0.414E-01  0.414E-01
  -4.756  0.422E-01  0.422E-01
  -4.746  0.430E-01  0.430E-01
  -4.736  0.438E-01  0.438E-01
  -4.726  0.445E-01  0.445E-01
  -4.716  0.453E-01  0.453E-01
  -4.706  0.460E-01  0.460E-01
  -4.696  0.468E-01  0.468E-01
  -4.686  0.475E-01  0.475E-01
  -4.676  0.483E-01  0.483E-01
  -4.666  0.490E-01  0.490E-01
  -4.656  0.497E-01  0.497E-01
  -4.646  0.504E-01  0.504E-01
  -4.636  0.511E-01  0.511E-01
  -4.626  0.518E-01  0.518E-01
  -4.616  0.524E-01  0.524E-01
  -4.606  0.530E-01  0.530E-01
  -4.596  0.537E-01  0.537E-01
  -4.586  0.543E-01  0.543E-01
  -4.576  0.548E-01  0.548E-01
  -4.566  0.554E-01  0.554E-01
  -4.556  0.559E-01  0.559E-01
  -4.546  0.564E-01  0.564E-01
  -4.536  0.569E-01  0.569E-01
  -4.526  0.574E-01  0.574E-01
  -4.516  0.578E-01  0.578E-01
  -4.506  0.582E-01  0.582E-01
  -4.496  0.586E-01  0.586E-01
  -4.486  0.589E-01  0.589E-01
  -4.476  0.592E-01  0.592E-01
  -4.466  0.595E-01  0.595E-01
  -4.456  0.598E-01  0.598E-01
  -4.446  0.600E-01  0.600E-01
  -4.436  0.602E-01  0.602E-01
  -4.426  0.603E-01  0.603E-01
  -4.416  0.605E-01  0.605E-01
  -4.406  0.605E-01  0.605E-01
  -4.396  0.606E-01  0.606E-01
  -4.386  0.606E-01  0.606E-01
  -4.376  0.606E-01  0.606E-01
  -4.366  0.606E-01  0.606E-01
  -4.356  0.605E-01  0.605E-01
  -4.346  0.604E-01  0.604E-01
  -4.336  0.602E-01  0.602E-01
  -4.326  0.600E-01  0.600E-01
  -4.316  0.598E-01  0.598E-01
  -4.306  0.596E-01  0.596E-01
  -4.296  0.593E-01  0.593E-01
  -4.286  0.590E-01  0.590E-01
  -4.276  0.587E-01  0.587E-01
  -4.266  0.583E-01  0.583E-01
  -4.256  0.579E-01  0.579E-01
  -4.246  0.575E-01  0.575E-01
  -4.236  0.570E-01  0.570E-01
  -4.226  0.565E-01  0.565E-01
  -4.216  0.560E-01  0.560E-01
  -4.206  0.554E-01  0.554E-01
  -4.196  0.549E-01  0.549E-01
  -4.186  0.543E-01  0.543E-01
  -4.176  0.537E-01  0.537E-01
  -4.166  0.531E-01  0.531E-01
  -4.156  0.524E-01  0.524E-01
  -4.146  0.517E-01  0.517E-01
  -4.136  0.510E-01  0.510E-01
  -4.126  0.503E-01  0.503E-01
  -4.116  0.496E-01  0.496E-01
  -4.106  0.489E-01  0.489E-01
  -4.096  0.481E-01  0.481E-01
  -4.086  0.473E-01  0.473E-01
  -4.076  0.466E-01  0.466E-01
  -4.066  0.458E-01  0.458E-01
  -4.056  0.450E-01  0.450E-01
  -4.046  0.442E-01  0.442E-01
  -4.036  0.434E-01  0.434E-01
  -4.026  0.425E-01  0.425E-01
  -4.016  0.417E-01  0.417E-01
  -4.006  0.409E-01  0.409E-01
  -3.996  0.401E-01  0.401E-01
  -3.986  0.393E-01  0.393E-01
  -3.976  0.384E-01  0.384E-01
  -3.966  0.376E-01  0.376E-01
  -3.956  0.368E-01  0.368E-01
  -3.946  0.360E-01  0.360E-01
  -3.936  0.352E-01  0.352E-01
  -3.926  0.344E-01  0.344E-01
  -3.916  0.336E-01  0.336E-01
  -3.906  0.328E-01  0.328E-01
  -3.896  0.320E-01  0.320E-01
  -3.886  0.313E-01  0.313E-01
  -3.876  0.305E-01  0.305E-01
  -3.866  0.298E-01  0.298E-01
  -3.856  0.290E-01  0.290E-01
  -3.846  0.283E-01  0.283E-01
  -3.836  0.276E-01  0.276E-01
  -3.826  0.269E-01  0.269E-01
  -3.816  0.262E-01  0.262E-01
  -3.806  0.256E-01  0.256E-01
  -3.796  0.249E-01  0.249E-01
  -3.786  0.243E-01  0.243E-01
  -3.776  0.237E-01  0.237E-01
  -3.766  0.231E-01  0.231E-01
  -3.756  0.225E-01  0.225E-01
  -3.746  0.220E-01  0.220E-01
  -3.736  0.214E-01  0.214E-01
  -3.726  0.209E-01  0.209E-01
  -3.716  0.204E-01  0.204E-01
  -3.706  0.199E-01  0.199E-01
  -3.696  0.194E-01  0.194E-01
  -3.686  0.190E-01  0.190E-01
  -3.676  0.185E-01  0.185E-01
  -3.666  0.181E-01  0.181E-01
  -3.656  0.177E-01  0.177E-01
  -3.646  0.173E-01  0.173E-01
  -3.636  0.169E-01  0.169E-01
  -3.626  0.166E-01  0.166E-01
  -3.616  0.162E-01  0.162E-01
  -3.606  0.159E-01  0.159E-01
  -3.596  0.156E-01  0.156E-01
  -3.586  0.153E-01  0.153E-01
  -3.576  0.150E-01  0.150E-01
  -3.566  0.148E-01  0.148E-01
  -3.556  0.145E-01  0.145E-01
  -3.546  0.143E-01  0.143E-01
  -3.536  0.140E-01  0.140E-01
  -3.526  0.138E-01  0.138E-01
  -3.516  0.136E-01  0.136E-01
  -3.506  0.134E-01  0.134E-01
  -3.496  0.133E-01  0.133E-01
  -3.486  0.131E-01  0.131E-01
  -3.476  0.129E-01  0.129E-01
  -3.466  0.128E-01  0.128E-01
  -3.456  0.126E-01  0.126E-01
  -3.446  0.125E-01  0.125E-01
  -3.436  0.124E-01  0.124E-01
  -3.426  0.123E-01  0.123E-01
  -3.416  0.122E-01  0.122E-01
  -3.406  0.121E-01  0.121E-01
  -3.396  0.120E-01  0.120E-01
  -3.386  0.119E-01  0.119E-01
  -3.376  0.118E-01  0.118E-01
  -3.366  0.117E-01  0.117E-01
  -3.356  0.116E-01  0.116E-01
  -3.346  0.115E-01  0.115E-01
  -3.336  0.115E-01  0.115E-01
  -3.326  0.114E-01  0.114E-01
  -3.316  0.113E-01  0.113E-01
  -3.306  0.112E-01  0.112E-01
  -3.296  0.112E-01  0.112E-01
  -3.286  0.111E-01  0.111E-01
  -3.276  0.110E-01  0.110E-01
  -3.266  0.110E-01  0.110E-01
  -3.256  0.109E-01  0.109E-01
  -3.246  0.108E-01  0.108E-01
  -3.236  0.108E-01  0.108E-01
  -3.226  0.107E-01  0.107E-01
  -3.216  0.106E-01  0.106E-01
  -3.206  0.106E-01  0.106E-01
  -3.196  0.105E-01  0.105E-01
  -3.186  0.104E-01  0.104E-01
  -3.176  0.103E-01  0.103E-01
  -3.166  0.102E-01  0.102E-01
  -3.156  0.102E-01  0.102E-01
  -3.146  0.101E-01  0.101E-01
  -3.136  0.998E-02  0.998E-02
  -3.126  0.988E-02  0.988E-02
  -3.116  0.979E-02  0.979E-02
  -3.106  0.969E-02  0.969E-02
  -3.096  0.958E-02  0.958E-02
  -3.086  0.948E-02  0.948E-02
  -3.076  0.937E-02  0.937E-02
  -3.066  0.926E-02  0.926E-02
  -3.056  0.914E-02  0.914E-02
  -3.046  0.902E-02  0.902E-02
  -3.036  0.890E-02  0.890E-02
  -3.026  0.877E-02  0.877E-02
  -3.016  0.865E-02  0.865E-02
  -3.006  0.851E-02  0.851E-02
  -2.996  0.838E-02  0.838E-02
  -2.986  0.824E-02  0.824E-02
  -2.976  0.810E-02  0.810E-02
  -2.966  0.796E-02  0.796E-02
  -2.956  0.782E-02  0.782E-02
  -2.946  0.767E-02  0.767E-02
  -2.936  0.752E-02  0.752E-02
  -2.926  0.737E-02  0.737E-02
  -2.916  0.722E-02  0.722E-02
  -2.906  0.706E-02  0.706E-02
  -2.896  0.691E-02  0.691E-02
  -2.886  0.675E-02  0.675E-02
  -2.876  0.659E-02  0.659E-02
  -2.866  0.643E-02  0.643E-02
  -2.856  0.627E-02  0.627E-02
  -2.846  0.611E-02  0.611E-02
  -2.836  0.595E-02  0.595E-02
  -2.826  0.579E-02  0.579E-02
  -2.816  0.563E-02  0.563E-02
  -2.806  0.548E-02  0.548E-02
  -2.796  0.532E-02  0.532E-02
  -2.786  0.516E-02  0.516E-02
  -2.776  0.501E-02  0.501E-02
  -2.766  0.485E-02  0.485E-02
  -2.756  0.470E-02  0.470E-02
  -2.746  0.455E-02  0.455E-02
  -2.736  0.441E-02  0.441E-02
  -2.726  0.427E-02  0.427E-02
  -2.716  0.413E-02  0.413E-02
  -2.706  0.399E-02  0.399E-02
  -2.696  0.386E-02  0.386E-02
  -2.686  0.373E-02  0.373E-02
  -2.676  0.360E-02  0.360E-02
  -2.666  0.348E-02  0.348E-02
  -2.656  0.337E-02  0.337E-02
  -2.646  0.326E-02  0.326E-02
  -2.636  0.316E-02  0.316E-02
  -2.626  0.306E-02  0.306E-02
  -2.616  0.297E-02  0.297E-02
  -2.606  0.288E-02  0.288E-02
  -2.596  0.280E-02  0.280E-02
  -2.586  0.273E-02  0.273E-02
  -2.576  0.267E-02  0.267E-02
  -2.566  0.261E-02  0.261E-02
  -2.556  0.256E-02  0.256E-02
  -2.546  0.252E-02  0.252E-02
  -2.536  0.249E-02  0.249E-02
  -2.526  0.246E-02  0.246E-02
  -2.516  0.245E-02  0.245E-02
  -2.506  0.244E-02  0.244E-02
  -2.496  0.244E-02  0.244E-02
  -2.486  0.246E-02  0.246E-02
  -2.476  0.248E-02  0.248E-02
  -2.466  0.251E-02  0.251E-02
  -2.456  0.255E-02  0.255E-02
  -2.446  0.260E-02  0.260E-02
  -2.436  0.267E-02  0.267E-02
  -2.426  0.274E-02  0.274E-02
  -2.416  0.282E-02  0.282E-02
  -2.406  0.292E-02  0.292E-02
  -2.396  0.303E-02  0.303E-02
  -2.386  0.314E-02  0.314E-02
  -2.376  0.327E-02  0.327E-02
  -2.366  0.341E-02  0.341E-02
  -2.356  0.357E-02  0.357E-02
  -2.346  0.373E-02  0.373E-02
  -2.336  0.390E-02  0.390E-02
  -2.326  0.409E-02  0.409E-02
  -2.316  0.429E-02  0.429E-02
  -2.306  0.450E-02  0.450E-02
  -2.296  0.472E-02  0.472E-02
  -2.286  0.496E-02  0.496E-02
  -2.276  0.520E-02  0.520E-02
  -2.266  0.546E-02  0.546E-02
  -2.256  0.573E-02  0.573E-02
  -2.246  0.601E-02  0.601E-02
  -2.236  0.630E-02  0.630E-02
  -2.226  0.660E-02  0.660E-02
  -2.216  0.691E-02  0.691E-02
  -2.206  0.723E-02  0.723E-02
  -2.196  0.757E-02  0.757E-02
  -2.186  0.791E-02  0.791E-02
  -2.176  0.827E-02  0.827E-02
  -2.166  0.863E-02  0.863E-02
  -2.156  0.900E-02  0.900E-02
  -2.146  0.939E-02  0.939E-02
  -2.136  0.978E-02  0.978E-02
  -2.126  0.102E-01  0.102E-01
  -2.116  0.106E-01  0.106E-01
  -2.106  0.110E-01  0.110E-01
  -2.096  0.114E-01  0.114E-01
  -2.086  0.119E-01  0.119E-01
  -2.076  0.123E-01  0.123E-01
  -2.066  0.127E-01  0.127E-01
  -2.056  0.132E-01  0.132E-01
  -2.046  0.136E-01  0.136E-01
  -2.036  0.141E-01  0.141E-01
  -2.026  0.146E-01  0.146E-01
  -2.016  0.150E-01  0.150E-01
  -2.006  0.155E-01  0.155E-01
  -1.996  0.160E-01  0.160E-01
  -1.986  0.165E-01  0.165E-01
  -1.976  0.169E-01  0.169E-01
  -1.966  0.174E-01  0.174E-01
  -1.956  0.179E-01  0.179E-01
  -1.946  0.184E-01  0.184E-01
  -1.936  0.188E-01  0.188E-01
  -1.926  0.193E-01  0.193E-01
  -1.916  0.198E-01  0.198E-01
  -1.906  0.203E-01  0.203E-01
  -1.896  0.207E-01  0.207E-01
  -1.886  0.212E-01  0.212E-01
  -1.876  0.217E-01  0.217E-01
  -1.866  0.221E-01  0.221E-01
  -1.856  0.226E-01  0.226E-01
  -1.846  0.230E-01  0.230E-01
  -1.836  0.234E-01  0.234E-01
  -1.826  0.239E-01  0.239E-01
  -1.816  0.243E-01  0.243E-01
  -1.806  0.247E-01  0.247E-01
  -1.796  0.251E-01  0.251E-01
  -1.786  0.255E-01  0.255E-01
  -1.776  0.259E-01  0.259E-01
  -1.766  0.262E-01  0.262E-01
  -1.756  0.266E-01  0.266E-01
  -1.746  0.269E-01  0.269E-01
  -1.736  0.273E-01  0.273E-01
  -1.726  0.276E-01  0.276E-01
  -1.716  0.279E-01  0.279E-01
  -1.706  0.282E-01  0.282E-01
  -1.696  0.285E-01  0.285E-01
  -1.686  0.287E-01  0.287E-01
  -1.676  0.290E-01  0.290E-01
  -1.666  0.292E-01  0.292E-01
  -1.656  0.294E-01  0.294E-01
  -1.646  0.296E-01  0.296E-01
  -1.636  0.298E-01  0.298E-01
  -1.626  0.300E-01  0.300E-01
  -1.616  0.301E-01  0.301E-01
  -1.606  0.303E-01  0.303E-01
  -1.596  0.304E-01  0.304E-01
  -1.586  0.305E-01  0.305E-01
  -1.576  0.306E-01  0.306E-01
  -1.566  0.306E-01  0.306E-01
  -1.556  0.307E-01  0.307E-01
  -1.546  0.307E-01  0.307E-01
  -1.536  0.307E-01  0.307E-01
  -1.526  0.307E-01  0.307E-01
  -1.516  0.307E-01  0.307E-01
  -1.506  0.307E-01  0.307E-01
  -1.496  0.306E-01  0.306E-01
  -1.486  0.305E-01  0.305E-01
  -1.476  0.304E-01  0.304E-01
  -1.466  0.303E-01  0.303E-01
  -1.456  0.302E-01  0.302E-01
  -1.446  0.300E-01  0.300E-01
  -1.436  0.299E-01  0.299E-01
  -1.426  0.297E-01  0.297E-01
  -1.416  0.295E-01  0.295E-01
  -1.406  0.293E-01  0.293E-01
  -1.396  0.291E-01  0.291E-01
  -1.386  0.288E-01  0.288E-01
  -1.376  0.286E-01  0.286E-01
  -1.366  0.283E-01  0.283E-01
  -1.356  0.280E-01  0.280E-01
  -1.346  0.277E-01  0.277E-01
  -1.336  0.274E-01  0.274E-01
  -1.326  0.271E-01  0.271E-01
  -1.316  0.268E-01  0.268E-01
  -1.306  0.264E-01  0.264E-01
  -1.296  0.261E-01  0.261E-01
  -1.286  0.257E-01  0.257E-01
  -1.276  0.253E-01  0.253E-01
  -1.266  0.250E-01  0.250E-01
  -1.256  0.246E-01  0.246E-01
  -1.246  0.242E-01  0.242E-01
  -1.236  0.238E-01  0.238E-01
  -1.226  0.233E-01  0.233E-01
  -1.216  0.229E-01  0.229E-01
  -1.206  0.225E-01  0.225E-01
  -1.196  0.221E-01  0.221E-01
  -1.186  0.216E-01  0.216E-01
  -1.176  0.212E-01  0.212E-01
  -1.166  0.208E-01  0.208E-01
  -1.156  0.203E-01  0.203E-01
  -1.146  0.199E-01  0.199E-01
  -1.136  0.194E-01  0.194E-01
  -1.126  0.190E-01  0.190E-01
  -1.116  0.185E-01  0.185E-01
  -1.106  0.181E-01  0.181E-01
  -1.096  0.176E-01  0.176E-01
  -1.086  0.172E-01  0.172E-01
  -1.076  0.167E-01  0.167E-01
  -1.066  0.163E-01  0.163E-01
  -1.056  0.158E-01  0.158E-01
  -1.046  0.154E-01  0.154E-01
  -1.036  0.149E-01  0.149E-01
  -1.026  0.145E-01  0.145E-01
  -1.016  0.141E-01  0.141E-01
  -1.006  0.136E-01  0.136E-01
  -0.996  0.132E-01  0.132E-01
  -0.986  0.128E-01  0.128E-01
  -0.976  0.124E-01  0.124E-01
  -0.966  0.120E-01  0.120E-01
  -0.956  0.116E-01  0.116E-01
  -0.946  0.112E-01  0.112E-01
  -0.936  0.108E-01  0.108E-01
  -0.926  0.104E-01  0.104E-01
  -0.916  0.100E-01  0.100E-01
  -0.906  0.963E-02  0.963E-02
  -0.896  0.926E-02  0.926E-02
  -0.886  0.890E-02  0.890E-02
  -0.876  0.855E-02  0.855E-02
  -0.866  0.821E-02  0.821E-02
  -0.856  0.787E-02  0.787E-02
  -0.846  0.754E-02  0.754E-02
  -0.836  0.722E-02  0.722E-02
  -0.826  0.691E-02  0.691E-02
  -0.816  0.660E-02  0.660E-02
  -0.806  0.630E-02  0.630E-02
  -0.796  0.601E-02  0.601E-02
  -0.786  0.573E-02  0.573E-02
  -0.776  0.545E-02  0.545E-02
  -0.766  0.518E-02  0.518E-02
  -0.756  0.492E-02  0.492E-02
  -0.746  0.467E-02  0.467E-02
  -0.736  0.442E-02  0.442E-02
  -0.726  0.419E-02  0.419E-02
  -0.716  0.396E-02  0.396E-02
  -0.706  0.373E-02  0.373E-02
  -0.696  0.352E-02  0.352E-02
  -0.686  0.331E-02  0.331E-02
  -0.676  0.310E-02  0.310E-02
  -0.666  0.291E-02  0.291E-02
  -0.656  0.272E-02  0.272E-02
  -0.646  0.253E-02  0.253E-02
  -0.636  0.236E-02  0.236E-02
  -0.626  0.219E-02  0.219E-02
  -0.616  0.202E-02  0.202E-02
  -0.606  0.187E-02  0.187E-02
  -0.596  0.171E-02  0.171E-02
  -0.586  0.157E-02  0.157E-02
  -0.576  0.142E-02  0.142E-02
  -0.566  0.129E-02  0.129E-02
  -0.556  0.116E-02  0.116E-02
  -0.546  0.103E-02  0.103E-02
  -0.536  0.910E-03  0.910E-03
  -0.526  0.793E-03  0.793E-03
  -0.516  0.681E-03  0.681E-03
  -0.506  0.574E-03  0.574E-03
  -0.496  0.470E-03  0.470E-03
  -0.486  0.371E-03  0.371E-03
  -0.476  0.275E-03  0.275E-03
  -0.466  0.184E-03  0.184E-03
  -0.456  0.960E-04  0.960E-04
  -0.446  0.118E-04  0.118E-04
  -0.436 -0.691E-04 -0.691E-04
  -0.426 -0.147E-03 -0.147E-03
  -0.416 -0.221E-03 -0.221E-03
  -0.406 -0.292E-03 -0.292E-03
  -0.396 -0.360E-03 -0.360E-03
  -0.386 -0.425E-03 -0.425E-03
  -0.376 -0.488E-03 -0.488E-03
  -0.366 -0.547E-03 -0.547E-03
  -0.356 -0.604E-03 -0.604E-03
  -0.346 -0.659E-03 -0.659E-03
  -0.336 -0.710E-03 -0.710E-03
  -0.326 -0.759E-03 -0.759E-03
  -0.316 -0.806E-03 -0.806E-03
  -0.306 -0.850E-03 -0.850E-03
  -0.296 -0.892E-03 -0.892E-03
  -0.286 -0.932E-03 -0.932E-03
  -0.276 -0.969E-03 -0.969E-03
  -0.266 -0.100E-02 -0.100E-02
  -0.256 -0.104E-02 -0.104E-02
  -0.246 -0.107E-02 -0.107E-02
  -0.236 -0.109E-02 -0.109E-02
  -0.226 -0.112E-02 -0.112E-02
  -0.216 -0.114E-02 -0.114E-02
  -0.206 -0.116E-02 -0.116E-02
  -0.196 -0.118E-02 -0.118E-02
  -0.186 -0.119E-02 -0.119E-02
  -0.176 -0.120E-02 -0.120E-02
  -0.166 -0.121E-02 -0.121E-02
  -0.156 -0.122E-02 -0.122E-02
  -0.146 -0.122E-02 -0.122E-02
  -0.136 -0.122E-02 -0.122E-02
  -0.126 -0.122E-02 -0.122E-02
  -0.116 -0.121E-02 -0.121E-02
  -0.106 -0.120E-02 -0.120E-02
  -0.096 -0.118E-02 -0.118E-02
  -0.086 -0.117E-02 -0.117E-02
  -0.076 -0.115E-02 -0.115E-02
  -0.066 -0.112E-02 -0.112E-02
  -0.056 -0.109E-02 -0.109E-02
  -0.046 -0.105E-02 -0.105E-02
  -0.036 -0.102E-02 -0.102E-02
  -0.026 -0.971E-03 -0.971E-03
  -0.016 -0.922E-03 -0.922E-03
  -0.006 -0.868E-03 -0.868E-03
   0.004 -0.809E-03 -0.809E-03
   0.014 -0.744E-03 -0.744E-03
   0.024 -0.673E-03 -0.673E-03
   0.034 -0.596E-03 -0.596E-03
   0.044 -0.512E-03 -0.512E-03
   0.054 -0.423E-03 -0.423E-03
   0.064 -0.327E-03 -0.327E-03
   0.074 -0.223E-03 -0.223E-03
   0.084 -0.113E-03 -0.113E-03
   0.094  0.445E-05  0.445E-05
   0.104  0.130E-03  0.130E-03
   0.114  0.263E-03  0.263E-03
   0.124  0.404E-03  0.404E-03
   0.134  0.553E-03  0.553E-03
   0.144  0.711E-03  0.711E-03
   0.154  0.877E-03  0.877E-03
   0.164  0.105E-02  0.105E-02
   0.174  0.124E-02  0.124E-02
   0.184  0.143E-02  0.143E-02
   0.194  0.163E-02  0.163E-02
   0.204  0.185E-02  0.185E-02
   0.214  0.207E-02  0.207E-02
   0.224  0.230E-02  0.230E-02
   0.234  0.255E-02  0.255E-02
   0.244  0.280E-02  0.280E-02
   0.254  0.307E-02  0.307E-02
   0.264  0.334E-02  0.334E-02
   0.274  0.363E-02  0.363E-02
   0.284  0.393E-02  0.393E-02
   0.294  0.424E-02  0.424E-02
   0.304  0.456E-02  0.456E-02
   0.314  0.489E-02  0.489E-02
   0.324  0.523E-02  0.523E-02
   0.334  0.559E-02  0.559E-02
   0.344  0.596E-02  0.596E-02
   0.354  0.634E-02  0.634E-02
   0.364  0.673E-02  0.673E-02
   0.374  0.713E-02  0.713E-02
   0.384  0.755E-02  0.755E-02
   0.394  0.797E-02  0.797E-02
   0.404  0.841E-02  0.841E-02
   0.414  0.886E-02  0.886E-02
   0.424  0.933E-02  0.933E-02
   0.434  0.980E-02  0.980E-02
   0.444  0.103E-01  0.103E-01
   0.454  0.108E-01  0.108E-01
   0.464  0.113E-01  0.113E-01
   0.474  0.118E-01  0.118E-01
   0.484  0.123E-01  0.123E-01
   0.494  0.129E-01  0.129E-01
   0.504  0.134E-01  0.134E-01
   0.514  0.140E-01  0.140E-01
   0.524  0.146E-01  0.146E-01
   0.534  0.152E-01  0.152E-01
   0.544  0.158E-01  0.158E-01
   0.554  0.164E-01  0.164E-01
   0.564  0.170E-01  0.170E-01
   0.574  0.176E-01  0.176E-01
   0.584  0.182E-01  0.182E-01
   0.594  0.189E-01  0.189E-01
   0.604  0.195E-01  0.195E-01
   0.614  0.202E-01  0.202E-01
   0.624  0.208E-01  0.208E-01
   0.634  0.215E-01  0.215E-01
   0.644  0.222E-01  0.222E-01
   0.654  0.229E-01  0.229E-01
   0.664  0.235E-01  0.235E-01
   0.674  0.242E-01  0.242E-01
   0.684  0.249E-01  0.249E-01
   0.694  0.256E-01  0.256E-01
   0.704  0.263E-01  0.263E-01
   0.714  0.270E-01  0.270E-01
   0.724  0.277E-01  0.277E-01
   0.734  0.285E-01  0.285E-01
   0.744  0.292E-01  0.292E-01
   0.754  0.299E-01  0.299E-01
   0.764  0.306E-01  0.306E-01
   0.774  0.313E-01  0.313E-01
   0.784  0.320E-01  0.320E-01
   0.794  0.327E-01  0.327E-01
   0.804  0.334E-01  0.334E-01
   0.814  0.341E-01  0.341E-01
   0.824  0.348E-01  0.348E-01
   0.834  0.355E-01  0.355E-01
   0.844  0.362E-01  0.362E-01
   0.854  0.369E-01  0.369E-01
   0.864  0.376E-01  0.376E-01
   0.874  0.382E-01  0.382E-01
   0.884  0.389E-01  0.389E-01
   0.894  0.396E-01  0.396E-01
   0.904  0.402E-01  0.402E-01
   0.914  0.409E-01  0.409E-01
   0.924  0.415E-01  0.415E-01
   0.934  0.421E-01  0.421E-01
   0.944  0.427E-01  0.427E-01
   0.954  0.433E-01  0.433E-01
   0.964  0.439E-01  0.439E-01
   0.974  0.445E-01  0.445E-01
   0.984  0.450E-01  0.450E-01
   0.994  0.456E-01  0.456E-01
   1.004  0.461E-01  0.461E-01
   1.014  0.466E-01  0.466E-01
   1.024  0.472E-01  0.472E-01
   1.034  0.476E-01  0.476E-01
   1.044  0.481E-01  0.481E-01
   1.054  0.486E-01  0.486E-01
   1.064  0.490E-01  0.490E-01
   1.074  0.494E-01  0.494E-01
   1.084  0.498E-01  0.498E-01
   1.094  0.502E-01  0.502E-01
   1.104  0.506E-01  0.506E-01
   1.114  0.510E-01  0.510E-01
   1.124  0.513E-01  0.513E-01
   1.134  0.516E-01  0.516E-01
   1.144  0.519E-01  0.519E-01
   1.154  0.522E-01  0.522E-01
   1.164  0.524E-01  0.524E-01
   1.174  0.527E-01  0.527E-01
   1.184  0.529E-01  0.529E-01
   1.194  0.531E-01  0.531E-01
   1.204  0.532E-01  0.532E-01
   1.214  0.534E-01  0.534E-01
   1.224  0.535E-01  0.535E-01
   1.234  0.536E-01  0.536E-01
   1.244  0.537E-01  0.537E-01
   1.254  0.538E-01  0.538E-01
   1.264  0.538E-01  0.538E-01
   1.274  0.538E-01  0.538E-01
   1.284  0.538E-01  0.538E-01
   1.294  0.538E-01  0.538E-01
   1.304  0.538E-01  0.538E-01
   1.314  0.537E-01  0.537E-01
   1.324  0.536E-01  0.536E-01
   1.334  0.535E-01  0.535E-01
   1.344  0.534E-01  0.534E-01
   1.354  0.532E-01  0.532E-01
   1.364  0.531E-01  0.531E-01
   1.374  0.529E-01  0.529E-01
   1.384  0.527E-01  0.527E-01
   1.394  0.524E-01  0.524E-01
   1.404  0.522E-01  0.522E-01
   1.414  0.519E-01  0.519E-01
   1.424  0.516E-01  0.516E-01
   1.434  0.513E-01  0.513E-01
   1.444  0.510E-01  0.510E-01
   1.454  0.507E-01  0.507E-01
   1.464  0.503E-01  0.503E-01
   1.474  0.499E-01  0.499E-01
   1.484  0.495E-01  0.495E-01
   1.494  0.491E-01  0.491E-01
   1.504  0.487E-01  0.487E-01
   1.514  0.483E-01  0.483E-01
   1.524  0.478E-01  0.478E-01
   1.534  0.473E-01  0.473E-01
   1.544  0.468E-01  0.468E-01
   1.554  0.464E-01  0.464E-01
   1.564  0.458E-01  0.458E-01
   1.574  0.453E-01  0.453E-01
   1.584  0.448E-01  0.448E-01
   1.594  0.443E-01  0.443E-01
   1.604  0.437E-01  0.437E-01
   1.614  0.431E-01  0.431E-01
   1.624  0.426E-01  0.426E-01
   1.634  0.420E-01  0.420E-01
   1.644  0.414E-01  0.414E-01
   1.654  0.408E-01  0.408E-01
   1.664  0.402E-01  0.402E-01
   1.674  0.396E-01  0.396E-01
   1.684  0.390E-01  0.390E-01
   1.694  0.384E-01  0.384E-01
   1.704  0.377E-01  0.377E-01
   1.714  0.371E-01  0.371E-01
   1.724  0.365E-01  0.365E-01
   1.734  0.358E-01  0.358E-01
   1.744  0.352E-01  0.352E-01
   1.754  0.346E-01  0.346E-01
   1.764  0.339E-01  0.339E-01
   1.774  0.333E-01  0.333E-01
   1.784  0.327E-01  0.327E-01
   1.794  0.320E-01  0.320E-01
   1.804  0.314E-01  0.314E-01
   1.814  0.308E-01  0.308E-01
   1.824  0.301E-01  0.301E-01
   1.834  0.295E-01  0.295E-01
   1.844  0.289E-01  0.289E-01
   1.854  0.283E-01  0.283E-01
   1.864  0.277E-01  0.277E-01
   1.874  0.271E-01  0.271E-01
   1.884  0.265E-01  0.265E-01
   1.894  0.259E-01  0.259E-01
   1.904  0.253E-01  0.253E-01
   1.914  0.247E-01  0.247E-01
   1.924  0.242E-01  0.242E-01
   1.934  0.236E-01  0.236E-01
   1.944  0.230E-01  0.230E-01
   1.954  0.225E-01  0.225E-01
   1.964  0.220E-01  0.220E-01
   1.974  0.214E-01  0.214E-01
   1.984  0.209E-01  0.209E-01
   1.994  0.204E-01  0.204E-01
   2.004  0.199E-01  0.199E-01
   2.014  0.195E-01  0.195E-01
   2.024  0.190E-01  0.190E-01
   2.034  0.185E-01  0.185E-01
   2.044  0.181E-01  0.181E-01
   2.054  0.177E-01  0.177E-01
   2.064  0.172E-01  0.172E-01
   2.074  0.168E-01  0.168E-01
   2.084  0.164E-01  0.164E-01
   2.094  0.161E-01  0.161E-01
   2.104  0.157E-01  0.157E-01
   2.114  0.153E-01  0.153E-01
   2.124  0.150E-01  0.150E-01
   2.134  0.147E-01  0.147E-01
   2.144  0.144E-01  0.144E-01
   2.154  0.141E-01  0.141E-01
   2.164  0.138E-01  0.138E-01
   2.174  0.135E-01  0.135E-01
   2.184  0.133E-01  0.133E-01
   2.194  0.131E-01  0.131E-01
   2.204  0.128E-01  0.128E-01
   2.214  0.126E-01  0.126E-01
   2.224  0.125E-01  0.125E-01
   2.234  0.123E-01  0.123E-01
   2.244  0.121E-01  0.121E-01
   2.254  0.120E-01  0.120E-01
   2.264  0.118E-01  0.118E-01
   2.274  0.117E-01  0.117E-01
   2.284  0.116E-01  0.116E-01
   2.294  0.116E-01  0.116E-01
   2.304  0.115E-01  0.115E-01
   2.314  0.114E-01  0.114E-01
   2.324  0.114E-01  0.114E-01
   2.334  0.114E-01  0.114E-01
   2.344  0.114E-01  0.114E-01
   2.354  0.114E-01  0.114E-01
   2.364  0.114E-01  0.114E-01
   2.374  0.114E-01  0.114E-01
   2.384  0.115E-01  0.115E-01
   2.394  0.115E-01  0.115E-01
   2.404  0.116E-01  0.116E-01
   2.414  0.117E-01  0.117E-01
   2.424  0.118E-01  0.118E-01
   2.434  0.119E-01  0.119E-01
   2.444  0.121E-01  0.121E-01
   2.454  0.122E-01  0.122E-01
   2.464  0.123E-01  0.123E-01
   2.474  0.125E-01  0.125E-01
   2.484  0.127E-01  0.127E-01
   2.494  0.129E-01  0.129E-01
   2.504  0.131E-01  0.131E-01
   2.514  0.133E-01  0.133E-01
   2.524  0.135E-01  0.135E-01
   2.534  0.137E-01  0.137E-01
   2.544  0.140E-01  0.140E-01
   2.554  0.142E-01  0.142E-01
   2.564  0.145E-01  0.145E-01
   2.574  0.148E-01  0.148E-01
   2.584  0.150E-01  0.150E-01
   2.594  0.153E-01  0.153E-01
   2.604  0.156E-01  0.156E-01
   2.614  0.159E-01  0.159E-01
   2.624  0.162E-01  0.162E-01
   2.634  0.165E-01  0.165E-01
   2.644  0.168E-01  0.168E-01
   2.654  0.171E-01  0.171E-01
   2.664  0.175E-01  0.175E-01
   2.674  0.178E-01  0.178E-01
   2.684  0.181E-01  0.181E-01
   2.694  0.184E-01  0.184E-01
   2.704  0.188E-01  0.188E-01
   2.714  0.191E-01  0.191E-01
   2.724  0.194E-01  0.194E-01
   2.734  0.198E-01  0.198E-01
   2.744  0.201E-01  0.201E-01
   2.754  0.204E-01  0.204E-01
   2.764  0.207E-01  0.207E-01
   2.774  0.211E-01  0.211E-01
   2.784  0.214E-01  0.214E-01
   2.794  0.217E-01  0.217E-01
   2.804  0.220E-01  0.220E-01
   2.814  0.223E-01  0.223E-01
   2.824  0.226E-01  0.226E-01
   2.834  0.229E-01  0.229E-01
   2.844  0.232E-01  0.232E-01
   2.854  0.235E-01  0.235E-01
   2.864  0.238E-01  0.238E-01
   2.874  0.241E-01  0.241E-01
   2.884  0.243E-01  0.243E-01
   2.894  0.246E-01  0.246E-01
   2.904  0.248E-01  0.248E-01
   2.914  0.250E-01  0.250E-01
   2.924  0.253E-01  0.253E-01
   2.934  0.255E-01  0.255E-01
   2.944  0.257E-01  0.257E-01
   2.954  0.259E-01  0.259E-01
   2.964  0.260E-01  0.260E-01
   2.974  0.262E-01  0.262E-01
   2.984  0.263E-01  0.263E-01
   2.994  0.265E-01  0.265E-01
   3.004  0.266E-01  0.266E-01
   3.014  0.267E-01  0.267E-01
   3.024  0.268E-01  0.268E-01
   3.034  0.269E-01  0.269E-01
   3.044  0.269E-01  0.269E-01
   3.054  0.270E-01  0.270E-01
   3.064  0.270E-01  0.270E-01
   3.074  0.270E-01  0.270E-01
   3.084  0.270E-01  0.270E-01
   3.094  0.270E-01  0.270E-01
   3.104  0.270E-01  0.270E-01
   3.114  0.269E-01  0.269E-01
   3.124  0.268E-01  0.268E-01
   3.134  0.268E-01  0.268E-01
   3.144  0.267E-01  0.267E-01
   3.154  0.266E-01  0.266E-01
   3.164  0.264E-01  0.264E-01
   3.174  0.263E-01  0.263E-01
   3.184  0.261E-01  0.261E-01
   3.194  0.260E-01  0.260E-01
   3.204  0.258E-01  0.258E-01
   3.214  0.256E-01  0.256E-01
   3.224  0.254E-01  0.254E-01
   3.234  0.251E-01  0.251E-01
   3.244  0.249E-01  0.249E-01
   3.254  0.246E-01  0.246E-01
   3.264  0.243E-01  0.243E-01
   3.274  0.241E-01  0.241E-01
   3.284  0.238E-01  0.238E-01
   3.294  0.235E-01  0.235E-01
   3.304  0.231E-01  0.231E-01
   3.314  0.228E-01  0.228E-01
   3.324  0.225E-01  0.225E-01
   3.334  0.221E-01  0.221E-01
   3.344  0.217E-01  0.217E-01
   3.354  0.214E-01  0.214E-01
   3.364  0.210E-01  0.210E-01
   3.374  0.206E-01  0.206E-01
   3.384  0.202E-01  0.202E-01
   3.394  0.198E-01  0.198E-01
   3.404  0.194E-01  0.194E-01
   3.414  0.190E-01  0.190E-01
   3.424  0.185E-01  0.185E-01
   3.434  0.181E-01  0.181E-01
   3.444  0.177E-01  0.177E-01
   3.454  0.173E-01  0.173E-01
   3.464  0.168E-01  0.168E-01
   3.474  0.164E-01  0.164E-01
   3.484  0.159E-01  0.159E-01
   3.494  0.155E-01  0.155E-01
   3.504  0.150E-01  0.150E-01
   3.514  0.146E-01  0.146E-01
   3.524  0.141E-01  0.141E-01
   3.534  0.137E-01  0.137E-01
   3.544  0.133E-01  0.133E-01
   3.554  0.128E-01  0.128E-01
   3.564  0.124E-01  0.124E-01
   3.574  0.119E-01  0.119E-01
   3.584  0.115E-01  0.115E-01
   3.594  0.111E-01  0.111E-01
   3.604  0.106E-01  0.106E-01
   3.614  0.102E-01  0.102E-01
   3.624  0.981E-02  0.981E-02
   3.634  0.939E-02  0.939E-02
   3.644  0.899E-02  0.899E-02
   3.654  0.858E-02  0.858E-02
   3.664  0.819E-02  0.819E-02
   3.674  0.780E-02  0.780E-02
   3.684  0.742E-02  0.742E-02
   3.694  0.704E-02  0.704E-02
   3.704  0.668E-02  0.668E-02
   3.714  0.632E-02  0.632E-02
   3.724  0.597E-02  0.597E-02
   3.734  0.562E-02  0.562E-02
   3.744  0.529E-02  0.529E-02
   3.754  0.496E-02  0.496E-02
   3.764  0.464E-02  0.464E-02
   3.774  0.433E-02  0.433E-02
   3.784  0.403E-02  0.403E-02
   3.794  0.374E-02  0.374E-02
   3.804  0.345E-02  0.345E-02
   3.814  0.318E-02  0.318E-02
   3.824  0.291E-02  0.291E-02
   3.834  0.266E-02  0.266E-02
   3.844  0.241E-02  0.241E-02
   3.854  0.217E-02  0.217E-02
   3.864  0.194E-02  0.194E-02
   3.874  0.172E-02  0.172E-02
   3.884  0.151E-02  0.151E-02
   3.894  0.131E-02  0.131E-02
   3.904  0.112E-02  0.112E-02
   3.914  0.931E-03  0.931E-03
   3.924  0.755E-03  0.755E-03
   3.934  0.587E-03  0.587E-03
   3.944  0.427E-03  0.427E-03
   3.954  0.276E-03  0.276E-03
   3.964  0.133E-03  0.133E-03
   3.974 -0.255E-05 -0.255E-05
   3.984 -0.130E-03 -0.130E-03
   3.994 -0.250E-03 -0.250E-03
   4.004 -0.363E-03 -0.363E-03
   4.014 -0.468E-03 -0.468E-03
   4.024 -0.567E-03 -0.567E-03
   4.034 -0.658E-03 -0.658E-03
   4.044 -0.743E-03 -0.743E-03
   4.054 -0.822E-03 -0.822E-03
   4.064 -0.894E-03 -0.894E-03
   4.074 -0.960E-03 -0.960E-03
   4.084 -0.102E-02 -0.102E-02
   4.094 -0.108E-02 -0.108E-02
   4.104 -0.113E-02 -0.113E-02
   4.114 -0.117E-02 -0.117E-02
   4.124 -0.121E-02 -0.121E-02
   4.134 -0.124E-02 -0.124E-02
   4.144 -0.127E-02 -0.127E-02
   4.154 -0.130E-02 -0.130E-02
   4.164 -0.132E-02 -0.132E-02
   4.174 -0.134E-02 -0.134E-02
   4.184 -0.135E-02 -0.135E-02
   4.194 -0.136E-02 -0.136E-02
   4.204 -0.137E-02 -0.137E-02
   4.214 -0.137E-02 -0.137E-02
   4.224 -0.137E-02 -0.137E-02
   4.234 -0.137E-02 -0.137E-02
   4.244 -0.137E-02 -0.137E-02
   4.254 -0.136E-02 -0.136E-02
   4.264 -0.135E-02 -0.135E-02
   4.274 -0.134E-02 -0.134E-02
   4.284 -0.133E-02 -0.133E-02
   4.294 -0.131E-02 -0.131E-02
   4.304 -0.129E-02 -0.129E-02
   4.314 -0.128E-02 -0.128E-02
   4.324 -0.126E-02 -0.126E-02
   4.334 -0.123E-02 -0.123E-02
   4.344 -0.121E-02 -0.121E-02
   4.354 -0.119E-02 -0.119E-02
   4.364 -0.116E-02 -0.116E-02
   4.374 -0.114E-02 -0.114E-02
   4.384 -0.111E-02 -0.111E-02
   4.394 -0.109E-02 -0.109E-02
   4.404 -0.106E-02 -0.106E-02
   4.414 -0.104E-02 -0.104E-02
   4.424 -0.101E-02 -0.101E-02
   4.434 -0.981E-03 -0.981E-03
   4.444 -0.954E-03 -0.954E-03
   4.454 -0.926E-03 -0.926E-03
   4.464 -0.899E-03 -0.899E-03
   4.474 -0.871E-03 -0.871E-03
   4.484 -0.844E-03 -0.844E-03
   4.494 -0.817E-03 -0.817E-03
   4.504 -0.790E-03 -0.790E-03
   4.514 -0.763E-03 -0.763E-03
   4.524 -0.737E-03 -0.737E-03
   4.534 -0.711E-03 -0.711E-03
   4.544 -0.686E-03 -0.686E-03
   4.554 -0.661E-03 -0.661E-03
   4.564 -0.636E-03 -0.636E-03
   4.574 -0.612E-03 -0.612E-03
   4.584 -0.588E-03 -0.588E-03
   4.594 -0.565E-03 -0.565E-03
   4.604 -0.542E-03 -0.542E-03
   4.614 -0.520E-03 -0.520E-03
   4.624 -0.499E-03 -0.499E-03
   4.634 -0.478E-03 -0.478E-03
   4.644 -0.457E-03 -0.457E-03
   4.654 -0.438E-03 -0.438E-03
   4.664 -0.418E-03 -0.418E-03
   4.674 -0.400E-03 -0.400E-03
   4.684 -0.382E-03 -0.382E-03
   4.694 -0.364E-03 -0.364E-03
   4.704 -0.347E-03 -0.347E-03
   4.714 -0.331E-03 -0.331E-03
   4.724 -0.315E-03 -0.315E-03
   4.734 -0.300E-03 -0.300E-03
   4.744 -0.286E-03 -0.286E-03
   4.754 -0.272E-03 -0.272E-03
   4.764 -0.258E-03 -0.258E-03
   4.774 -0.245E-03 -0.245E-03
   4.784 -0.233E-03 -0.233E-03
   4.794 -0.221E-03 -0.221E-03
   4.804 -0.209E-03 -0.209E-03
   4.814 -0.198E-03 -0.198E-03
   4.824 -0.188E-03 -0.188E-03
   4.834 -0.177E-03 -0.177E-03
   4.844 -0.168E-03 -0.168E-03
   4.854 -0.159E-03 -0.159E-03
   4.864 -0.150E-03 -0.150E-03
   4.874 -0.142E-03 -0.142E-03
   4.884 -0.134E-03 -0.134E-03
   4.894 -0.126E-03 -0.126E-03
   4.904 -0.119E-03 -0.119E-03
   4.914 -0.112E-03 -0.112E-03
   4.924 -0.105E-03 -0.105E-03
   4.934 -0.991E-04 -0.991E-04
   4.944 -0.932E-04 -0.932E-04
   4.954 -0.876E-04 -0.876E-04
   4.964 -0.823E-04 -0.823E-04
   4.974 -0.773E-04 -0.773E-04
   4.984 -0.725E-04 -0.725E-04
   4.994 -0.680E-04 -0.680E-04
   5.004 -0.638E-04 -0.638E-04
   5.014 -0.598E-04 -0.598E-04
   5.024 -0.560E-04 -0.560E-04
   5.034 -0.524E-04 -0.524E-04
   5.044 -0.490E-04 -0.490E-04
   5.054 -0.458E-04 -0.458E-04
   5.064 -0.428E-04 -0.428E-04
   5.074 -0.400E-04 -0.400E-04
   5.084 -0.374E-04 -0.374E-04
   5.094 -0.349E-04 -0.349E-04
   5.104 -0.325E-04 -0.325E-04
   5.114 -0.303E-04 -0.303E-04
   5.124 -0.282E-04 -0.282E-04
   5.134 -0.263E-04 -0.263E-04
   5.144 -0.245E-04 -0.245E-04
   5.154 -0.228E-04 -0.228E-04
   5.164 -0.212E-04 -0.212E-04
   5.174 -0.197E-04 -0.197E-04
   5.184 -0.183E-04 -0.183E-04
   5.194 -0.170E-04 -0.170E-04
   5.204 -0.157E-04 -0.157E-04
   5.214 -0.146E-04 -0.146E-04
   5.224 -0.135E-04 -0.135E-04
   5.234 -0.125E-04 -0.125E-04
   5.244 -0.116E-04 -0.116E-04
   5.254 -0.107E-04 -0.107E-04
   5.264 -0.994E-05 -0.994E-05
   5.274 -0.919E-05 -0.919E-05
   5.284 -0.850E-05 -0.850E-05
   5.294 -0.785E-05 -0.785E-05
