# E (eV)   ldos(E)   pdos(E)   
 -27.116 -0.318E-03 -0.318E-03
 -27.106 -0.343E-03 -0.343E-03
 -27.096 -0.370E-03 -0.370E-03
 -27.086 -0.399E-03 -0.399E-03
 -27.076 -0.430E-03 -0.430E-03
 -27.066 -0.463E-03 -0.463E-03
 -27.056 -0.499E-03 -0.499E-03
 -27.046 -0.536E-03 -0.536E-03
 -27.036 -0.577E-03 -0.577E-03
 -27.026 -0.620E-03 -0.620E-03
 -27.016 -0.666E-03 -0.666E-03
 -27.006 -0.715E-03 -0.715E-03
 -26.996 -0.767E-03 -0.767E-03
 -26.986 -0.823E-03 -0.823E-03
 -26.976 -0.882E-03 -0.882E-03
 -26.966 -0.944E-03 -0.944E-03
 -26.956 -0.101E-02 -0.101E-02
 -26.946 -0.108E-02 -0.108E-02
 -26.936 -0.116E-02 -0.116E-02
 -26.926 -0.124E-02 -0.124E-02
 -26.916 -0.132E-02 -0.132E-02
 -26.906 -0.141E-02 -0.141E-02
 -26.896 -0.151E-02 -0.151E-02
 -26.886 -0.161E-02 -0.161E-02
 -26.876 -0.171E-02 -0.171E-02
 -26.866 -0.183E-02 -0.183E-02
 -26.856 -0.194E-02 -0.194E-02
 -26.846 -0.207E-02 -0.207E-02
 -26.836 -0.220E-02 -0.220E-02
 -26.826 -0.234E-02 -0.234E-02
 -26.816 -0.249E-02 -0.249E-02
 -26.806 -0.264E-02 -0.264E-02
 -26.796 -0.280E-02 -0.280E-02
 -26.786 -0.297E-02 -0.297E-02
 -26.776 -0.315E-02 -0.315E-02
 -26.766 -0.334E-02 -0.334E-02
 -26.756 -0.353E-02 -0.353E-02
 -26.746 -0.374E-02 -0.374E-02
 -26.736 -0.395E-02 -0.395E-02
 -26.726 -0.418E-02 -0.418E-02
 -26.716 -0.441E-02 -0.441E-02
 -26.706 -0.466E-02 -0.466E-02
 -26.696 -0.492E-02 -0.492E-02
 -26.686 -0.518E-02 -0.518E-02
 -26.676 -0.546E-02 -0.546E-02
 -26.666 -0.575E-02 -0.575E-02
 -26.656 -0.605E-02 -0.605E-02
 -26.646 -0.637E-02 -0.637E-02
 -26.636 -0.669E-02 -0.669E-02
 -26.626 -0.703E-02 -0.703E-02
 -26.616 -0.738E-02 -0.738E-02
 -26.606 -0.774E-02 -0.774E-02
 -26.596 -0.812E-02 -0.812E-02
 -26.586 -0.851E-02 -0.851E-02
 -26.576 -0.890E-02 -0.890E-02
 -26.566 -0.932E-02 -0.932E-02
 -26.556 -0.974E-02 -0.974E-02
 -26.546 -0.102E-01 -0.102E-01
 -26.536 -0.106E-01 -0.106E-01
 -26.526 -0.111E-01 -0.111E-01
 -26.516 -0.116E-01 -0.116E-01
 -26.506 -0.120E-01 -0.120E-01
 -26.496 -0.125E-01 -0.125E-01
 -26.486 -0.130E-01 -0.130E-01
 -26.476 -0.136E-01 -0.136E-01
 -26.466 -0.141E-01 -0.141E-01
 -26.456 -0.146E-01 -0.146E-01
 -26.446 -0.152E-01 -0.152E-01
 -26.436 -0.157E-01 -0.157E-01
 -26.426 -0.163E-01 -0.163E-01
 -26.416 -0.168E-01 -0.168E-01
 -26.406 -0.174E-01 -0.174E-01
 -26.396 -0.180E-01 -0.180E-01
 -26.386 -0.186E-01 -0.186E-01
 -26.376 -0.191E-01 -0.191E-01
 -26.366 -0.197E-01 -0.197E-01
 -26.356 -0.203E-01 -0.203E-01
 -26.346 -0.209E-01 -0.209E-01
 -26.336 -0.214E-01 -0.214E-01
 -26.326 -0.220E-01 -0.220E-01
 -26.316 -0.225E-01 -0.225E-01
 -26.306 -0.231E-01 -0.231E-01
 -26.296 -0.236E-01 -0.236E-01
 -26.286 -0.241E-01 -0.241E-01
 -26.276 -0.246E-01 -0.246E-01
 -26.266 -0.251E-01 -0.251E-01
 -26.256 -0.256E-01 -0.256E-01
 -26.246 -0.260E-01 -0.260E-01
 -26.236 -0.264E-01 -0.264E-01
 -26.226 -0.268E-01 -0.268E-01
 -26.216 -0.271E-01 -0.271E-01
 -26.206 -0.274E-01 -0.274E-01
 -26.196 -0.277E-01 -0.277E-01
 -26.186 -0.279E-01 -0.279E-01
 -26.176 -0.280E-01 -0.280E-01
 -26.166 -0.281E-01 -0.281E-01
 -26.156 -0.282E-01 -0.282E-01
 -26.146 -0.282E-01 -0.282E-01
 -26.136 -0.281E-01 -0.281E-01
 -26.126 -0.280E-01 -0.280E-01
 -26.116 -0.278E-01 -0.278E-01
 -26.106 -0.275E-01 -0.275E-01
 -26.096 -0.272E-01 -0.272E-01
 -26.086 -0.267E-01 -0.267E-01
 -26.076 -0.262E-01 -0.262E-01
 -26.066 -0.256E-01 -0.256E-01
 -26.056 -0.249E-01 -0.249E-01
 -26.046 -0.241E-01 -0.241E-01
 -26.036 -0.231E-01 -0.231E-01
 -26.026 -0.221E-01 -0.221E-01
 -26.016 -0.210E-01 -0.210E-01
 -26.006 -0.197E-01 -0.197E-01
 -25.996 -0.183E-01 -0.183E-01
 -25.986 -0.168E-01 -0.168E-01
 -25.976 -0.151E-01 -0.151E-01
 -25.966 -0.133E-01 -0.133E-01
 -25.956 -0.114E-01 -0.114E-01
 -25.946 -0.926E-02 -0.926E-02
 -25.936 -0.702E-02 -0.702E-02
 -25.926 -0.463E-02 -0.463E-02
 -25.916 -0.207E-02 -0.207E-02
 -25.906  0.646E-03  0.646E-03
 -25.896  0.353E-02  0.353E-02
 -25.886  0.658E-02  0.658E-02
 -25.876  0.981E-02  0.981E-02
 -25.866  0.132E-01  0.132E-01
 -25.856  0.168E-01  0.168E-01
 -25.846  0.206E-01  0.206E-01
 -25.836  0.245E-01  0.245E-01
 -25.826  0.286E-01  0.286E-01
 -25.816  0.330E-01  0.330E-01
 -25.806  0.375E-01  0.375E-01
 -25.796  0.422E-01  0.422E-01
 -25.786  0.471E-01  0.471E-01
 -25.776  0.522E-01  0.522E-01
 -25.766  0.574E-01  0.574E-01
 -25.756  0.629E-01  0.629E-01
 -25.746  0.686E-01  0.686E-01
 -25.736  0.744E-01  0.744E-01
 -25.726  0.805E-01  0.805E-01
 -25.716  0.867E-01  0.867E-01
 -25.706  0.931E-01  0.931E-01
 -25.696  0.997E-01  0.997E-01
 -25.686  0.106E+00  0.106E+00
 -25.676  0.113E+00  0.113E+00
 -25.666  0.121E+00  0.121E+00
 -25.656  0.128E+00  0.128E+00
 -25.646  0.135E+00  0.135E+00
 -25.636  0.143E+00  0.143E+00
 -25.626  0.151E+00  0.151E+00
 -25.616  0.159E+00  0.159E+00
 -25.606  0.167E+00  0.167E+00
 -25.596  0.175E+00  0.175E+00
 -25.586  0.183E+00  0.183E+00
 -25.576  0.191E+00  0.191E+00
 -25.566  0.200E+00  0.200E+00
 -25.556  0.209E+00  0.209E+00
 -25.546  0.217E+00  0.217E+00
 -25.536  0.226E+00  0.226E+00
 -25.526  0.235E+00  0.235E+00
 -25.516  0.244E+00  0.244E+00
 -25.506  0.253E+00  0.253E+00
 -25.496  0.262E+00  0.262E+00
 -25.486  0.271E+00  0.271E+00
 -25.476  0.280E+00  0.280E+00
 -25.466  0.289E+00  0.289E+00
 -25.456  0.298E+00  0.298E+00
 -25.446  0.307E+00  0.307E+00
 -25.436  0.316E+00  0.316E+00
 -25.426  0.325E+00  0.325E+00
 -25.416  0.334E+00  0.334E+00
 -25.406  0.343E+00  0.343E+00
 -25.396  0.352E+00  0.352E+00
 -25.386  0.360E+00  0.360E+00
 -25.376  0.369E+00  0.369E+00
 -25.366  0.377E+00  0.377E+00
 -25.356  0.385E+00  0.385E+00
 -25.346  0.394E+00  0.394E+00
 -25.336  0.401E+00  0.401E+00
 -25.326  0.409E+00  0.409E+00
 -25.316  0.417E+00  0.417E+00
 -25.306  0.424E+00  0.424E+00
 -25.296  0.431E+00  0.431E+00
 -25.286  0.438E+00  0.438E+00
 -25.276  0.445E+00  0.445E+00
 -25.266  0.452E+00  0.452E+00
 -25.256  0.458E+00  0.458E+00
 -25.246  0.464E+00  0.464E+00
 -25.236  0.469E+00  0.469E+00
 -25.226  0.475E+00  0.475E+00
 -25.216  0.480E+00  0.480E+00
 -25.206  0.485E+00  0.485E+00
 -25.196  0.489E+00  0.489E+00
 -25.186  0.493E+00  0.493E+00
 -25.176  0.497E+00  0.497E+00
 -25.166  0.500E+00  0.500E+00
 -25.156  0.504E+00  0.504E+00
 -25.146  0.506E+00  0.506E+00
 -25.136  0.509E+00  0.509E+00
 -25.126  0.511E+00  0.511E+00
 -25.116  0.513E+00  0.513E+00
 -25.106  0.514E+00  0.514E+00
 -25.096  0.515E+00  0.515E+00
 -25.086  0.515E+00  0.515E+00
 -25.076  0.516E+00  0.516E+00
 -25.066  0.515E+00  0.515E+00
 -25.056  0.515E+00  0.515E+00
 -25.046  0.514E+00  0.514E+00
 -25.036  0.513E+00  0.513E+00
 -25.026  0.511E+00  0.511E+00
 -25.016  0.509E+00  0.509E+00
 -25.006  0.507E+00  0.507E+00
 -24.996  0.504E+00  0.504E+00
 -24.986  0.501E+00  0.501E+00
 -24.976  0.498E+00  0.498E+00
 -24.966  0.494E+00  0.494E+00
 -24.956  0.490E+00  0.490E+00
 -24.946  0.485E+00  0.485E+00
 -24.936  0.481E+00  0.481E+00
 -24.926  0.476E+00  0.476E+00
 -24.916  0.470E+00  0.470E+00
 -24.906  0.465E+00  0.465E+00
 -24.896  0.459E+00  0.459E+00
 -24.886  0.453E+00  0.453E+00
 -24.876  0.446E+00  0.446E+00
 -24.866  0.440E+00  0.440E+00
 -24.856  0.433E+00  0.433E+00
 -24.846  0.425E+00  0.425E+00
 -24.836  0.418E+00  0.418E+00
 -24.826  0.411E+00  0.411E+00
 -24.816  0.403E+00  0.403E+00
 -24.806  0.395E+00  0.395E+00
 -24.796  0.387E+00  0.387E+00
 -24.786  0.379E+00  0.379E+00
 -24.776  0.370E+00  0.370E+00
 -24.766  0.362E+00  0.362E+00
 -24.756  0.353E+00  0.353E+00
 -24.746  0.344E+00  0.344E+00
 -24.736  0.336E+00  0.336E+00
 -24.726  0.327E+00  0.327E+00
 -24.716  0.318E+00  0.318E+00
 -24.706  0.309E+00  0.309E+00
 -24.696  0.300E+00  0.300E+00
 -24.686  0.291E+00  0.291E+00
 -24.676  0.282E+00  0.282E+00
 -24.666  0.273E+00  0.273E+00
 -24.656  0.263E+00  0.263E+00
 -24.646  0.254E+00  0.254E+00
 -24.636  0.245E+00  0.245E+00
 -24.626  0.237E+00  0.237E+00
 -24.616  0.228E+00  0.228E+00
 -24.606  0.219E+00  0.219E+00
 -24.596  0.210E+00  0.210E+00
 -24.586  0.201E+00  0.201E+00
 -24.576  0.193E+00  0.193E+00
 -24.566  0.185E+00  0.185E+00
 -24.556  0.176E+00  0.176E+00
 -24.546  0.168E+00  0.168E+00
 -24.536  0.160E+00  0.160E+00
 -24.526  0.152E+00  0.152E+00
 -24.516  0.144E+00  0.144E+00
 -24.506  0.137E+00  0.137E+00
 -24.496  0.129E+00  0.129E+00
 -24.486  0.122E+00  0.122E+00
 -24.476  0.115E+00  0.115E+00
 -24.466  0.108E+00  0.108E+00
 -24.456  0.101E+00  0.101E+00
 -24.446  0.942E-01  0.942E-01
 -24.436  0.878E-01  0.878E-01
 -24.426  0.815E-01  0.815E-01
 -24.416  0.754E-01  0.754E-01
 -24.406  0.696E-01  0.696E-01
 -24.396  0.639E-01  0.639E-01
 -24.386  0.584E-01  0.584E-01
 -24.376  0.530E-01  0.530E-01
 -24.366  0.479E-01  0.479E-01
 -24.356  0.430E-01  0.430E-01
 -24.346  0.383E-01  0.383E-01
 -24.336  0.337E-01  0.337E-01
 -24.326  0.294E-01  0.294E-01
 -24.316  0.252E-01  0.252E-01
 -24.306  0.212E-01  0.212E-01
 -24.296  0.174E-01  0.174E-01
 -24.286  0.138E-01  0.138E-01
 -24.276  0.104E-01  0.104E-01
 -24.266  0.712E-02  0.712E-02
 -24.256  0.404E-02  0.404E-02
 -24.246  0.113E-02  0.113E-02
 -24.236 -0.162E-02 -0.162E-02
 -24.226 -0.420E-02 -0.420E-02
 -24.216 -0.662E-02 -0.662E-02
 -24.206 -0.889E-02 -0.889E-02
 -24.196 -0.110E-01 -0.110E-01
 -24.186 -0.130E-01 -0.130E-01
 -24.176 -0.148E-01 -0.148E-01
 -24.166 -0.165E-01 -0.165E-01
 -24.156 -0.180E-01 -0.180E-01
 -24.146 -0.194E-01 -0.194E-01
 -24.136 -0.207E-01 -0.207E-01
 -24.126 -0.219E-01 -0.219E-01
 -24.116 -0.230E-01 -0.230E-01
 -24.106 -0.239E-01 -0.239E-01
 -24.096 -0.248E-01 -0.248E-01
 -24.086 -0.255E-01 -0.255E-01
 -24.076 -0.261E-01 -0.261E-01
 -24.066 -0.267E-01 -0.267E-01
 -24.056 -0.271E-01 -0.271E-01
 -24.046 -0.275E-01 -0.275E-01
 -24.036 -0.278E-01 -0.278E-01
 -24.026 -0.280E-01 -0.280E-01
 -24.016 -0.281E-01 -0.281E-01
 -24.006 -0.282E-01 -0.282E-01
 -23.996 -0.282E-01 -0.282E-01
 -23.986 -0.282E-01 -0.282E-01
 -23.976 -0.281E-01 -0.281E-01
 -23.966 -0.279E-01 -0.279E-01
 -23.956 -0.277E-01 -0.277E-01
 -23.946 -0.274E-01 -0.274E-01
 -23.936 -0.271E-01 -0.271E-01
 -23.926 -0.268E-01 -0.268E-01
 -23.916 -0.265E-01 -0.265E-01
 -23.906 -0.261E-01 -0.261E-01
 -23.896 -0.256E-01 -0.256E-01
 -23.886 -0.252E-01 -0.252E-01
 -23.876 -0.247E-01 -0.247E-01
 -23.866 -0.242E-01 -0.242E-01
 -23.856 -0.237E-01 -0.237E-01
 -23.846 -0.232E-01 -0.232E-01
 -23.836 -0.226E-01 -0.226E-01
 -23.826 -0.221E-01 -0.221E-01
 -23.816 -0.215E-01 -0.215E-01
 -23.806 -0.210E-01 -0.210E-01
 -23.796 -0.204E-01 -0.204E-01
 -23.786 -0.198E-01 -0.198E-01
 -23.776 -0.192E-01 -0.192E-01
 -23.766 -0.187E-01 -0.187E-01
 -23.756 -0.181E-01 -0.181E-01
 -23.746 -0.175E-01 -0.175E-01
 -23.736 -0.169E-01 -0.169E-01
 -23.726 -0.164E-01 -0.164E-01
 -23.716 -0.158E-01 -0.158E-01
 -23.706 -0.153E-01 -0.153E-01
 -23.696 -0.147E-01 -0.147E-01
 -23.686 -0.142E-01 -0.142E-01
 -23.676 -0.137E-01 -0.137E-01
 -23.666 -0.131E-01 -0.131E-01
 -23.656 -0.126E-01 -0.126E-01
 -23.646 -0.121E-01 -0.121E-01
 -23.636 -0.116E-01 -0.116E-01
 -23.626 -0.112E-01 -0.112E-01
 -23.616 -0.107E-01 -0.107E-01
 -23.606 -0.103E-01 -0.103E-01
 -23.596 -0.982E-02 -0.982E-02
 -23.586 -0.939E-02 -0.939E-02
 -23.576 -0.897E-02 -0.897E-02
 -23.566 -0.857E-02 -0.857E-02
 -23.556 -0.818E-02 -0.818E-02
 -23.546 -0.781E-02 -0.781E-02
 -23.536 -0.744E-02 -0.744E-02
 -23.526 -0.709E-02 -0.709E-02
 -23.516 -0.675E-02 -0.675E-02
 -23.506 -0.642E-02 -0.642E-02
 -23.496 -0.611E-02 -0.611E-02
 -23.486 -0.580E-02 -0.580E-02
 -23.476 -0.551E-02 -0.551E-02
 -23.466 -0.523E-02 -0.523E-02
 -23.456 -0.496E-02 -0.496E-02
 -23.446 -0.470E-02 -0.470E-02
 -23.436 -0.446E-02 -0.446E-02
 -23.426 -0.422E-02 -0.422E-02
 -23.416 -0.399E-02 -0.399E-02
 -23.406 -0.377E-02 -0.377E-02
 -23.396 -0.357E-02 -0.357E-02
 -23.386 -0.337E-02 -0.337E-02
 -23.376 -0.318E-02 -0.318E-02
 -23.366 -0.300E-02 -0.300E-02
 -23.356 -0.283E-02 -0.283E-02
 -23.346 -0.267E-02 -0.267E-02
 -23.336 -0.251E-02 -0.251E-02
 -23.326 -0.236E-02 -0.236E-02
 -23.316 -0.222E-02 -0.222E-02
 -23.306 -0.209E-02 -0.209E-02
 -23.296 -0.196E-02 -0.196E-02
 -23.286 -0.185E-02 -0.185E-02
 -23.276 -0.173E-02 -0.173E-02
 -23.266 -0.162E-02 -0.162E-02
 -23.256 -0.152E-02 -0.152E-02
 -23.246 -0.143E-02 -0.143E-02
 -23.236 -0.134E-02 -0.134E-02
 -23.226 -0.125E-02 -0.125E-02
 -23.216 -0.117E-02 -0.117E-02
 -23.206 -0.109E-02 -0.109E-02
 -23.196 -0.102E-02 -0.102E-02
 -23.186 -0.956E-03 -0.956E-03
 -23.176 -0.892E-03 -0.892E-03
 -23.166 -0.833E-03 -0.833E-03
 -23.156 -0.776E-03 -0.776E-03
 -23.146 -0.724E-03 -0.724E-03
 -23.136 -0.674E-03 -0.674E-03
 -23.126 -0.628E-03 -0.628E-03
 -23.116 -0.584E-03 -0.584E-03
 -23.106 -0.543E-03 -0.543E-03
 -23.096 -0.505E-03 -0.505E-03
 -23.086 -0.469E-03 -0.469E-03
 -23.076 -0.436E-03 -0.436E-03
 -23.066 -0.405E-03 -0.405E-03
 -23.056 -0.376E-03 -0.376E-03
 -23.046 -0.348E-03 -0.348E-03
 -23.036 -0.323E-03 -0.323E-03
 -23.026 -0.299E-03 -0.299E-03
 -23.016 -0.277E-03 -0.277E-03
 -23.006 -0.257E-03 -0.257E-03
 -22.996 -0.237E-03 -0.237E-03
 -22.986 -0.220E-03 -0.220E-03
 -22.976 -0.203E-03 -0.203E-03
 -22.966 -0.188E-03 -0.188E-03
 -22.956 -0.174E-03 -0.174E-03
 -22.946 -0.160E-03 -0.160E-03
 -22.936 -0.148E-03 -0.148E-03
 -22.926 -0.137E-03 -0.137E-03
 -22.916 -0.127E-03 -0.127E-03
 -22.906 -0.117E-03 -0.117E-03
 -22.896 -0.108E-03 -0.108E-03
 -22.886 -0.999E-04 -0.999E-04
 -22.876 -0.924E-04 -0.924E-04
 -22.866 -0.855E-04 -0.855E-04
 -22.856 -0.792E-04 -0.792E-04
 -22.846 -0.735E-04 -0.735E-04
 -22.836 -0.683E-04 -0.683E-04
 -22.826 -0.636E-04 -0.636E-04
 -22.816 -0.593E-04 -0.593E-04
 -22.806 -0.555E-04 -0.555E-04
 -22.796 -0.521E-04 -0.521E-04
 -22.786 -0.491E-04 -0.491E-04
 -22.776 -0.465E-04 -0.465E-04
 -22.766 -0.442E-04 -0.442E-04
 -22.756 -0.423E-04 -0.423E-04
 -22.746 -0.408E-04 -0.408E-04
 -22.736 -0.395E-04 -0.395E-04
 -22.726 -0.386E-04 -0.386E-04
 -22.716 -0.380E-04 -0.380E-04
 -22.706 -0.377E-04 -0.377E-04
 -22.696 -0.378E-04 -0.378E-04
 -22.686 -0.381E-04 -0.381E-04
 -22.676 -0.388E-04 -0.388E-04
 -22.666 -0.398E-04 -0.398E-04
 -22.656 -0.411E-04 -0.411E-04
 -22.646 -0.428E-04 -0.428E-04
 -22.636 -0.448E-04 -0.448E-04
 -22.626 -0.472E-04 -0.472E-04
 -22.616 -0.499E-04 -0.499E-04
 -22.606 -0.531E-04 -0.531E-04
 -22.596 -0.567E-04 -0.567E-04
 -22.586 -0.607E-04 -0.607E-04
 -22.576 -0.652E-04 -0.652E-04
 -22.566 -0.701E-04 -0.701E-04
 -22.556 -0.756E-04 -0.756E-04
 -22.546 -0.817E-04 -0.817E-04
 -22.536 -0.883E-04 -0.883E-04
 -22.526 -0.956E-04 -0.956E-04
 -22.516 -0.104E-03 -0.104E-03
 -22.506 -0.112E-03 -0.112E-03
 -22.496 -0.122E-03 -0.122E-03
 -22.486 -0.132E-03 -0.132E-03
 -22.476 -0.143E-03 -0.143E-03
 -22.466 -0.155E-03 -0.155E-03
 -22.456 -0.168E-03 -0.168E-03
 -22.446 -0.183E-03 -0.183E-03
 -22.436 -0.198E-03 -0.198E-03
 -22.426 -0.214E-03 -0.214E-03
 -22.416 -0.232E-03 -0.232E-03
 -22.406 -0.252E-03 -0.252E-03
 -22.396 -0.272E-03 -0.272E-03
 -22.386 -0.295E-03 -0.295E-03
 -22.376 -0.319E-03 -0.319E-03
 -22.366 -0.345E-03 -0.345E-03
 -22.356 -0.373E-03 -0.373E-03
 -22.346 -0.403E-03 -0.403E-03
 -22.336 -0.435E-03 -0.435E-03
 -22.326 -0.469E-03 -0.469E-03
 -22.316 -0.506E-03 -0.506E-03
 -22.306 -0.546E-03 -0.546E-03
 -22.296 -0.589E-03 -0.589E-03
 -22.286 -0.634E-03 -0.634E-03
 -22.276 -0.683E-03 -0.683E-03
 -22.266 -0.735E-03 -0.735E-03
 -22.256 -0.790E-03 -0.790E-03
 -22.246 -0.849E-03 -0.849E-03
 -22.236 -0.913E-03 -0.913E-03
 -22.226 -0.980E-03 -0.980E-03
 -22.216 -0.105E-02 -0.105E-02
 -22.206 -0.113E-02 -0.113E-02
 -22.196 -0.121E-02 -0.121E-02
 -22.186 -0.130E-02 -0.130E-02
 -22.176 -0.139E-02 -0.139E-02
 -22.166 -0.149E-02 -0.149E-02
 -22.156 -0.159E-02 -0.159E-02
 -22.146 -0.170E-02 -0.170E-02
 -22.136 -0.182E-02 -0.182E-02
 -22.126 -0.194E-02 -0.194E-02
 -22.116 -0.207E-02 -0.207E-02
 -22.106 -0.221E-02 -0.221E-02
 -22.096 -0.236E-02 -0.236E-02
 -22.086 -0.252E-02 -0.252E-02
 -22.076 -0.268E-02 -0.268E-02
 -22.066 -0.285E-02 -0.285E-02
 -22.056 -0.304E-02 -0.304E-02
 -22.046 -0.323E-02 -0.323E-02
 -22.036 -0.343E-02 -0.343E-02
 -22.026 -0.365E-02 -0.365E-02
 -22.016 -0.387E-02 -0.387E-02
 -22.006 -0.411E-02 -0.411E-02
 -21.996 -0.436E-02 -0.436E-02
 -21.986 -0.462E-02 -0.462E-02
 -21.976 -0.489E-02 -0.489E-02
 -21.966 -0.518E-02 -0.518E-02
 -21.956 -0.548E-02 -0.548E-02
 -21.946 -0.579E-02 -0.579E-02
 -21.936 -0.612E-02 -0.612E-02
 -21.926 -0.647E-02 -0.647E-02
 -21.916 -0.682E-02 -0.682E-02
 -21.906 -0.720E-02 -0.720E-02
 -21.896 -0.759E-02 -0.759E-02
 -21.886 -0.800E-02 -0.800E-02
 -21.876 -0.842E-02 -0.842E-02
 -21.866 -0.886E-02 -0.886E-02
 -21.856 -0.932E-02 -0.932E-02
 -21.846 -0.979E-02 -0.979E-02
 -21.836 -0.103E-01 -0.103E-01
 -21.826 -0.108E-01 -0.108E-01
 -21.816 -0.113E-01 -0.113E-01
 -21.806 -0.119E-01 -0.119E-01
 -21.796 -0.124E-01 -0.124E-01
 -21.786 -0.130E-01 -0.130E-01
 -21.776 -0.136E-01 -0.136E-01
 -21.766 -0.142E-01 -0.142E-01
 -21.756 -0.149E-01 -0.149E-01
 -21.746 -0.155E-01 -0.155E-01
 -21.736 -0.162E-01 -0.162E-01
 -21.726 -0.169E-01 -0.169E-01
 -21.716 -0.176E-01 -0.176E-01
 -21.706 -0.183E-01 -0.183E-01
 -21.696 -0.190E-01 -0.190E-01
 -21.686 -0.198E-01 -0.198E-01
 -21.676 -0.205E-01 -0.205E-01
 -21.666 -0.213E-01 -0.213E-01
 -21.656 -0.221E-01 -0.221E-01
 -21.646 -0.229E-01 -0.229E-01
 -21.636 -0.237E-01 -0.237E-01
 -21.626 -0.245E-01 -0.245E-01
 -21.616 -0.253E-01 -0.253E-01
 -21.606 -0.262E-01 -0.262E-01
 -21.596 -0.270E-01 -0.270E-01
 -21.586 -0.278E-01 -0.278E-01
 -21.576 -0.287E-01 -0.287E-01
 -21.566 -0.295E-01 -0.295E-01
 -21.556 -0.303E-01 -0.303E-01
 -21.546 -0.311E-01 -0.311E-01
 -21.536 -0.319E-01 -0.319E-01
 -21.526 -0.327E-01 -0.327E-01
 -21.516 -0.335E-01 -0.335E-01
 -21.506 -0.343E-01 -0.343E-01
 -21.496 -0.350E-01 -0.350E-01
 -21.486 -0.357E-01 -0.357E-01
 -21.476 -0.364E-01 -0.364E-01
 -21.466 -0.370E-01 -0.370E-01
 -21.456 -0.376E-01 -0.376E-01
 -21.446 -0.382E-01 -0.382E-01
 -21.436 -0.387E-01 -0.387E-01
 -21.426 -0.392E-01 -0.392E-01
 -21.416 -0.396E-01 -0.396E-01
 -21.406 -0.400E-01 -0.400E-01
 -21.396 -0.402E-01 -0.402E-01
 -21.386 -0.405E-01 -0.405E-01
 -21.376 -0.406E-01 -0.406E-01
 -21.366 -0.407E-01 -0.407E-01
 -21.356 -0.407E-01 -0.407E-01
 -21.346 -0.405E-01 -0.405E-01
 -21.336 -0.403E-01 -0.403E-01
 -21.326 -0.400E-01 -0.400E-01
 -21.316 -0.396E-01 -0.396E-01
 -21.306 -0.390E-01 -0.390E-01
 -21.296 -0.384E-01 -0.384E-01
 -21.286 -0.376E-01 -0.376E-01
 -21.276 -0.366E-01 -0.366E-01
 -21.266 -0.355E-01 -0.355E-01
 -21.256 -0.343E-01 -0.343E-01
 -21.246 -0.329E-01 -0.329E-01
 -21.236 -0.314E-01 -0.314E-01
 -21.226 -0.297E-01 -0.297E-01
 -21.216 -0.278E-01 -0.278E-01
 -21.206 -0.257E-01 -0.257E-01
 -21.196 -0.235E-01 -0.235E-01
 -21.186 -0.210E-01 -0.210E-01
 -21.176 -0.184E-01 -0.184E-01
 -21.166 -0.155E-01 -0.155E-01
 -21.156 -0.124E-01 -0.124E-01
 -21.146 -0.914E-02 -0.914E-02
 -21.136 -0.562E-02 -0.562E-02
 -21.126 -0.187E-02 -0.187E-02
 -21.116  0.211E-02  0.211E-02
 -21.106  0.634E-02  0.634E-02
 -21.096  0.108E-01  0.108E-01
 -21.086  0.155E-01  0.155E-01
 -21.076  0.205E-01  0.205E-01
 -21.066  0.258E-01  0.258E-01
 -21.056  0.313E-01  0.313E-01
 -21.046  0.370E-01  0.370E-01
 -21.036  0.431E-01  0.431E-01
 -21.026  0.494E-01  0.494E-01
 -21.016  0.560E-01  0.560E-01
 -21.006  0.628E-01  0.628E-01
 -20.996  0.700E-01  0.700E-01
 -20.986  0.774E-01  0.774E-01
 -20.976  0.851E-01  0.851E-01
 -20.966  0.930E-01  0.930E-01
 -20.956  0.101E+00  0.101E+00
 -20.946  0.110E+00  0.110E+00
 -20.936  0.119E+00  0.119E+00
 -20.926  0.128E+00  0.128E+00
 -20.916  0.137E+00  0.137E+00
 -20.906  0.147E+00  0.147E+00
 -20.896  0.156E+00  0.156E+00
 -20.886  0.166E+00  0.166E+00
 -20.876  0.177E+00  0.177E+00
 -20.866  0.187E+00  0.187E+00
 -20.856  0.198E+00  0.198E+00
 -20.846  0.209E+00  0.209E+00
 -20.836  0.220E+00  0.220E+00
 -20.826  0.232E+00  0.232E+00
 -20.816  0.244E+00  0.244E+00
 -20.806  0.255E+00  0.255E+00
 -20.796  0.267E+00  0.267E+00
 -20.786  0.280E+00  0.280E+00
 -20.776  0.292E+00  0.292E+00
 -20.766  0.304E+00  0.304E+00
 -20.756  0.317E+00  0.317E+00
 -20.746  0.330E+00  0.330E+00
 -20.736  0.342E+00  0.342E+00
 -20.726  0.355E+00  0.355E+00
 -20.716  0.368E+00  0.368E+00
 -20.706  0.381E+00  0.381E+00
 -20.696  0.394E+00  0.394E+00
 -20.686  0.407E+00  0.407E+00
 -20.676  0.420E+00  0.420E+00
 -20.666  0.434E+00  0.434E+00
 -20.656  0.447E+00  0.447E+00
 -20.646  0.459E+00  0.459E+00
 -20.636  0.472E+00  0.472E+00
 -20.626  0.485E+00  0.485E+00
 -20.616  0.498E+00  0.498E+00
 -20.606  0.510E+00  0.510E+00
 -20.596  0.523E+00  0.523E+00
 -20.586  0.535E+00  0.535E+00
 -20.576  0.547E+00  0.547E+00
 -20.566  0.559E+00  0.559E+00
 -20.556  0.571E+00  0.571E+00
 -20.546  0.582E+00  0.582E+00
 -20.536  0.593E+00  0.593E+00
 -20.526  0.604E+00  0.604E+00
 -20.516  0.614E+00  0.614E+00
 -20.506  0.625E+00  0.625E+00
 -20.496  0.635E+00  0.635E+00
 -20.486  0.644E+00  0.644E+00
 -20.476  0.653E+00  0.653E+00
 -20.466  0.662E+00  0.662E+00
 -20.456  0.671E+00  0.671E+00
 -20.446  0.679E+00  0.679E+00
 -20.436  0.686E+00  0.686E+00
 -20.426  0.694E+00  0.694E+00
 -20.416  0.700E+00  0.700E+00
 -20.406  0.707E+00  0.707E+00
 -20.396  0.712E+00  0.712E+00
 -20.386  0.718E+00  0.718E+00
 -20.376  0.723E+00  0.723E+00
 -20.366  0.727E+00  0.727E+00
 -20.356  0.731E+00  0.731E+00
 -20.346  0.734E+00  0.734E+00
 -20.336  0.737E+00  0.737E+00
 -20.326  0.739E+00  0.739E+00
 -20.316  0.741E+00  0.741E+00
 -20.306  0.742E+00  0.742E+00
 -20.296  0.743E+00  0.743E+00
 -20.286  0.743E+00  0.743E+00
 -20.276  0.743E+00  0.743E+00
 -20.266  0.742E+00  0.742E+00
 -20.256  0.740E+00  0.740E+00
 -20.246  0.738E+00  0.738E+00
 -20.236  0.736E+00  0.736E+00
 -20.226  0.733E+00  0.733E+00
 -20.216  0.729E+00  0.729E+00
 -20.206  0.725E+00  0.725E+00
 -20.196  0.720E+00  0.720E+00
 -20.186  0.715E+00  0.715E+00
 -20.176  0.710E+00  0.710E+00
 -20.166  0.704E+00  0.704E+00
 -20.156  0.697E+00  0.697E+00
 -20.146  0.690E+00  0.690E+00
 -20.136  0.683E+00  0.683E+00
 -20.126  0.675E+00  0.675E+00
 -20.116  0.667E+00  0.667E+00
 -20.106  0.658E+00  0.658E+00
 -20.096  0.649E+00  0.649E+00
 -20.086  0.640E+00  0.640E+00
 -20.076  0.630E+00  0.630E+00
 -20.066  0.620E+00  0.620E+00
 -20.056  0.610E+00  0.610E+00
 -20.046  0.599E+00  0.599E+00
 -20.036  0.588E+00  0.588E+00
 -20.026  0.577E+00  0.577E+00
 -20.016  0.565E+00  0.565E+00
 -20.006  0.554E+00  0.554E+00
 -19.996  0.542E+00  0.542E+00
 -19.986  0.530E+00  0.530E+00
 -19.976  0.517E+00  0.517E+00
 -19.966  0.505E+00  0.505E+00
 -19.956  0.492E+00  0.492E+00
 -19.946  0.480E+00  0.480E+00
 -19.936  0.467E+00  0.467E+00
 -19.926  0.454E+00  0.454E+00
 -19.916  0.441E+00  0.441E+00
 -19.906  0.428E+00  0.428E+00
 -19.896  0.415E+00  0.415E+00
 -19.886  0.402E+00  0.402E+00
 -19.876  0.389E+00  0.389E+00
 -19.866  0.376E+00  0.376E+00
 -19.856  0.363E+00  0.363E+00
 -19.846  0.350E+00  0.350E+00
 -19.836  0.337E+00  0.337E+00
 -19.826  0.325E+00  0.325E+00
 -19.816  0.312E+00  0.312E+00
 -19.806  0.299E+00  0.299E+00
 -19.796  0.287E+00  0.287E+00
 -19.786  0.275E+00  0.275E+00
 -19.776  0.263E+00  0.263E+00
 -19.766  0.251E+00  0.251E+00
 -19.756  0.239E+00  0.239E+00
 -19.746  0.228E+00  0.228E+00
 -19.736  0.217E+00  0.217E+00
 -19.726  0.205E+00  0.205E+00
 -19.716  0.195E+00  0.195E+00
 -19.706  0.184E+00  0.184E+00
 -19.696  0.174E+00  0.174E+00
 -19.686  0.163E+00  0.163E+00
 -19.676  0.154E+00  0.154E+00
 -19.666  0.144E+00  0.144E+00
 -19.656  0.135E+00  0.135E+00
 -19.646  0.126E+00  0.126E+00
 -19.636  0.117E+00  0.117E+00
 -19.626  0.108E+00  0.108E+00
 -19.616  0.999E-01  0.999E-01
 -19.606  0.919E-01  0.919E-01
 -19.596  0.841E-01  0.841E-01
 -19.586  0.767E-01  0.767E-01
 -19.576  0.695E-01  0.695E-01
 -19.566  0.627E-01  0.627E-01
 -19.556  0.561E-01  0.561E-01
 -19.546  0.497E-01  0.497E-01
 -19.536  0.437E-01  0.437E-01
 -19.526  0.379E-01  0.379E-01
 -19.516  0.324E-01  0.324E-01
 -19.506  0.272E-01  0.272E-01
 -19.496  0.222E-01  0.222E-01
 -19.486  0.175E-01  0.175E-01
 -19.476  0.130E-01  0.130E-01
 -19.466  0.883E-02  0.883E-02
 -19.456  0.487E-02  0.487E-02
 -19.446  0.115E-02  0.115E-02
 -19.436 -0.233E-02 -0.233E-02
 -19.426 -0.559E-02 -0.559E-02
 -19.416 -0.862E-02 -0.862E-02
 -19.406 -0.114E-01 -0.114E-01
 -19.396 -0.140E-01 -0.140E-01
 -19.386 -0.164E-01 -0.164E-01
 -19.376 -0.186E-01 -0.186E-01
 -19.366 -0.206E-01 -0.206E-01
 -19.356 -0.225E-01 -0.225E-01
 -19.346 -0.241E-01 -0.241E-01
 -19.336 -0.256E-01 -0.256E-01
 -19.326 -0.269E-01 -0.269E-01
 -19.316 -0.281E-01 -0.281E-01
 -19.306 -0.291E-01 -0.291E-01
 -19.296 -0.299E-01 -0.299E-01
 -19.286 -0.306E-01 -0.306E-01
 -19.276 -0.312E-01 -0.312E-01
 -19.266 -0.317E-01 -0.317E-01
 -19.256 -0.320E-01 -0.320E-01
 -19.246 -0.323E-01 -0.323E-01
 -19.236 -0.324E-01 -0.324E-01
 -19.226 -0.325E-01 -0.325E-01
 -19.216 -0.324E-01 -0.324E-01
 -19.206 -0.323E-01 -0.323E-01
 -19.196 -0.320E-01 -0.320E-01
 -19.186 -0.318E-01 -0.318E-01
 -19.176 -0.314E-01 -0.314E-01
 -19.166 -0.310E-01 -0.310E-01
 -19.156 -0.305E-01 -0.305E-01
 -19.146 -0.300E-01 -0.300E-01
 -19.136 -0.294E-01 -0.294E-01
 -19.126 -0.287E-01 -0.287E-01
 -19.116 -0.281E-01 -0.281E-01
 -19.106 -0.274E-01 -0.274E-01
 -19.096 -0.267E-01 -0.267E-01
 -19.086 -0.259E-01 -0.259E-01
 -19.076 -0.251E-01 -0.251E-01
 -19.066 -0.244E-01 -0.244E-01
 -19.056 -0.235E-01 -0.235E-01
 -19.046 -0.227E-01 -0.227E-01
 -19.036 -0.219E-01 -0.219E-01
 -19.026 -0.211E-01 -0.211E-01
 -19.016 -0.203E-01 -0.203E-01
 -19.006 -0.194E-01 -0.194E-01
 -18.996 -0.186E-01 -0.186E-01
 -18.986 -0.178E-01 -0.178E-01
 -18.976 -0.170E-01 -0.170E-01
 -18.966 -0.162E-01 -0.162E-01
 -18.956 -0.154E-01 -0.154E-01
 -18.946 -0.146E-01 -0.146E-01
 -18.936 -0.138E-01 -0.138E-01
 -18.926 -0.131E-01 -0.131E-01
 -18.916 -0.123E-01 -0.123E-01
 -18.906 -0.116E-01 -0.116E-01
 -18.896 -0.109E-01 -0.109E-01
 -18.886 -0.102E-01 -0.102E-01
 -18.876 -0.956E-02 -0.956E-02
 -18.866 -0.892E-02 -0.892E-02
 -18.856 -0.830E-02 -0.830E-02
 -18.846 -0.771E-02 -0.771E-02
 -18.836 -0.713E-02 -0.713E-02
 -18.826 -0.658E-02 -0.658E-02
 -18.816 -0.605E-02 -0.605E-02
 -18.806 -0.554E-02 -0.554E-02
 -18.796 -0.506E-02 -0.506E-02
 -18.786 -0.460E-02 -0.460E-02
 -18.776 -0.416E-02 -0.416E-02
 -18.766 -0.374E-02 -0.374E-02
 -18.756 -0.335E-02 -0.335E-02
 -18.746 -0.297E-02 -0.297E-02
 -18.736 -0.262E-02 -0.262E-02
 -18.726 -0.229E-02 -0.229E-02
 -18.716 -0.198E-02 -0.198E-02
 -18.706 -0.169E-02 -0.169E-02
 -18.696 -0.141E-02 -0.141E-02
 -18.686 -0.116E-02 -0.116E-02
 -18.676 -0.927E-03 -0.927E-03
 -18.666 -0.710E-03 -0.710E-03
 -18.656 -0.510E-03 -0.510E-03
 -18.646 -0.327E-03 -0.327E-03
 -18.636 -0.159E-03 -0.159E-03
 -18.626 -0.751E-05 -0.751E-05
 -18.616  0.130E-03  0.130E-03
 -18.606  0.253E-03  0.253E-03
 -18.596  0.362E-03  0.362E-03
 -18.586  0.459E-03  0.459E-03
 -18.576  0.544E-03  0.544E-03
 -18.566  0.617E-03  0.617E-03
 -18.556  0.679E-03  0.679E-03
 -18.546  0.731E-03  0.731E-03
 -18.536  0.774E-03  0.774E-03
 -18.526  0.807E-03  0.807E-03
 -18.516  0.831E-03  0.831E-03
 -18.506  0.848E-03  0.848E-03
 -18.496  0.857E-03  0.857E-03
 -18.486  0.859E-03  0.859E-03
 -18.476  0.855E-03  0.855E-03
 -18.466  0.845E-03  0.845E-03
 -18.456  0.830E-03  0.830E-03
 -18.446  0.810E-03  0.810E-03
 -18.436  0.785E-03  0.785E-03
 -18.426  0.756E-03  0.756E-03
 -18.416  0.724E-03  0.724E-03
 -18.406  0.689E-03  0.689E-03
 -18.396  0.651E-03  0.651E-03
 -18.386  0.611E-03  0.611E-03
 -18.376  0.568E-03  0.568E-03
 -18.366  0.524E-03  0.524E-03
 -18.356  0.478E-03  0.478E-03
 -18.346  0.431E-03  0.431E-03
 -18.336  0.384E-03  0.384E-03
 -18.326  0.335E-03  0.335E-03
 -18.316  0.287E-03  0.287E-03
 -18.306  0.238E-03  0.238E-03
 -18.296  0.189E-03  0.189E-03
 -18.286  0.141E-03  0.141E-03
 -18.276  0.928E-04  0.928E-04
 -18.266  0.454E-04  0.454E-04
 -18.256 -0.117E-05 -0.117E-05
 -18.246 -0.469E-04 -0.469E-04
 -18.236 -0.916E-04 -0.916E-04
 -18.226 -0.135E-03 -0.135E-03
 -18.216 -0.178E-03 -0.178E-03
 -18.206 -0.219E-03 -0.219E-03
 -18.196 -0.258E-03 -0.258E-03
 -18.186 -0.297E-03 -0.297E-03
 -18.176 -0.333E-03 -0.333E-03
 -18.166 -0.369E-03 -0.369E-03
 -18.156 -0.402E-03 -0.402E-03
 -18.146 -0.434E-03 -0.434E-03
 -18.136 -0.465E-03 -0.465E-03
 -18.126 -0.494E-03 -0.494E-03
 -18.116 -0.521E-03 -0.521E-03
 -18.106 -0.547E-03 -0.547E-03
 -18.096 -0.571E-03 -0.571E-03
 -18.086 -0.594E-03 -0.594E-03
 -18.076 -0.614E-03 -0.614E-03
 -18.066 -0.634E-03 -0.634E-03
 -18.056 -0.652E-03 -0.652E-03
 -18.046 -0.668E-03 -0.668E-03
 -18.036 -0.683E-03 -0.683E-03
 -18.026 -0.697E-03 -0.697E-03
 -18.016 -0.709E-03 -0.709E-03
 -18.006 -0.720E-03 -0.720E-03
 -17.996 -0.730E-03 -0.730E-03
 -17.986 -0.738E-03 -0.738E-03
 -17.976 -0.746E-03 -0.746E-03
 -17.966 -0.752E-03 -0.752E-03
 -17.956 -0.757E-03 -0.757E-03
 -17.946 -0.761E-03 -0.761E-03
 -17.936 -0.764E-03 -0.764E-03
 -17.926 -0.766E-03 -0.766E-03
 -17.916 -0.768E-03 -0.768E-03
 -17.906 -0.768E-03 -0.768E-03
 -17.896 -0.768E-03 -0.768E-03
 -17.886 -0.767E-03 -0.767E-03
 -17.876 -0.765E-03 -0.765E-03
 -17.866 -0.763E-03 -0.763E-03
 -17.856 -0.760E-03 -0.760E-03
 -17.846 -0.757E-03 -0.757E-03
 -17.836 -0.753E-03 -0.753E-03
 -17.826 -0.749E-03 -0.749E-03
 -17.816 -0.744E-03 -0.744E-03
 -17.806 -0.740E-03 -0.740E-03
 -17.796 -0.734E-03 -0.734E-03
 -17.786 -0.729E-03 -0.729E-03
 -17.776 -0.723E-03 -0.723E-03
 -17.766 -0.717E-03 -0.717E-03
 -17.756 -0.711E-03 -0.711E-03
 -17.746 -0.705E-03 -0.705E-03
 -17.736 -0.698E-03 -0.698E-03
 -17.726 -0.692E-03 -0.692E-03
 -17.716 -0.685E-03 -0.685E-03
 -17.706 -0.679E-03 -0.679E-03
 -17.696 -0.672E-03 -0.672E-03
 -17.686 -0.665E-03 -0.665E-03
 -17.676 -0.659E-03 -0.659E-03
 -17.666 -0.652E-03 -0.652E-03
 -17.656 -0.646E-03 -0.646E-03
 -17.646 -0.640E-03 -0.640E-03
 -17.636 -0.634E-03 -0.634E-03
 -17.626 -0.627E-03 -0.627E-03
 -17.616 -0.621E-03 -0.621E-03
 -17.606 -0.615E-03 -0.615E-03
 -17.596 -0.610E-03 -0.610E-03
 -17.586 -0.604E-03 -0.604E-03
 -17.576 -0.598E-03 -0.598E-03
 -17.566 -0.593E-03 -0.593E-03
 -17.556 -0.588E-03 -0.588E-03
 -17.546 -0.583E-03 -0.583E-03
 -17.536 -0.577E-03 -0.577E-03
 -17.526 -0.573E-03 -0.573E-03
 -17.516 -0.568E-03 -0.568E-03
 -17.506 -0.563E-03 -0.563E-03
 -17.496 -0.558E-03 -0.558E-03
 -17.486 -0.553E-03 -0.553E-03
 -17.476 -0.548E-03 -0.548E-03
 -17.466 -0.544E-03 -0.544E-03
 -17.456 -0.539E-03 -0.539E-03
 -17.446 -0.534E-03 -0.534E-03
 -17.436 -0.529E-03 -0.529E-03
 -17.426 -0.523E-03 -0.523E-03
 -17.416 -0.518E-03 -0.518E-03
 -17.406 -0.512E-03 -0.512E-03
 -17.396 -0.506E-03 -0.506E-03
 -17.386 -0.499E-03 -0.499E-03
 -17.376 -0.492E-03 -0.492E-03
 -17.366 -0.485E-03 -0.485E-03
 -17.356 -0.477E-03 -0.477E-03
 -17.346 -0.468E-03 -0.468E-03
 -17.336 -0.458E-03 -0.458E-03
 -17.326 -0.448E-03 -0.448E-03
 -17.316 -0.437E-03 -0.437E-03
 -17.306 -0.425E-03 -0.425E-03
 -17.296 -0.411E-03 -0.411E-03
 -17.286 -0.397E-03 -0.397E-03
 -17.276 -0.381E-03 -0.381E-03
 -17.266 -0.363E-03 -0.363E-03
 -17.256 -0.344E-03 -0.344E-03
 -17.246 -0.323E-03 -0.323E-03
 -17.236 -0.301E-03 -0.301E-03
 -17.226 -0.276E-03 -0.276E-03
 -17.216 -0.249E-03 -0.249E-03
 -17.206 -0.220E-03 -0.220E-03
 -17.196 -0.188E-03 -0.188E-03
 -17.186 -0.154E-03 -0.154E-03
 -17.176 -0.117E-03 -0.117E-03
 -17.166 -0.771E-04 -0.771E-04
 -17.156 -0.339E-04 -0.339E-04
 -17.146  0.127E-04  0.127E-04
 -17.136  0.628E-04  0.628E-04
 -17.126  0.117E-03  0.117E-03
 -17.116  0.175E-03  0.175E-03
 -17.106  0.237E-03  0.237E-03
 -17.096  0.303E-03  0.303E-03
 -17.086  0.374E-03  0.374E-03
 -17.076  0.450E-03  0.450E-03
 -17.066  0.531E-03  0.531E-03
 -17.056  0.617E-03  0.617E-03
 -17.046  0.708E-03  0.708E-03
 -17.036  0.806E-03  0.806E-03
 -17.026  0.909E-03  0.909E-03
 -17.016  0.102E-02  0.102E-02
 -17.006  0.113E-02  0.113E-02
 -16.996  0.126E-02  0.126E-02
 -16.986  0.139E-02  0.139E-02
 -16.976  0.152E-02  0.152E-02
 -16.966  0.167E-02  0.167E-02
 -16.956  0.182E-02  0.182E-02
 -16.946  0.197E-02  0.197E-02
 -16.936  0.214E-02  0.214E-02
 -16.926  0.232E-02  0.232E-02
 -16.916  0.250E-02  0.250E-02
 -16.906  0.269E-02  0.269E-02
 -16.896  0.289E-02  0.289E-02
 -16.886  0.310E-02  0.310E-02
 -16.876  0.332E-02  0.332E-02
 -16.866  0.354E-02  0.354E-02
 -16.856  0.378E-02  0.378E-02
 -16.846  0.402E-02  0.402E-02
 -16.836  0.428E-02  0.428E-02
 -16.826  0.454E-02  0.454E-02
 -16.816  0.481E-02  0.481E-02
 -16.806  0.510E-02  0.510E-02
 -16.796  0.539E-02  0.539E-02
 -16.786  0.569E-02  0.569E-02
 -16.776  0.600E-02  0.600E-02
 -16.766  0.632E-02  0.632E-02
 -16.756  0.665E-02  0.665E-02
 -16.746  0.699E-02  0.699E-02
 -16.736  0.734E-02  0.734E-02
 -16.726  0.770E-02  0.770E-02
 -16.716  0.807E-02  0.807E-02
 -16.706  0.845E-02  0.845E-02
 -16.696  0.883E-02  0.883E-02
 -16.686  0.923E-02  0.923E-02
 -16.676  0.963E-02  0.963E-02
 -16.666  0.100E-01  0.100E-01
 -16.656  0.105E-01  0.105E-01
 -16.646  0.109E-01  0.109E-01
 -16.636  0.113E-01  0.113E-01
 -16.626  0.118E-01  0.118E-01
 -16.616  0.122E-01  0.122E-01
 -16.606  0.127E-01  0.127E-01
 -16.596  0.131E-01  0.131E-01
 -16.586  0.136E-01  0.136E-01
 -16.576  0.140E-01  0.140E-01
 -16.566  0.145E-01  0.145E-01
 -16.556  0.150E-01  0.150E-01
 -16.546  0.155E-01  0.155E-01
 -16.536  0.159E-01  0.159E-01
 -16.526  0.164E-01  0.164E-01
 -16.516  0.169E-01  0.169E-01
 -16.506  0.174E-01  0.174E-01
 -16.496  0.179E-01  0.179E-01
 -16.486  0.184E-01  0.184E-01
 -16.476  0.188E-01  0.188E-01
 -16.466  0.193E-01  0.193E-01
 -16.456  0.198E-01  0.198E-01
 -16.446  0.203E-01  0.203E-01
 -16.436  0.208E-01  0.208E-01
 -16.426  0.212E-01  0.212E-01
 -16.416  0.217E-01  0.217E-01
 -16.406  0.221E-01  0.221E-01
 -16.396  0.226E-01  0.226E-01
 -16.386  0.230E-01  0.230E-01
 -16.376  0.235E-01  0.235E-01
 -16.366  0.239E-01  0.239E-01
 -16.356  0.243E-01  0.243E-01
 -16.346  0.247E-01  0.247E-01
 -16.336  0.251E-01  0.251E-01
 -16.326  0.255E-01  0.255E-01
 -16.316  0.258E-01  0.258E-01
 -16.306  0.262E-01  0.262E-01
 -16.296  0.265E-01  0.265E-01
 -16.286  0.269E-01  0.269E-01
 -16.276  0.272E-01  0.272E-01
 -16.266  0.275E-01  0.275E-01
 -16.256  0.278E-01  0.278E-01
 -16.246  0.280E-01  0.280E-01
 -16.236  0.283E-01  0.283E-01
 -16.226  0.285E-01  0.285E-01
 -16.216  0.287E-01  0.287E-01
 -16.206  0.289E-01  0.289E-01
 -16.196  0.291E-01  0.291E-01
 -16.186  0.293E-01  0.293E-01
 -16.176  0.294E-01  0.294E-01
 -16.166  0.295E-01  0.295E-01
 -16.156  0.296E-01  0.296E-01
 -16.146  0.297E-01  0.297E-01
 -16.136  0.298E-01  0.298E-01
 -16.126  0.298E-01  0.298E-01
 -16.116  0.298E-01  0.298E-01
 -16.106  0.298E-01  0.298E-01
 -16.096  0.298E-01  0.298E-01
 -16.086  0.297E-01  0.297E-01
 -16.076  0.297E-01  0.297E-01
 -16.066  0.296E-01  0.296E-01
 -16.056  0.295E-01  0.295E-01
 -16.046  0.294E-01  0.294E-01
 -16.036  0.292E-01  0.292E-01
 -16.026  0.291E-01  0.291E-01
 -16.016  0.289E-01  0.289E-01
 -16.006  0.287E-01  0.287E-01
 -15.996  0.284E-01  0.284E-01
 -15.986  0.282E-01  0.282E-01
 -15.976  0.279E-01  0.279E-01
 -15.966  0.277E-01  0.277E-01
 -15.956  0.274E-01  0.274E-01
 -15.946  0.270E-01  0.270E-01
 -15.936  0.267E-01  0.267E-01
 -15.926  0.264E-01  0.264E-01
 -15.916  0.260E-01  0.260E-01
 -15.906  0.256E-01  0.256E-01
 -15.896  0.252E-01  0.252E-01
 -15.886  0.248E-01  0.248E-01
 -15.876  0.244E-01  0.244E-01
 -15.866  0.240E-01  0.240E-01
 -15.856  0.236E-01  0.236E-01
 -15.846  0.231E-01  0.231E-01
 -15.836  0.226E-01  0.226E-01
 -15.826  0.222E-01  0.222E-01
 -15.816  0.217E-01  0.217E-01
 -15.806  0.212E-01  0.212E-01
 -15.796  0.207E-01  0.207E-01
 -15.786  0.202E-01  0.202E-01
 -15.776  0.197E-01  0.197E-01
 -15.766  0.192E-01  0.192E-01
 -15.756  0.187E-01  0.187E-01
 -15.746  0.182E-01  0.182E-01
 -15.736  0.176E-01  0.176E-01
 -15.726  0.171E-01  0.171E-01
 -15.716  0.166E-01  0.166E-01
 -15.706  0.160E-01  0.160E-01
 -15.696  0.155E-01  0.155E-01
 -15.686  0.150E-01  0.150E-01
 -15.676  0.145E-01  0.145E-01
 -15.666  0.139E-01  0.139E-01
 -15.656  0.134E-01  0.134E-01
 -15.646  0.129E-01  0.129E-01
 -15.636  0.124E-01  0.124E-01
 -15.626  0.118E-01  0.118E-01
 -15.616  0.113E-01  0.113E-01
 -15.606  0.108E-01  0.108E-01
 -15.596  0.103E-01  0.103E-01
 -15.586  0.983E-02  0.983E-02
 -15.576  0.935E-02  0.935E-02
 -15.566  0.886E-02  0.886E-02
 -15.556  0.839E-02  0.839E-02
 -15.546  0.792E-02  0.792E-02
 -15.536  0.746E-02  0.746E-02
 -15.526  0.700E-02  0.700E-02
 -15.516  0.656E-02  0.656E-02
 -15.506  0.612E-02  0.612E-02
 -15.496  0.569E-02  0.569E-02
 -15.486  0.527E-02  0.527E-02
 -15.476  0.486E-02  0.486E-02
 -15.466  0.446E-02  0.446E-02
 -15.456  0.406E-02  0.406E-02
 -15.446  0.368E-02  0.368E-02
 -15.436  0.330E-02  0.330E-02
 -15.426  0.294E-02  0.294E-02
 -15.416  0.258E-02  0.258E-02
 -15.406  0.223E-02  0.223E-02
 -15.396  0.190E-02  0.190E-02
 -15.386  0.157E-02  0.157E-02
 -15.376  0.125E-02  0.125E-02
 -15.366  0.934E-03  0.934E-03
 -15.356  0.632E-03  0.632E-03
 -15.346  0.338E-03  0.338E-03
 -15.336  0.531E-04  0.531E-04
 -15.326 -0.224E-03 -0.224E-03
 -15.316 -0.492E-03 -0.492E-03
 -15.306 -0.752E-03 -0.752E-03
 -15.296 -0.100E-02 -0.100E-02
 -15.286 -0.125E-02 -0.125E-02
 -15.276 -0.149E-02 -0.149E-02
 -15.266 -0.172E-02 -0.172E-02
 -15.256 -0.194E-02 -0.194E-02
 -15.246 -0.215E-02 -0.215E-02
 -15.236 -0.236E-02 -0.236E-02
 -15.226 -0.256E-02 -0.256E-02
 -15.216 -0.276E-02 -0.276E-02
 -15.206 -0.295E-02 -0.295E-02
 -15.196 -0.313E-02 -0.313E-02
 -15.186 -0.331E-02 -0.331E-02
 -15.176 -0.348E-02 -0.348E-02
 -15.166 -0.365E-02 -0.365E-02
 -15.156 -0.381E-02 -0.381E-02
 -15.146 -0.397E-02 -0.397E-02
 -15.136 -0.412E-02 -0.412E-02
 -15.126 -0.427E-02 -0.427E-02
 -15.116 -0.441E-02 -0.441E-02
 -15.106 -0.455E-02 -0.455E-02
 -15.096 -0.468E-02 -0.468E-02
 -15.086 -0.481E-02 -0.481E-02
 -15.076 -0.494E-02 -0.494E-02
 -15.066 -0.506E-02 -0.506E-02
 -15.056 -0.517E-02 -0.517E-02
 -15.046 -0.529E-02 -0.529E-02
 -15.036 -0.540E-02 -0.540E-02
 -15.026 -0.550E-02 -0.550E-02
 -15.016 -0.560E-02 -0.560E-02
 -15.006 -0.569E-02 -0.569E-02
 -14.996 -0.578E-02 -0.578E-02
 -14.986 -0.587E-02 -0.587E-02
 -14.976 -0.595E-02 -0.595E-02
 -14.966 -0.603E-02 -0.603E-02
 -14.956 -0.610E-02 -0.610E-02
 -14.946 -0.616E-02 -0.616E-02
 -14.936 -0.622E-02 -0.622E-02
 -14.926 -0.627E-02 -0.627E-02
 -14.916 -0.632E-02 -0.632E-02
 -14.906 -0.636E-02 -0.636E-02
 -14.896 -0.639E-02 -0.639E-02
 -14.886 -0.642E-02 -0.642E-02
 -14.876 -0.644E-02 -0.644E-02
 -14.866 -0.645E-02 -0.645E-02
 -14.856 -0.645E-02 -0.645E-02
 -14.846 -0.644E-02 -0.644E-02
 -14.836 -0.642E-02 -0.642E-02
 -14.826 -0.639E-02 -0.639E-02
 -14.816 -0.635E-02 -0.635E-02
 -14.806 -0.629E-02 -0.629E-02
 -14.796 -0.623E-02 -0.623E-02
 -14.786 -0.615E-02 -0.615E-02
 -14.776 -0.606E-02 -0.606E-02
 -14.766 -0.595E-02 -0.595E-02
 -14.756 -0.583E-02 -0.583E-02
 -14.746 -0.569E-02 -0.569E-02
 -14.736 -0.554E-02 -0.554E-02
 -14.726 -0.537E-02 -0.537E-02
 -14.716 -0.518E-02 -0.518E-02
 -14.706 -0.498E-02 -0.498E-02
 -14.696 -0.475E-02 -0.475E-02
 -14.686 -0.450E-02 -0.450E-02
 -14.676 -0.424E-02 -0.424E-02
 -14.666 -0.395E-02 -0.395E-02
 -14.656 -0.364E-02 -0.364E-02
 -14.646 -0.330E-02 -0.330E-02
 -14.636 -0.294E-02 -0.294E-02
 -14.626 -0.256E-02 -0.256E-02
 -14.616 -0.215E-02 -0.215E-02
 -14.606 -0.172E-02 -0.172E-02
 -14.596 -0.126E-02 -0.126E-02
 -14.586 -0.772E-03 -0.772E-03
 -14.576 -0.256E-03 -0.256E-03
 -14.566  0.289E-03  0.289E-03
 -14.556  0.863E-03  0.863E-03
 -14.546  0.147E-02  0.147E-02
 -14.536  0.210E-02  0.210E-02
 -14.526  0.277E-02  0.277E-02
 -14.516  0.346E-02  0.346E-02
 -14.506  0.419E-02  0.419E-02
 -14.496  0.495E-02  0.495E-02
 -14.486  0.574E-02  0.574E-02
 -14.476  0.657E-02  0.657E-02
 -14.466  0.743E-02  0.743E-02
 -14.456  0.832E-02  0.832E-02
 -14.446  0.924E-02  0.924E-02
 -14.436  0.102E-01  0.102E-01
 -14.426  0.112E-01  0.112E-01
 -14.416  0.122E-01  0.122E-01
 -14.406  0.133E-01  0.133E-01
 -14.396  0.144E-01  0.144E-01
 -14.386  0.155E-01  0.155E-01
 -14.376  0.167E-01  0.167E-01
 -14.366  0.179E-01  0.179E-01
 -14.356  0.191E-01  0.191E-01
 -14.346  0.203E-01  0.203E-01
 -14.336  0.216E-01  0.216E-01
 -14.326  0.229E-01  0.229E-01
 -14.316  0.243E-01  0.243E-01
 -14.306  0.257E-01  0.257E-01
 -14.296  0.271E-01  0.271E-01
 -14.286  0.285E-01  0.285E-01
 -14.276  0.300E-01  0.300E-01
 -14.266  0.314E-01  0.314E-01
 -14.256  0.330E-01  0.330E-01
 -14.246  0.345E-01  0.345E-01
 -14.236  0.360E-01  0.360E-01
 -14.226  0.376E-01  0.376E-01
 -14.216  0.392E-01  0.392E-01
 -14.206  0.408E-01  0.408E-01
 -14.196  0.425E-01  0.425E-01
 -14.186  0.441E-01  0.441E-01
 -14.176  0.458E-01  0.458E-01
 -14.166  0.474E-01  0.474E-01
 -14.156  0.491E-01  0.491E-01
 -14.146  0.508E-01  0.508E-01
 -14.136  0.525E-01  0.525E-01
 -14.126  0.542E-01  0.542E-01
 -14.116  0.559E-01  0.559E-01
 -14.106  0.576E-01  0.576E-01
 -14.096  0.593E-01  0.593E-01
 -14.086  0.611E-01  0.611E-01
 -14.076  0.628E-01  0.628E-01
 -14.066  0.645E-01  0.645E-01
 -14.056  0.661E-01  0.661E-01
 -14.046  0.678E-01  0.678E-01
 -14.036  0.695E-01  0.695E-01
 -14.026  0.711E-01  0.711E-01
 -14.016  0.728E-01  0.728E-01
 -14.006  0.744E-01  0.744E-01
 -13.996  0.760E-01  0.760E-01
 -13.986  0.776E-01  0.776E-01
 -13.976  0.791E-01  0.791E-01
 -13.966  0.807E-01  0.807E-01
 -13.956  0.822E-01  0.822E-01
 -13.946  0.836E-01  0.836E-01
 -13.936  0.851E-01  0.851E-01
 -13.926  0.865E-01  0.865E-01
 -13.916  0.878E-01  0.878E-01
 -13.906  0.892E-01  0.892E-01
 -13.896  0.905E-01  0.905E-01
 -13.886  0.917E-01  0.917E-01
 -13.876  0.929E-01  0.929E-01
 -13.866  0.941E-01  0.941E-01
 -13.856  0.952E-01  0.952E-01
 -13.846  0.963E-01  0.963E-01
 -13.836  0.974E-01  0.974E-01
 -13.826  0.983E-01  0.983E-01
 -13.816  0.993E-01  0.993E-01
 -13.806  0.100E+00  0.100E+00
 -13.796  0.101E+00  0.101E+00
 -13.786  0.102E+00  0.102E+00
 -13.776  0.102E+00  0.102E+00
 -13.766  0.103E+00  0.103E+00
 -13.756  0.104E+00  0.104E+00
 -13.746  0.104E+00  0.104E+00
 -13.736  0.105E+00  0.105E+00
 -13.726  0.105E+00  0.105E+00
 -13.716  0.106E+00  0.106E+00
 -13.706  0.106E+00  0.106E+00
 -13.696  0.106E+00  0.106E+00
 -13.686  0.106E+00  0.106E+00
 -13.676  0.107E+00  0.107E+00
 -13.666  0.107E+00  0.107E+00
 -13.656  0.107E+00  0.107E+00
 -13.646  0.107E+00  0.107E+00
 -13.636  0.107E+00  0.107E+00
 -13.626  0.106E+00  0.106E+00
 -13.616  0.106E+00  0.106E+00
 -13.606  0.106E+00  0.106E+00
 -13.596  0.106E+00  0.106E+00
 -13.586  0.105E+00  0.105E+00
 -13.576  0.105E+00  0.105E+00
 -13.566  0.104E+00  0.104E+00
 -13.556  0.104E+00  0.104E+00
 -13.546  0.103E+00  0.103E+00
 -13.536  0.103E+00  0.103E+00
 -13.526  0.102E+00  0.102E+00
 -13.516  0.101E+00  0.101E+00
 -13.506  0.101E+00  0.101E+00
 -13.496  0.998E-01  0.998E-01
 -13.486  0.989E-01  0.989E-01
 -13.476  0.980E-01  0.980E-01
 -13.466  0.971E-01  0.971E-01
 -13.456  0.961E-01  0.961E-01
 -13.446  0.951E-01  0.951E-01
 -13.436  0.940E-01  0.940E-01
 -13.426  0.929E-01  0.929E-01
 -13.416  0.918E-01  0.918E-01
 -13.406  0.906E-01  0.906E-01
 -13.396  0.894E-01  0.894E-01
 -13.386  0.882E-01  0.882E-01
 -13.376  0.870E-01  0.870E-01
 -13.366  0.857E-01  0.857E-01
 -13.356  0.844E-01  0.844E-01
 -13.346  0.831E-01  0.831E-01
 -13.336  0.817E-01  0.817E-01
 -13.326  0.804E-01  0.804E-01
 -13.316  0.790E-01  0.790E-01
 -13.306  0.776E-01  0.776E-01
 -13.296  0.762E-01  0.762E-01
 -13.286  0.748E-01  0.748E-01
 -13.276  0.733E-01  0.733E-01
 -13.266  0.719E-01  0.719E-01
 -13.256  0.704E-01  0.704E-01
 -13.246  0.690E-01  0.690E-01
 -13.236  0.675E-01  0.675E-01
 -13.226  0.660E-01  0.660E-01
 -13.216  0.646E-01  0.646E-01
 -13.206  0.631E-01  0.631E-01
 -13.196  0.616E-01  0.616E-01
 -13.186  0.602E-01  0.602E-01
 -13.176  0.587E-01  0.587E-01
 -13.166  0.573E-01  0.573E-01
 -13.156  0.558E-01  0.558E-01
 -13.146  0.544E-01  0.544E-01
 -13.136  0.529E-01  0.529E-01
 -13.126  0.515E-01  0.515E-01
 -13.116  0.501E-01  0.501E-01
 -13.106  0.487E-01  0.487E-01
 -13.096  0.473E-01  0.473E-01
 -13.086  0.459E-01  0.459E-01
 -13.076  0.445E-01  0.445E-01
 -13.066  0.432E-01  0.432E-01
 -13.056  0.418E-01  0.418E-01
 -13.046  0.405E-01  0.405E-01
 -13.036  0.392E-01  0.392E-01
 -13.026  0.379E-01  0.379E-01
 -13.016  0.367E-01  0.367E-01
 -13.006  0.354E-01  0.354E-01
 -12.996  0.342E-01  0.342E-01
 -12.986  0.330E-01  0.330E-01
 -12.976  0.318E-01  0.318E-01
 -12.966  0.307E-01  0.307E-01
 -12.956  0.295E-01  0.295E-01
 -12.946  0.284E-01  0.284E-01
 -12.936  0.273E-01  0.273E-01
 -12.926  0.262E-01  0.262E-01
 -12.916  0.252E-01  0.252E-01
 -12.906  0.242E-01  0.242E-01
 -12.896  0.231E-01  0.231E-01
 -12.886  0.222E-01  0.222E-01
 -12.876  0.212E-01  0.212E-01
 -12.866  0.203E-01  0.203E-01
 -12.856  0.194E-01  0.194E-01
 -12.846  0.185E-01  0.185E-01
 -12.836  0.176E-01  0.176E-01
 -12.826  0.167E-01  0.167E-01
 -12.816  0.159E-01  0.159E-01
 -12.806  0.151E-01  0.151E-01
 -12.796  0.144E-01  0.144E-01
 -12.786  0.136E-01  0.136E-01
 -12.776  0.129E-01  0.129E-01
 -12.766  0.122E-01  0.122E-01
 -12.756  0.115E-01  0.115E-01
 -12.746  0.108E-01  0.108E-01
 -12.736  0.102E-01  0.102E-01
 -12.726  0.955E-02  0.955E-02
 -12.716  0.895E-02  0.895E-02
 -12.706  0.837E-02  0.837E-02
 -12.696  0.781E-02  0.781E-02
 -12.686  0.727E-02  0.727E-02
 -12.676  0.675E-02  0.675E-02
 -12.666  0.625E-02  0.625E-02
 -12.656  0.577E-02  0.577E-02
 -12.646  0.531E-02  0.531E-02
 -12.636  0.486E-02  0.486E-02
 -12.626  0.443E-02  0.443E-02
 -12.616  0.403E-02  0.403E-02
 -12.606  0.363E-02  0.363E-02
 -12.596  0.326E-02  0.326E-02
 -12.586  0.290E-02  0.290E-02
 -12.576  0.256E-02  0.256E-02
 -12.566  0.223E-02  0.223E-02
 -12.556  0.192E-02  0.192E-02
 -12.546  0.162E-02  0.162E-02
 -12.536  0.134E-02  0.134E-02
 -12.526  0.107E-02  0.107E-02
 -12.516  0.812E-03  0.812E-03
 -12.506  0.570E-03  0.570E-03
 -12.496  0.340E-03  0.340E-03
 -12.486  0.123E-03  0.123E-03
 -12.476 -0.816E-04 -0.816E-04
 -12.466 -0.275E-03 -0.275E-03
 -12.456 -0.457E-03 -0.457E-03
 -12.446 -0.628E-03 -0.628E-03
 -12.436 -0.788E-03 -0.788E-03
 -12.426 -0.938E-03 -0.938E-03
 -12.416 -0.108E-02 -0.108E-02
 -12.406 -0.121E-02 -0.121E-02
 -12.396 -0.133E-02 -0.133E-02
 -12.386 -0.144E-02 -0.144E-02
 -12.376 -0.155E-02 -0.155E-02
 -12.366 -0.164E-02 -0.164E-02
 -12.356 -0.173E-02 -0.173E-02
 -12.346 -0.181E-02 -0.181E-02
 -12.336 -0.189E-02 -0.189E-02
 -12.326 -0.195E-02 -0.195E-02
 -12.316 -0.201E-02 -0.201E-02
 -12.306 -0.207E-02 -0.207E-02
 -12.296 -0.212E-02 -0.212E-02
 -12.286 -0.216E-02 -0.216E-02
 -12.276 -0.220E-02 -0.220E-02
 -12.266 -0.223E-02 -0.223E-02
 -12.256 -0.225E-02 -0.225E-02
 -12.246 -0.227E-02 -0.227E-02
 -12.236 -0.229E-02 -0.229E-02
 -12.226 -0.231E-02 -0.231E-02
 -12.216 -0.231E-02 -0.231E-02
 -12.206 -0.232E-02 -0.232E-02
 -12.196 -0.232E-02 -0.232E-02
 -12.186 -0.232E-02 -0.232E-02
 -12.176 -0.231E-02 -0.231E-02
 -12.166 -0.231E-02 -0.231E-02
 -12.156 -0.230E-02 -0.230E-02
 -12.146 -0.228E-02 -0.228E-02
 -12.136 -0.227E-02 -0.227E-02
 -12.126 -0.225E-02 -0.225E-02
 -12.116 -0.223E-02 -0.223E-02
 -12.106 -0.221E-02 -0.221E-02
 -12.096 -0.219E-02 -0.219E-02
 -12.086 -0.216E-02 -0.216E-02
 -12.076 -0.214E-02 -0.214E-02
 -12.066 -0.211E-02 -0.211E-02
 -12.056 -0.208E-02 -0.208E-02
 -12.046 -0.205E-02 -0.205E-02
 -12.036 -0.202E-02 -0.202E-02
 -12.026 -0.199E-02 -0.199E-02
 -12.016 -0.196E-02 -0.196E-02
 -12.006 -0.193E-02 -0.193E-02
 -11.996 -0.189E-02 -0.189E-02
 -11.986 -0.186E-02 -0.186E-02
 -11.976 -0.183E-02 -0.183E-02
 -11.966 -0.179E-02 -0.179E-02
 -11.956 -0.176E-02 -0.176E-02
 -11.946 -0.173E-02 -0.173E-02
 -11.936 -0.169E-02 -0.169E-02
 -11.926 -0.166E-02 -0.166E-02
 -11.916 -0.163E-02 -0.163E-02
 -11.906 -0.160E-02 -0.160E-02
 -11.896 -0.156E-02 -0.156E-02
 -11.886 -0.153E-02 -0.153E-02
 -11.876 -0.150E-02 -0.150E-02
 -11.866 -0.147E-02 -0.147E-02
 -11.856 -0.144E-02 -0.144E-02
 -11.846 -0.141E-02 -0.141E-02
 -11.836 -0.138E-02 -0.138E-02
 -11.826 -0.135E-02 -0.135E-02
 -11.816 -0.132E-02 -0.132E-02
 -11.806 -0.130E-02 -0.130E-02
 -11.796 -0.127E-02 -0.127E-02
 -11.786 -0.124E-02 -0.124E-02
 -11.776 -0.122E-02 -0.122E-02
 -11.766 -0.119E-02 -0.119E-02
 -11.756 -0.117E-02 -0.117E-02
 -11.746 -0.115E-02 -0.115E-02
 -11.736 -0.112E-02 -0.112E-02
 -11.726 -0.110E-02 -0.110E-02
 -11.716 -0.108E-02 -0.108E-02
 -11.706 -0.106E-02 -0.106E-02
 -11.696 -0.104E-02 -0.104E-02
 -11.686 -0.102E-02 -0.102E-02
 -11.676 -0.100E-02 -0.100E-02
 -11.666 -0.986E-03 -0.986E-03
 -11.656 -0.968E-03 -0.968E-03
 -11.646 -0.951E-03 -0.951E-03
 -11.636 -0.934E-03 -0.934E-03
 -11.626 -0.918E-03 -0.918E-03
 -11.616 -0.902E-03 -0.902E-03
 -11.606 -0.886E-03 -0.886E-03
 -11.596 -0.870E-03 -0.870E-03
 -11.586 -0.855E-03 -0.855E-03
 -11.576 -0.840E-03 -0.840E-03
 -11.566 -0.825E-03 -0.825E-03
 -11.556 -0.809E-03 -0.809E-03
 -11.546 -0.794E-03 -0.794E-03
 -11.536 -0.779E-03 -0.779E-03
 -11.526 -0.763E-03 -0.763E-03
 -11.516 -0.747E-03 -0.747E-03
 -11.506 -0.731E-03 -0.731E-03
 -11.496 -0.714E-03 -0.714E-03
 -11.486 -0.697E-03 -0.697E-03
 -11.476 -0.679E-03 -0.679E-03
 -11.466 -0.660E-03 -0.660E-03
 -11.456 -0.640E-03 -0.640E-03
 -11.446 -0.620E-03 -0.620E-03
 -11.436 -0.599E-03 -0.599E-03
 -11.426 -0.576E-03 -0.576E-03
 -11.416 -0.553E-03 -0.553E-03
 -11.406 -0.528E-03 -0.528E-03
 -11.396 -0.502E-03 -0.502E-03
 -11.386 -0.475E-03 -0.475E-03
 -11.376 -0.446E-03 -0.446E-03
 -11.366 -0.415E-03 -0.415E-03
 -11.356 -0.383E-03 -0.383E-03
 -11.346 -0.349E-03 -0.349E-03
 -11.336 -0.313E-03 -0.313E-03
 -11.326 -0.275E-03 -0.275E-03
 -11.316 -0.235E-03 -0.235E-03
 -11.306 -0.193E-03 -0.193E-03
 -11.296 -0.149E-03 -0.149E-03
 -11.286 -0.103E-03 -0.103E-03
 -11.276 -0.536E-04 -0.536E-04
 -11.266 -0.218E-05 -0.218E-05
 -11.256  0.517E-04  0.517E-04
 -11.246  0.108E-03  0.108E-03
 -11.236  0.167E-03  0.167E-03
 -11.226  0.229E-03  0.229E-03
 -11.216  0.294E-03  0.294E-03
 -11.206  0.362E-03  0.362E-03
 -11.196  0.432E-03  0.432E-03
 -11.186  0.506E-03  0.506E-03
 -11.176  0.582E-03  0.582E-03
 -11.166  0.661E-03  0.661E-03
 -11.156  0.744E-03  0.744E-03
 -11.146  0.830E-03  0.830E-03
 -11.136  0.918E-03  0.918E-03
 -11.126  0.101E-02  0.101E-02
 -11.116  0.110E-02  0.110E-02
 -11.106  0.120E-02  0.120E-02
 -11.096  0.130E-02  0.130E-02
 -11.086  0.141E-02  0.141E-02
 -11.076  0.152E-02  0.152E-02
 -11.066  0.163E-02  0.163E-02
 -11.056  0.174E-02  0.174E-02
 -11.046  0.186E-02  0.186E-02
 -11.036  0.197E-02  0.197E-02
 -11.026  0.210E-02  0.210E-02
 -11.016  0.222E-02  0.222E-02
 -11.006  0.235E-02  0.235E-02
 -10.996  0.248E-02  0.248E-02
 -10.986  0.261E-02  0.261E-02
 -10.976  0.275E-02  0.275E-02
 -10.966  0.288E-02  0.288E-02
 -10.956  0.302E-02  0.302E-02
 -10.946  0.317E-02  0.317E-02
 -10.936  0.331E-02  0.331E-02
 -10.926  0.345E-02  0.345E-02
 -10.916  0.360E-02  0.360E-02
 -10.906  0.375E-02  0.375E-02
 -10.896  0.390E-02  0.390E-02
 -10.886  0.405E-02  0.405E-02
 -10.876  0.420E-02  0.420E-02
 -10.866  0.435E-02  0.435E-02
 -10.856  0.451E-02  0.451E-02
 -10.846  0.466E-02  0.466E-02
 -10.836  0.481E-02  0.481E-02
 -10.826  0.497E-02  0.497E-02
 -10.816  0.512E-02  0.512E-02
 -10.806  0.527E-02  0.527E-02
 -10.796  0.543E-02  0.543E-02
 -10.786  0.558E-02  0.558E-02
 -10.776  0.573E-02  0.573E-02
 -10.766  0.588E-02  0.588E-02
 -10.756  0.602E-02  0.602E-02
 -10.746  0.617E-02  0.617E-02
 -10.736  0.631E-02  0.631E-02
 -10.726  0.645E-02  0.645E-02
 -10.716  0.659E-02  0.659E-02
 -10.706  0.673E-02  0.673E-02
 -10.696  0.686E-02  0.686E-02
 -10.686  0.699E-02  0.699E-02
 -10.676  0.712E-02  0.712E-02
 -10.666  0.724E-02  0.724E-02
 -10.656  0.736E-02  0.736E-02
 -10.646  0.748E-02  0.748E-02
 -10.636  0.759E-02  0.759E-02
 -10.626  0.769E-02  0.769E-02
 -10.616  0.780E-02  0.780E-02
 -10.606  0.789E-02  0.789E-02
 -10.596  0.798E-02  0.798E-02
 -10.586  0.807E-02  0.807E-02
 -10.576  0.815E-02  0.815E-02
 -10.566  0.823E-02  0.823E-02
 -10.556  0.830E-02  0.830E-02
 -10.546  0.837E-02  0.837E-02
 -10.536  0.843E-02  0.843E-02
 -10.526  0.848E-02  0.848E-02
 -10.516  0.853E-02  0.853E-02
 -10.506  0.857E-02  0.857E-02
 -10.496  0.860E-02  0.860E-02
 -10.486  0.863E-02  0.863E-02
 -10.476  0.866E-02  0.866E-02
 -10.466  0.867E-02  0.867E-02
 -10.456  0.869E-02  0.869E-02
 -10.446  0.869E-02  0.869E-02
 -10.436  0.869E-02  0.869E-02
 -10.426  0.868E-02  0.868E-02
 -10.416  0.867E-02  0.867E-02
 -10.406  0.865E-02  0.865E-02
 -10.396  0.862E-02  0.862E-02
 -10.386  0.859E-02  0.859E-02
 -10.376  0.855E-02  0.855E-02
 -10.366  0.851E-02  0.851E-02
 -10.356  0.846E-02  0.846E-02
 -10.346  0.841E-02  0.841E-02
 -10.336  0.835E-02  0.835E-02
 -10.326  0.829E-02  0.829E-02
 -10.316  0.822E-02  0.822E-02
 -10.306  0.814E-02  0.814E-02
 -10.296  0.806E-02  0.806E-02
 -10.286  0.798E-02  0.798E-02
 -10.276  0.790E-02  0.790E-02
 -10.266  0.781E-02  0.781E-02
 -10.256  0.771E-02  0.771E-02
 -10.246  0.762E-02  0.762E-02
 -10.236  0.752E-02  0.752E-02
 -10.226  0.741E-02  0.741E-02
 -10.216  0.731E-02  0.731E-02
 -10.206  0.720E-02  0.720E-02
 -10.196  0.709E-02  0.709E-02
 -10.186  0.698E-02  0.698E-02
 -10.176  0.687E-02  0.687E-02
 -10.166  0.676E-02  0.676E-02
 -10.156  0.665E-02  0.665E-02
 -10.146  0.653E-02  0.653E-02
 -10.136  0.642E-02  0.642E-02
 -10.126  0.631E-02  0.631E-02
 -10.116  0.620E-02  0.620E-02
 -10.106  0.609E-02  0.609E-02
 -10.096  0.598E-02  0.598E-02
 -10.086  0.587E-02  0.587E-02
 -10.076  0.576E-02  0.576E-02
 -10.066  0.566E-02  0.566E-02
 -10.056  0.556E-02  0.556E-02
 -10.046  0.546E-02  0.546E-02
 -10.036  0.536E-02  0.536E-02
 -10.026  0.527E-02  0.527E-02
 -10.016  0.518E-02  0.518E-02
 -10.006  0.510E-02  0.510E-02
  -9.996  0.502E-02  0.502E-02
  -9.986  0.494E-02  0.494E-02
  -9.976  0.487E-02  0.487E-02
  -9.966  0.480E-02  0.480E-02
  -9.956  0.474E-02  0.474E-02
  -9.946  0.469E-02  0.469E-02
  -9.936  0.463E-02  0.463E-02
  -9.926  0.459E-02  0.459E-02
  -9.916  0.455E-02  0.455E-02
  -9.906  0.452E-02  0.452E-02
  -9.896  0.449E-02  0.449E-02
  -9.886  0.447E-02  0.447E-02
  -9.876  0.445E-02  0.445E-02
  -9.866  0.444E-02  0.444E-02
  -9.856  0.444E-02  0.444E-02
  -9.846  0.445E-02  0.445E-02
  -9.836  0.446E-02  0.446E-02
  -9.826  0.447E-02  0.447E-02
  -9.816  0.450E-02  0.450E-02
  -9.806  0.452E-02  0.452E-02
  -9.796  0.456E-02  0.456E-02
  -9.786  0.460E-02  0.460E-02
  -9.776  0.465E-02  0.465E-02
  -9.766  0.471E-02  0.471E-02
  -9.756  0.477E-02  0.477E-02
  -9.746  0.483E-02  0.483E-02
  -9.736  0.490E-02  0.490E-02
  -9.726  0.498E-02  0.498E-02
  -9.716  0.507E-02  0.507E-02
  -9.706  0.515E-02  0.515E-02
  -9.696  0.525E-02  0.525E-02
  -9.686  0.535E-02  0.535E-02
  -9.676  0.545E-02  0.545E-02
  -9.666  0.556E-02  0.556E-02
  -9.656  0.567E-02  0.567E-02
  -9.646  0.579E-02  0.579E-02
  -9.636  0.591E-02  0.591E-02
  -9.626  0.603E-02  0.603E-02
  -9.616  0.616E-02  0.616E-02
  -9.606  0.629E-02  0.629E-02
  -9.596  0.642E-02  0.642E-02
  -9.586  0.656E-02  0.656E-02
  -9.576  0.670E-02  0.670E-02
  -9.566  0.684E-02  0.684E-02
  -9.556  0.698E-02  0.698E-02
  -9.546  0.712E-02  0.712E-02
  -9.536  0.726E-02  0.726E-02
  -9.526  0.741E-02  0.741E-02
  -9.516  0.755E-02  0.755E-02
  -9.506  0.769E-02  0.769E-02
  -9.496  0.784E-02  0.784E-02
  -9.486  0.798E-02  0.798E-02
  -9.476  0.812E-02  0.812E-02
  -9.466  0.827E-02  0.827E-02
  -9.456  0.841E-02  0.841E-02
  -9.446  0.854E-02  0.854E-02
  -9.436  0.868E-02  0.868E-02
  -9.426  0.881E-02  0.881E-02
  -9.416  0.895E-02  0.895E-02
  -9.406  0.907E-02  0.907E-02
  -9.396  0.920E-02  0.920E-02
  -9.386  0.932E-02  0.932E-02
  -9.376  0.944E-02  0.944E-02
  -9.366  0.956E-02  0.956E-02
  -9.356  0.967E-02  0.967E-02
  -9.346  0.978E-02  0.978E-02
  -9.336  0.988E-02  0.988E-02
  -9.326  0.998E-02  0.998E-02
  -9.316  0.101E-01  0.101E-01
  -9.306  0.102E-01  0.102E-01
  -9.296  0.102E-01  0.102E-01
  -9.286  0.103E-01  0.103E-01
  -9.276  0.104E-01  0.104E-01
  -9.266  0.105E-01  0.105E-01
  -9.256  0.105E-01  0.105E-01
  -9.246  0.106E-01  0.106E-01
  -9.236  0.106E-01  0.106E-01
  -9.226  0.107E-01  0.107E-01
  -9.216  0.107E-01  0.107E-01
  -9.206  0.108E-01  0.108E-01
  -9.196  0.108E-01  0.108E-01
  -9.186  0.108E-01  0.108E-01
  -9.176  0.109E-01  0.109E-01
  -9.166  0.109E-01  0.109E-01
  -9.156  0.109E-01  0.109E-01
  -9.146  0.109E-01  0.109E-01
  -9.136  0.109E-01  0.109E-01
  -9.126  0.109E-01  0.109E-01
  -9.116  0.109E-01  0.109E-01
  -9.106  0.108E-01  0.108E-01
  -9.096  0.108E-01  0.108E-01
  -9.086  0.108E-01  0.108E-01
  -9.076  0.108E-01  0.108E-01
  -9.066  0.107E-01  0.107E-01
  -9.056  0.107E-01  0.107E-01
  -9.046  0.106E-01  0.106E-01
  -9.036  0.106E-01  0.106E-01
  -9.026  0.105E-01  0.105E-01
  -9.016  0.105E-01  0.105E-01
  -9.006  0.104E-01  0.104E-01
  -8.996  0.104E-01  0.104E-01
  -8.986  0.103E-01  0.103E-01
  -8.976  0.102E-01  0.102E-01
  -8.966  0.102E-01  0.102E-01
  -8.956  0.101E-01  0.101E-01
  -8.946  0.100E-01  0.100E-01
  -8.936  0.992E-02  0.992E-02
  -8.926  0.984E-02  0.984E-02
  -8.916  0.975E-02  0.975E-02
  -8.906  0.966E-02  0.966E-02
  -8.896  0.957E-02  0.957E-02
  -8.886  0.948E-02  0.948E-02
  -8.876  0.939E-02  0.939E-02
  -8.866  0.930E-02  0.930E-02
  -8.856  0.920E-02  0.920E-02
  -8.846  0.911E-02  0.911E-02
  -8.836  0.901E-02  0.901E-02
  -8.826  0.891E-02  0.891E-02
  -8.816  0.881E-02  0.881E-02
  -8.806  0.871E-02  0.871E-02
  -8.796  0.861E-02  0.861E-02
  -8.786  0.851E-02  0.851E-02
  -8.776  0.841E-02  0.841E-02
  -8.766  0.831E-02  0.831E-02
  -8.756  0.821E-02  0.821E-02
  -8.746  0.811E-02  0.811E-02
  -8.736  0.801E-02  0.801E-02
  -8.726  0.791E-02  0.791E-02
  -8.716  0.781E-02  0.781E-02
  -8.706  0.771E-02  0.771E-02
  -8.696  0.761E-02  0.761E-02
  -8.686  0.751E-02  0.751E-02
  -8.676  0.742E-02  0.742E-02
  -8.666  0.732E-02  0.732E-02
  -8.656  0.722E-02  0.722E-02
  -8.646  0.713E-02  0.713E-02
  -8.636  0.703E-02  0.703E-02
  -8.626  0.693E-02  0.693E-02
  -8.616  0.684E-02  0.684E-02
  -8.606  0.675E-02  0.675E-02
  -8.596  0.665E-02  0.665E-02
  -8.586  0.656E-02  0.656E-02
  -8.576  0.647E-02  0.647E-02
  -8.566  0.638E-02  0.638E-02
  -8.556  0.629E-02  0.629E-02
  -8.546  0.620E-02  0.620E-02
  -8.536  0.611E-02  0.611E-02
  -8.526  0.602E-02  0.602E-02
  -8.516  0.593E-02  0.593E-02
  -8.506  0.585E-02  0.585E-02
  -8.496  0.576E-02  0.576E-02
  -8.486  0.567E-02  0.567E-02
  -8.476  0.559E-02  0.559E-02
  -8.466  0.550E-02  0.550E-02
  -8.456  0.542E-02  0.542E-02
  -8.446  0.533E-02  0.533E-02
  -8.436  0.525E-02  0.525E-02
  -8.426  0.516E-02  0.516E-02
  -8.416  0.508E-02  0.508E-02
  -8.406  0.500E-02  0.500E-02
  -8.396  0.491E-02  0.491E-02
  -8.386  0.483E-02  0.483E-02
  -8.376  0.475E-02  0.475E-02
  -8.366  0.466E-02  0.466E-02
  -8.356  0.458E-02  0.458E-02
  -8.346  0.450E-02  0.450E-02
  -8.336  0.441E-02  0.441E-02
  -8.326  0.433E-02  0.433E-02
  -8.316  0.425E-02  0.425E-02
  -8.306  0.417E-02  0.417E-02
  -8.296  0.408E-02  0.408E-02
  -8.286  0.400E-02  0.400E-02
  -8.276  0.392E-02  0.392E-02
  -8.266  0.384E-02  0.384E-02
  -8.256  0.375E-02  0.375E-02
  -8.246  0.367E-02  0.367E-02
  -8.236  0.359E-02  0.359E-02
  -8.226  0.350E-02  0.350E-02
  -8.216  0.342E-02  0.342E-02
  -8.206  0.334E-02  0.334E-02
  -8.196  0.326E-02  0.326E-02
  -8.186  0.317E-02  0.317E-02
  -8.176  0.309E-02  0.309E-02
  -8.166  0.301E-02  0.301E-02
  -8.156  0.293E-02  0.293E-02
  -8.146  0.284E-02  0.284E-02
  -8.136  0.276E-02  0.276E-02
  -8.126  0.268E-02  0.268E-02
  -8.116  0.260E-02  0.260E-02
  -8.106  0.252E-02  0.252E-02
  -8.096  0.243E-02  0.243E-02
  -8.086  0.235E-02  0.235E-02
  -8.076  0.227E-02  0.227E-02
  -8.066  0.219E-02  0.219E-02
  -8.056  0.211E-02  0.211E-02
  -8.046  0.203E-02  0.203E-02
  -8.036  0.195E-02  0.195E-02
  -8.026  0.188E-02  0.188E-02
  -8.016  0.180E-02  0.180E-02
  -8.006  0.172E-02  0.172E-02
  -7.996  0.164E-02  0.164E-02
  -7.986  0.157E-02  0.157E-02
  -7.976  0.149E-02  0.149E-02
  -7.966  0.142E-02  0.142E-02
  -7.956  0.134E-02  0.134E-02
  -7.946  0.127E-02  0.127E-02
  -7.936  0.119E-02  0.119E-02
  -7.926  0.112E-02  0.112E-02
  -7.916  0.105E-02  0.105E-02
  -7.906  0.981E-03  0.981E-03
  -7.896  0.911E-03  0.911E-03
  -7.886  0.842E-03  0.842E-03
  -7.876  0.775E-03  0.775E-03
  -7.866  0.708E-03  0.708E-03
  -7.856  0.642E-03  0.642E-03
  -7.846  0.577E-03  0.577E-03
  -7.836  0.513E-03  0.513E-03
  -7.826  0.450E-03  0.450E-03
  -7.816  0.388E-03  0.388E-03
  -7.806  0.327E-03  0.327E-03
  -7.796  0.267E-03  0.267E-03
  -7.786  0.208E-03  0.208E-03
  -7.776  0.150E-03  0.150E-03
  -7.766  0.933E-04  0.933E-04
  -7.756  0.378E-04  0.378E-04
  -7.746 -0.166E-04 -0.166E-04
  -7.736 -0.699E-04 -0.699E-04
  -7.726 -0.122E-03 -0.122E-03
  -7.716 -0.173E-03 -0.173E-03
  -7.706 -0.223E-03 -0.223E-03
  -7.696 -0.271E-03 -0.271E-03
  -7.686 -0.318E-03 -0.318E-03
  -7.676 -0.364E-03 -0.364E-03
  -7.666 -0.409E-03 -0.409E-03
  -7.656 -0.452E-03 -0.452E-03
  -7.646 -0.495E-03 -0.495E-03
  -7.636 -0.535E-03 -0.535E-03
  -7.626 -0.575E-03 -0.575E-03
  -7.616 -0.613E-03 -0.613E-03
  -7.606 -0.649E-03 -0.649E-03
  -7.596 -0.684E-03 -0.684E-03
  -7.586 -0.718E-03 -0.718E-03
  -7.576 -0.750E-03 -0.750E-03
  -7.566 -0.780E-03 -0.780E-03
  -7.556 -0.809E-03 -0.809E-03
  -7.546 -0.836E-03 -0.836E-03
  -7.536 -0.861E-03 -0.861E-03
  -7.526 -0.885E-03 -0.885E-03
  -7.516 -0.907E-03 -0.907E-03
  -7.506 -0.927E-03 -0.927E-03
  -7.496 -0.945E-03 -0.945E-03
  -7.486 -0.960E-03 -0.960E-03
  -7.476 -0.974E-03 -0.974E-03
  -7.466 -0.986E-03 -0.986E-03
  -7.456 -0.995E-03 -0.995E-03
  -7.446 -0.100E-02 -0.100E-02
  -7.436 -0.101E-02 -0.101E-02
  -7.426 -0.101E-02 -0.101E-02
  -7.416 -0.101E-02 -0.101E-02
  -7.406 -0.101E-02 -0.101E-02
  -7.396 -0.999E-03 -0.999E-03
  -7.386 -0.991E-03 -0.991E-03
  -7.376 -0.979E-03 -0.979E-03
  -7.366 -0.964E-03 -0.964E-03
  -7.356 -0.946E-03 -0.946E-03
  -7.346 -0.925E-03 -0.925E-03
  -7.336 -0.900E-03 -0.900E-03
  -7.326 -0.872E-03 -0.872E-03
  -7.316 -0.840E-03 -0.840E-03
  -7.306 -0.804E-03 -0.804E-03
  -7.296 -0.764E-03 -0.764E-03
  -7.286 -0.721E-03 -0.721E-03
  -7.276 -0.673E-03 -0.673E-03
  -7.266 -0.621E-03 -0.621E-03
  -7.256 -0.564E-03 -0.564E-03
  -7.246 -0.503E-03 -0.503E-03
  -7.236 -0.438E-03 -0.438E-03
  -7.226 -0.368E-03 -0.368E-03
  -7.216 -0.292E-03 -0.292E-03
  -7.206 -0.212E-03 -0.212E-03
  -7.196 -0.127E-03 -0.127E-03
  -7.186 -0.364E-04 -0.364E-04
  -7.176  0.594E-04  0.594E-04
  -7.166  0.161E-03  0.161E-03
  -7.156  0.268E-03  0.268E-03
  -7.146  0.380E-03  0.380E-03
  -7.136  0.498E-03  0.498E-03
  -7.126  0.622E-03  0.622E-03
  -7.116  0.752E-03  0.752E-03
  -7.106  0.888E-03  0.888E-03
  -7.096  0.103E-02  0.103E-02
  -7.086  0.118E-02  0.118E-02
  -7.076  0.133E-02  0.133E-02
  -7.066  0.149E-02  0.149E-02
  -7.056  0.166E-02  0.166E-02
  -7.046  0.183E-02  0.183E-02
  -7.036  0.201E-02  0.201E-02
  -7.026  0.220E-02  0.220E-02
  -7.016  0.239E-02  0.239E-02
  -7.006  0.259E-02  0.259E-02
  -6.996  0.280E-02  0.280E-02
  -6.986  0.301E-02  0.301E-02
  -6.976  0.323E-02  0.323E-02
  -6.966  0.345E-02  0.345E-02
  -6.956  0.368E-02  0.368E-02
  -6.946  0.392E-02  0.392E-02
  -6.936  0.416E-02  0.416E-02
  -6.926  0.441E-02  0.441E-02
  -6.916  0.466E-02  0.466E-02
  -6.906  0.492E-02  0.492E-02
  -6.896  0.518E-02  0.518E-02
  -6.886  0.545E-02  0.545E-02
  -6.876  0.573E-02  0.573E-02
  -6.866  0.601E-02  0.601E-02
  -6.856  0.630E-02  0.630E-02
  -6.846  0.659E-02  0.659E-02
  -6.836  0.688E-02  0.688E-02
  -6.826  0.718E-02  0.718E-02
  -6.816  0.748E-02  0.748E-02
  -6.806  0.779E-02  0.779E-02
  -6.796  0.810E-02  0.810E-02
  -6.786  0.841E-02  0.841E-02
  -6.776  0.873E-02  0.873E-02
  -6.766  0.904E-02  0.904E-02
  -6.756  0.936E-02  0.936E-02
  -6.746  0.969E-02  0.969E-02
  -6.736  0.100E-01  0.100E-01
  -6.726  0.103E-01  0.103E-01
  -6.716  0.107E-01  0.107E-01
  -6.706  0.110E-01  0.110E-01
  -6.696  0.113E-01  0.113E-01
  -6.686  0.116E-01  0.116E-01
  -6.676  0.120E-01  0.120E-01
  -6.666  0.123E-01  0.123E-01
  -6.656  0.126E-01  0.126E-01
  -6.646  0.129E-01  0.129E-01
  -6.636  0.132E-01  0.132E-01
  -6.626  0.136E-01  0.136E-01
  -6.616  0.139E-01  0.139E-01
  -6.606  0.142E-01  0.142E-01
  -6.596  0.145E-01  0.145E-01
  -6.586  0.148E-01  0.148E-01
  -6.576  0.151E-01  0.151E-01
  -6.566  0.154E-01  0.154E-01
  -6.556  0.156E-01  0.156E-01
  -6.546  0.159E-01  0.159E-01
  -6.536  0.162E-01  0.162E-01
  -6.526  0.165E-01  0.165E-01
  -6.516  0.167E-01  0.167E-01
  -6.506  0.170E-01  0.170E-01
  -6.496  0.172E-01  0.172E-01
  -6.486  0.174E-01  0.174E-01
  -6.476  0.177E-01  0.177E-01
  -6.466  0.179E-01  0.179E-01
  -6.456  0.181E-01  0.181E-01
  -6.446  0.183E-01  0.183E-01
  -6.436  0.185E-01  0.185E-01
  -6.426  0.186E-01  0.186E-01
  -6.416  0.188E-01  0.188E-01
  -6.406  0.189E-01  0.189E-01
  -6.396  0.191E-01  0.191E-01
  -6.386  0.192E-01  0.192E-01
  -6.376  0.193E-01  0.193E-01
  -6.366  0.194E-01  0.194E-01
  -6.356  0.195E-01  0.195E-01
  -6.346  0.196E-01  0.196E-01
  -6.336  0.197E-01  0.197E-01
  -6.326  0.197E-01  0.197E-01
  -6.316  0.198E-01  0.198E-01
  -6.306  0.198E-01  0.198E-01
  -6.296  0.198E-01  0.198E-01
  -6.286  0.198E-01  0.198E-01
  -6.276  0.198E-01  0.198E-01
  -6.266  0.198E-01  0.198E-01
  -6.256  0.198E-01  0.198E-01
  -6.246  0.197E-01  0.197E-01
  -6.236  0.197E-01  0.197E-01
  -6.226  0.196E-01  0.196E-01
  -6.216  0.195E-01  0.195E-01
  -6.206  0.194E-01  0.194E-01
  -6.196  0.193E-01  0.193E-01
  -6.186  0.192E-01  0.192E-01
  -6.176  0.190E-01  0.190E-01
  -6.166  0.189E-01  0.189E-01
  -6.156  0.187E-01  0.187E-01
  -6.146  0.186E-01  0.186E-01
  -6.136  0.184E-01  0.184E-01
  -6.126  0.182E-01  0.182E-01
  -6.116  0.180E-01  0.180E-01
  -6.106  0.178E-01  0.178E-01
  -6.096  0.176E-01  0.176E-01
  -6.086  0.173E-01  0.173E-01
  -6.076  0.171E-01  0.171E-01
  -6.066  0.168E-01  0.168E-01
  -6.056  0.166E-01  0.166E-01
  -6.046  0.163E-01  0.163E-01
  -6.036  0.160E-01  0.160E-01
  -6.026  0.157E-01  0.157E-01
  -6.016  0.155E-01  0.155E-01
  -6.006  0.152E-01  0.152E-01
  -5.996  0.149E-01  0.149E-01
  -5.986  0.145E-01  0.145E-01
  -5.976  0.142E-01  0.142E-01
  -5.966  0.139E-01  0.139E-01
  -5.956  0.136E-01  0.136E-01
  -5.946  0.133E-01  0.133E-01
  -5.936  0.129E-01  0.129E-01
  -5.926  0.126E-01  0.126E-01
  -5.916  0.123E-01  0.123E-01
  -5.906  0.119E-01  0.119E-01
  -5.896  0.116E-01  0.116E-01
  -5.886  0.112E-01  0.112E-01
  -5.876  0.109E-01  0.109E-01
  -5.866  0.106E-01  0.106E-01
  -5.856  0.102E-01  0.102E-01
  -5.846  0.986E-02  0.986E-02
  -5.836  0.951E-02  0.951E-02
  -5.826  0.917E-02  0.917E-02
  -5.816  0.883E-02  0.883E-02
  -5.806  0.848E-02  0.848E-02
  -5.796  0.814E-02  0.814E-02
  -5.786  0.781E-02  0.781E-02
  -5.776  0.747E-02  0.747E-02
  -5.766  0.714E-02  0.714E-02
  -5.756  0.681E-02  0.681E-02
  -5.746  0.649E-02  0.649E-02
  -5.736  0.617E-02  0.617E-02
  -5.726  0.585E-02  0.585E-02
  -5.716  0.554E-02  0.554E-02
  -5.706  0.523E-02  0.523E-02
  -5.696  0.493E-02  0.493E-02
  -5.686  0.463E-02  0.463E-02
  -5.676  0.434E-02  0.434E-02
  -5.666  0.405E-02  0.405E-02
  -5.656  0.377E-02  0.377E-02
  -5.646  0.350E-02  0.350E-02
  -5.636  0.323E-02  0.323E-02
  -5.626  0.297E-02  0.297E-02
  -5.616  0.272E-02  0.272E-02
  -5.606  0.247E-02  0.247E-02
  -5.596  0.224E-02  0.224E-02
  -5.586  0.200E-02  0.200E-02
  -5.576  0.178E-02  0.178E-02
  -5.566  0.156E-02  0.156E-02
  -5.556  0.136E-02  0.136E-02
  -5.546  0.116E-02  0.116E-02
  -5.536  0.965E-03  0.965E-03
  -5.526  0.781E-03  0.781E-03
  -5.516  0.606E-03  0.606E-03
  -5.506  0.440E-03  0.440E-03
  -5.496  0.281E-03  0.281E-03
  -5.486  0.132E-03  0.132E-03
  -5.476 -0.819E-05 -0.819E-05
  -5.466 -0.140E-03 -0.140E-03
  -5.456 -0.262E-03 -0.262E-03
  -5.446 -0.376E-03 -0.376E-03
  -5.436 -0.480E-03 -0.480E-03
  -5.426 -0.575E-03 -0.575E-03
  -5.416 -0.660E-03 -0.660E-03
  -5.406 -0.736E-03 -0.736E-03
  -5.396 -0.803E-03 -0.803E-03
  -5.386 -0.860E-03 -0.860E-03
  -5.376 -0.907E-03 -0.907E-03
  -5.366 -0.945E-03 -0.945E-03
  -5.356 -0.973E-03 -0.973E-03
  -5.346 -0.991E-03 -0.991E-03
  -5.336 -0.100E-02 -0.100E-02
  -5.326 -0.998E-03 -0.998E-03
  -5.316 -0.987E-03 -0.987E-03
  -5.306 -0.965E-03 -0.965E-03
  -5.296 -0.934E-03 -0.934E-03
  -5.286 -0.892E-03 -0.892E-03
  -5.276 -0.840E-03 -0.840E-03
  -5.266 -0.778E-03 -0.778E-03
  -5.256 -0.706E-03 -0.706E-03
  -5.246 -0.624E-03 -0.624E-03
  -5.236 -0.531E-03 -0.531E-03
  -5.226 -0.429E-03 -0.429E-03
  -5.216 -0.316E-03 -0.316E-03
  -5.206 -0.192E-03 -0.192E-03
  -5.196 -0.591E-04 -0.591E-04
  -5.186  0.846E-04  0.846E-04
  -5.176  0.238E-03  0.238E-03
  -5.166  0.402E-03  0.402E-03
  -5.156  0.577E-03  0.577E-03
  -5.146  0.761E-03  0.761E-03
  -5.136  0.955E-03  0.955E-03
  -5.126  0.116E-02  0.116E-02
  -5.116  0.137E-02  0.137E-02
  -5.106  0.160E-02  0.160E-02
  -5.096  0.183E-02  0.183E-02
  -5.086  0.207E-02  0.207E-02
  -5.076  0.233E-02  0.233E-02
  -5.066  0.259E-02  0.259E-02
  -5.056  0.286E-02  0.286E-02
  -5.046  0.314E-02  0.314E-02
  -5.036  0.343E-02  0.343E-02
  -5.026  0.373E-02  0.373E-02
  -5.016  0.404E-02  0.404E-02
  -5.006  0.435E-02  0.435E-02
  -4.996  0.467E-02  0.467E-02
  -4.986  0.500E-02  0.500E-02
  -4.976  0.534E-02  0.534E-02
  -4.966  0.569E-02  0.569E-02
  -4.956  0.604E-02  0.604E-02
  -4.946  0.640E-02  0.640E-02
  -4.936  0.677E-02  0.677E-02
  -4.926  0.714E-02  0.714E-02
  -4.916  0.751E-02  0.751E-02
  -4.906  0.790E-02  0.790E-02
  -4.896  0.828E-02  0.828E-02
  -4.886  0.868E-02  0.868E-02
  -4.876  0.907E-02  0.907E-02
  -4.866  0.947E-02  0.947E-02
  -4.856  0.987E-02  0.987E-02
  -4.846  0.103E-01  0.103E-01
  -4.836  0.107E-01  0.107E-01
  -4.826  0.111E-01  0.111E-01
  -4.816  0.115E-01  0.115E-01
  -4.806  0.119E-01  0.119E-01
  -4.796  0.123E-01  0.123E-01
  -4.786  0.127E-01  0.127E-01
  -4.776  0.131E-01  0.131E-01
  -4.766  0.136E-01  0.136E-01
  -4.756  0.140E-01  0.140E-01
  -4.746  0.144E-01  0.144E-01
  -4.736  0.148E-01  0.148E-01
  -4.726  0.152E-01  0.152E-01
  -4.716  0.156E-01  0.156E-01
  -4.706  0.160E-01  0.160E-01
  -4.696  0.163E-01  0.163E-01
  -4.686  0.167E-01  0.167E-01
  -4.676  0.171E-01  0.171E-01
  -4.666  0.174E-01  0.174E-01
  -4.656  0.178E-01  0.178E-01
  -4.646  0.181E-01  0.181E-01
  -4.636  0.185E-01  0.185E-01
  -4.626  0.188E-01  0.188E-01
  -4.616  0.191E-01  0.191E-01
  -4.606  0.194E-01  0.194E-01
  -4.596  0.197E-01  0.197E-01
  -4.586  0.200E-01  0.200E-01
  -4.576  0.203E-01  0.203E-01
  -4.566  0.206E-01  0.206E-01
  -4.556  0.208E-01  0.208E-01
  -4.546  0.211E-01  0.211E-01
  -4.536  0.213E-01  0.213E-01
  -4.526  0.215E-01  0.215E-01
  -4.516  0.217E-01  0.217E-01
  -4.506  0.219E-01  0.219E-01
  -4.496  0.221E-01  0.221E-01
  -4.486  0.222E-01  0.222E-01
  -4.476  0.223E-01  0.223E-01
  -4.466  0.225E-01  0.225E-01
  -4.456  0.226E-01  0.226E-01
  -4.446  0.227E-01  0.227E-01
  -4.436  0.227E-01  0.227E-01
  -4.426  0.228E-01  0.228E-01
  -4.416  0.228E-01  0.228E-01
  -4.406  0.229E-01  0.229E-01
  -4.396  0.229E-01  0.229E-01
  -4.386  0.229E-01  0.229E-01
  -4.376  0.229E-01  0.229E-01
  -4.366  0.228E-01  0.228E-01
  -4.356  0.228E-01  0.228E-01
  -4.346  0.227E-01  0.227E-01
  -4.336  0.226E-01  0.226E-01
  -4.326  0.225E-01  0.225E-01
  -4.316  0.224E-01  0.224E-01
  -4.306  0.223E-01  0.223E-01
  -4.296  0.221E-01  0.221E-01
  -4.286  0.219E-01  0.219E-01
  -4.276  0.218E-01  0.218E-01
  -4.266  0.216E-01  0.216E-01
  -4.256  0.214E-01  0.214E-01
  -4.246  0.212E-01  0.212E-01
  -4.236  0.209E-01  0.209E-01
  -4.226  0.207E-01  0.207E-01
  -4.216  0.204E-01  0.204E-01
  -4.206  0.201E-01  0.201E-01
  -4.196  0.199E-01  0.199E-01
  -4.186  0.196E-01  0.196E-01
  -4.176  0.193E-01  0.193E-01
  -4.166  0.190E-01  0.190E-01
  -4.156  0.186E-01  0.186E-01
  -4.146  0.183E-01  0.183E-01
  -4.136  0.180E-01  0.180E-01
  -4.126  0.176E-01  0.176E-01
  -4.116  0.173E-01  0.173E-01
  -4.106  0.169E-01  0.169E-01
  -4.096  0.166E-01  0.166E-01
  -4.086  0.162E-01  0.162E-01
  -4.076  0.158E-01  0.158E-01
  -4.066  0.154E-01  0.154E-01
  -4.056  0.150E-01  0.150E-01
  -4.046  0.147E-01  0.147E-01
  -4.036  0.143E-01  0.143E-01
  -4.026  0.139E-01  0.139E-01
  -4.016  0.135E-01  0.135E-01
  -4.006  0.131E-01  0.131E-01
  -3.996  0.127E-01  0.127E-01
  -3.986  0.123E-01  0.123E-01
  -3.976  0.119E-01  0.119E-01
  -3.966  0.115E-01  0.115E-01
  -3.956  0.111E-01  0.111E-01
  -3.946  0.107E-01  0.107E-01
  -3.936  0.103E-01  0.103E-01
  -3.926  0.996E-02  0.996E-02
  -3.916  0.958E-02  0.958E-02
  -3.906  0.921E-02  0.921E-02
  -3.896  0.884E-02  0.884E-02
  -3.886  0.847E-02  0.847E-02
  -3.876  0.810E-02  0.810E-02
  -3.866  0.775E-02  0.775E-02
  -3.856  0.739E-02  0.739E-02
  -3.846  0.705E-02  0.705E-02
  -3.836  0.671E-02  0.671E-02
  -3.826  0.638E-02  0.638E-02
  -3.816  0.605E-02  0.605E-02
  -3.806  0.573E-02  0.573E-02
  -3.796  0.542E-02  0.542E-02
  -3.786  0.511E-02  0.511E-02
  -3.776  0.481E-02  0.481E-02
  -3.766  0.453E-02  0.453E-02
  -3.756  0.424E-02  0.424E-02
  -3.746  0.397E-02  0.397E-02
  -3.736  0.370E-02  0.370E-02
  -3.726  0.345E-02  0.345E-02
  -3.716  0.320E-02  0.320E-02
  -3.706  0.296E-02  0.296E-02
  -3.696  0.272E-02  0.272E-02
  -3.686  0.250E-02  0.250E-02
  -3.676  0.228E-02  0.228E-02
  -3.666  0.208E-02  0.208E-02
  -3.656  0.188E-02  0.188E-02
  -3.646  0.169E-02  0.169E-02
  -3.636  0.151E-02  0.151E-02
  -3.626  0.133E-02  0.133E-02
  -3.616  0.116E-02  0.116E-02
  -3.606  0.101E-02  0.101E-02
  -3.596  0.856E-03  0.856E-03
  -3.586  0.713E-03  0.713E-03
  -3.576  0.578E-03  0.578E-03
  -3.566  0.451E-03  0.451E-03
  -3.556  0.331E-03  0.331E-03
  -3.546  0.218E-03  0.218E-03
  -3.536  0.113E-03  0.113E-03
  -3.526  0.137E-04  0.137E-04
  -3.516 -0.783E-04 -0.783E-04
  -3.506 -0.164E-03 -0.164E-03
  -3.496 -0.243E-03 -0.243E-03
  -3.486 -0.316E-03 -0.316E-03
  -3.476 -0.383E-03 -0.383E-03
  -3.466 -0.444E-03 -0.444E-03
  -3.456 -0.499E-03 -0.499E-03
  -3.446 -0.549E-03 -0.549E-03
  -3.436 -0.593E-03 -0.593E-03
  -3.426 -0.633E-03 -0.633E-03
  -3.416 -0.668E-03 -0.668E-03
  -3.406 -0.698E-03 -0.698E-03
  -3.396 -0.723E-03 -0.723E-03
  -3.386 -0.744E-03 -0.744E-03
  -3.376 -0.762E-03 -0.762E-03
  -3.366 -0.775E-03 -0.775E-03
  -3.356 -0.784E-03 -0.784E-03
  -3.346 -0.790E-03 -0.790E-03
  -3.336 -0.793E-03 -0.793E-03
  -3.326 -0.792E-03 -0.792E-03
  -3.316 -0.788E-03 -0.788E-03
  -3.306 -0.782E-03 -0.782E-03
  -3.296 -0.773E-03 -0.773E-03
  -3.286 -0.761E-03 -0.761E-03
  -3.276 -0.747E-03 -0.747E-03
  -3.266 -0.731E-03 -0.731E-03
  -3.256 -0.712E-03 -0.712E-03
  -3.246 -0.692E-03 -0.692E-03
  -3.236 -0.670E-03 -0.670E-03
  -3.226 -0.647E-03 -0.647E-03
  -3.216 -0.622E-03 -0.622E-03
  -3.206 -0.595E-03 -0.595E-03
  -3.196 -0.568E-03 -0.568E-03
  -3.186 -0.539E-03 -0.539E-03
  -3.176 -0.509E-03 -0.509E-03
  -3.166 -0.478E-03 -0.478E-03
  -3.156 -0.447E-03 -0.447E-03
  -3.146 -0.415E-03 -0.415E-03
  -3.136 -0.382E-03 -0.382E-03
  -3.126 -0.349E-03 -0.349E-03
  -3.116 -0.315E-03 -0.315E-03
  -3.106 -0.281E-03 -0.281E-03
  -3.096 -0.247E-03 -0.247E-03
  -3.086 -0.212E-03 -0.212E-03
  -3.076 -0.178E-03 -0.178E-03
  -3.066 -0.143E-03 -0.143E-03
  -3.056 -0.109E-03 -0.109E-03
  -3.046 -0.739E-04 -0.739E-04
  -3.036 -0.394E-04 -0.394E-04
  -3.026 -0.502E-05 -0.502E-05
  -3.016  0.292E-04  0.292E-04
  -3.006  0.632E-04  0.632E-04
  -2.996  0.969E-04  0.969E-04
  -2.986  0.130E-03  0.130E-03
  -2.976  0.163E-03  0.163E-03
  -2.966  0.196E-03  0.196E-03
  -2.956  0.228E-03  0.228E-03
  -2.946  0.260E-03  0.260E-03
  -2.936  0.292E-03  0.292E-03
  -2.926  0.323E-03  0.323E-03
  -2.916  0.354E-03  0.354E-03
  -2.906  0.384E-03  0.384E-03
  -2.896  0.414E-03  0.414E-03
  -2.886  0.443E-03  0.443E-03
  -2.876  0.472E-03  0.472E-03
  -2.866  0.500E-03  0.500E-03
  -2.856  0.528E-03  0.528E-03
  -2.846  0.555E-03  0.555E-03
  -2.836  0.582E-03  0.582E-03
  -2.826  0.608E-03  0.608E-03
  -2.816  0.634E-03  0.634E-03
  -2.806  0.659E-03  0.659E-03
  -2.796  0.684E-03  0.684E-03
  -2.786  0.709E-03  0.709E-03
  -2.776  0.733E-03  0.733E-03
  -2.766  0.756E-03  0.756E-03
  -2.756  0.779E-03  0.779E-03
  -2.746  0.802E-03  0.802E-03
  -2.736  0.824E-03  0.824E-03
  -2.726  0.846E-03  0.846E-03
  -2.716  0.868E-03  0.868E-03
  -2.706  0.889E-03  0.889E-03
  -2.696  0.910E-03  0.910E-03
  -2.686  0.930E-03  0.930E-03
  -2.676  0.950E-03  0.950E-03
  -2.666  0.970E-03  0.970E-03
  -2.656  0.989E-03  0.989E-03
  -2.646  0.101E-02  0.101E-02
  -2.636  0.103E-02  0.103E-02
  -2.626  0.105E-02  0.105E-02
  -2.616  0.106E-02  0.106E-02
  -2.606  0.108E-02  0.108E-02
  -2.596  0.110E-02  0.110E-02
  -2.586  0.112E-02  0.112E-02
  -2.576  0.113E-02  0.113E-02
  -2.566  0.115E-02  0.115E-02
  -2.556  0.117E-02  0.117E-02
  -2.546  0.118E-02  0.118E-02
  -2.536  0.120E-02  0.120E-02
  -2.526  0.122E-02  0.122E-02
  -2.516  0.123E-02  0.123E-02
  -2.506  0.125E-02  0.125E-02
  -2.496  0.126E-02  0.126E-02
  -2.486  0.128E-02  0.128E-02
  -2.476  0.129E-02  0.129E-02
  -2.466  0.131E-02  0.131E-02
  -2.456  0.132E-02  0.132E-02
  -2.446  0.134E-02  0.134E-02
  -2.436  0.135E-02  0.135E-02
  -2.426  0.137E-02  0.137E-02
  -2.416  0.138E-02  0.138E-02
  -2.406  0.139E-02  0.139E-02
  -2.396  0.141E-02  0.141E-02
  -2.386  0.142E-02  0.142E-02
  -2.376  0.144E-02  0.144E-02
  -2.366  0.145E-02  0.145E-02
  -2.356  0.146E-02  0.146E-02
  -2.346  0.147E-02  0.147E-02
  -2.336  0.149E-02  0.149E-02
  -2.326  0.150E-02  0.150E-02
  -2.316  0.151E-02  0.151E-02
  -2.306  0.152E-02  0.152E-02
  -2.296  0.153E-02  0.153E-02
  -2.286  0.155E-02  0.155E-02
  -2.276  0.156E-02  0.156E-02
  -2.266  0.157E-02  0.157E-02
  -2.256  0.158E-02  0.158E-02
  -2.246  0.159E-02  0.159E-02
  -2.236  0.160E-02  0.160E-02
  -2.226  0.161E-02  0.161E-02
  -2.216  0.162E-02  0.162E-02
  -2.206  0.162E-02  0.162E-02
  -2.196  0.163E-02  0.163E-02
  -2.186  0.164E-02  0.164E-02
  -2.176  0.165E-02  0.165E-02
  -2.166  0.166E-02  0.166E-02
  -2.156  0.166E-02  0.166E-02
  -2.146  0.167E-02  0.167E-02
  -2.136  0.168E-02  0.168E-02
  -2.126  0.168E-02  0.168E-02
  -2.116  0.169E-02  0.169E-02
  -2.106  0.169E-02  0.169E-02
  -2.096  0.170E-02  0.170E-02
  -2.086  0.170E-02  0.170E-02
  -2.076  0.171E-02  0.171E-02
  -2.066  0.171E-02  0.171E-02
  -2.056  0.171E-02  0.171E-02
  -2.046  0.172E-02  0.172E-02
  -2.036  0.172E-02  0.172E-02
  -2.026  0.172E-02  0.172E-02
  -2.016  0.172E-02  0.172E-02
  -2.006  0.172E-02  0.172E-02
  -1.996  0.173E-02  0.173E-02
  -1.986  0.173E-02  0.173E-02
  -1.976  0.173E-02  0.173E-02
  -1.966  0.173E-02  0.173E-02
  -1.956  0.173E-02  0.173E-02
  -1.946  0.173E-02  0.173E-02
  -1.936  0.173E-02  0.173E-02
  -1.926  0.172E-02  0.172E-02
  -1.916  0.172E-02  0.172E-02
  -1.906  0.172E-02  0.172E-02
  -1.896  0.172E-02  0.172E-02
  -1.886  0.172E-02  0.172E-02
  -1.876  0.172E-02  0.172E-02
  -1.866  0.171E-02  0.171E-02
  -1.856  0.171E-02  0.171E-02
  -1.846  0.171E-02  0.171E-02
  -1.836  0.171E-02  0.171E-02
  -1.826  0.170E-02  0.170E-02
  -1.816  0.170E-02  0.170E-02
  -1.806  0.170E-02  0.170E-02
  -1.796  0.170E-02  0.170E-02
  -1.786  0.169E-02  0.169E-02
  -1.776  0.169E-02  0.169E-02
  -1.766  0.169E-02  0.169E-02
  -1.756  0.169E-02  0.169E-02
  -1.746  0.169E-02  0.169E-02
  -1.736  0.168E-02  0.168E-02
  -1.726  0.168E-02  0.168E-02
  -1.716  0.168E-02  0.168E-02
  -1.706  0.168E-02  0.168E-02
  -1.696  0.168E-02  0.168E-02
  -1.686  0.168E-02  0.168E-02
  -1.676  0.168E-02  0.168E-02
  -1.666  0.168E-02  0.168E-02
  -1.656  0.168E-02  0.168E-02
  -1.646  0.169E-02  0.169E-02
  -1.636  0.169E-02  0.169E-02
  -1.626  0.169E-02  0.169E-02
  -1.616  0.169E-02  0.169E-02
  -1.606  0.170E-02  0.170E-02
  -1.596  0.170E-02  0.170E-02
  -1.586  0.171E-02  0.171E-02
  -1.576  0.171E-02  0.171E-02
  -1.566  0.172E-02  0.172E-02
  -1.556  0.172E-02  0.172E-02
  -1.546  0.173E-02  0.173E-02
  -1.536  0.174E-02  0.174E-02
  -1.526  0.175E-02  0.175E-02
  -1.516  0.176E-02  0.176E-02
  -1.506  0.177E-02  0.177E-02
  -1.496  0.178E-02  0.178E-02
  -1.486  0.179E-02  0.179E-02
  -1.476  0.180E-02  0.180E-02
  -1.466  0.181E-02  0.181E-02
  -1.456  0.182E-02  0.182E-02
  -1.446  0.184E-02  0.184E-02
  -1.436  0.185E-02  0.185E-02
  -1.426  0.186E-02  0.186E-02
  -1.416  0.188E-02  0.188E-02
  -1.406  0.189E-02  0.189E-02
  -1.396  0.191E-02  0.191E-02
  -1.386  0.193E-02  0.193E-02
  -1.376  0.194E-02  0.194E-02
  -1.366  0.196E-02  0.196E-02
  -1.356  0.198E-02  0.198E-02
  -1.346  0.200E-02  0.200E-02
  -1.336  0.201E-02  0.201E-02
  -1.326  0.203E-02  0.203E-02
  -1.316  0.205E-02  0.205E-02
  -1.306  0.207E-02  0.207E-02
  -1.296  0.209E-02  0.209E-02
  -1.286  0.211E-02  0.211E-02
  -1.276  0.213E-02  0.213E-02
  -1.266  0.214E-02  0.214E-02
  -1.256  0.216E-02  0.216E-02
  -1.246  0.218E-02  0.218E-02
  -1.236  0.220E-02  0.220E-02
  -1.226  0.222E-02  0.222E-02
  -1.216  0.224E-02  0.224E-02
  -1.206  0.226E-02  0.226E-02
  -1.196  0.228E-02  0.228E-02
  -1.186  0.229E-02  0.229E-02
  -1.176  0.231E-02  0.231E-02
  -1.166  0.233E-02  0.233E-02
  -1.156  0.235E-02  0.235E-02
  -1.146  0.236E-02  0.236E-02
  -1.136  0.238E-02  0.238E-02
  -1.126  0.239E-02  0.239E-02
  -1.116  0.241E-02  0.241E-02
  -1.106  0.242E-02  0.242E-02
  -1.096  0.244E-02  0.244E-02
  -1.086  0.245E-02  0.245E-02
  -1.076  0.246E-02  0.246E-02
  -1.066  0.248E-02  0.248E-02
  -1.056  0.249E-02  0.249E-02
  -1.046  0.250E-02  0.250E-02
  -1.036  0.251E-02  0.251E-02
  -1.026  0.252E-02  0.252E-02
  -1.016  0.253E-02  0.253E-02
  -1.006  0.254E-02  0.254E-02
  -0.996  0.254E-02  0.254E-02
  -0.986  0.255E-02  0.255E-02
  -0.976  0.256E-02  0.256E-02
  -0.966  0.256E-02  0.256E-02
  -0.956  0.257E-02  0.257E-02
  -0.946  0.257E-02  0.257E-02
  -0.936  0.258E-02  0.258E-02
  -0.926  0.258E-02  0.258E-02
  -0.916  0.258E-02  0.258E-02
  -0.906  0.258E-02  0.258E-02
  -0.896  0.259E-02  0.259E-02
  -0.886  0.259E-02  0.259E-02
  -0.876  0.259E-02  0.259E-02
  -0.866  0.259E-02  0.259E-02
  -0.856  0.259E-02  0.259E-02
  -0.846  0.259E-02  0.259E-02
  -0.836  0.259E-02  0.259E-02
  -0.826  0.259E-02  0.259E-02
  -0.816  0.259E-02  0.259E-02
  -0.806  0.259E-02  0.259E-02
  -0.796  0.258E-02  0.258E-02
  -0.786  0.258E-02  0.258E-02
  -0.776  0.258E-02  0.258E-02
  -0.766  0.258E-02  0.258E-02
  -0.756  0.258E-02  0.258E-02
  -0.746  0.258E-02  0.258E-02
  -0.736  0.258E-02  0.258E-02
  -0.726  0.258E-02  0.258E-02
  -0.716  0.259E-02  0.259E-02
  -0.706  0.259E-02  0.259E-02
  -0.696  0.259E-02  0.259E-02
  -0.686  0.259E-02  0.259E-02
  -0.676  0.260E-02  0.260E-02
  -0.666  0.260E-02  0.260E-02
  -0.656  0.261E-02  0.261E-02
  -0.646  0.262E-02  0.262E-02
  -0.636  0.262E-02  0.262E-02
  -0.626  0.263E-02  0.263E-02
  -0.616  0.264E-02  0.264E-02
  -0.606  0.265E-02  0.265E-02
  -0.596  0.267E-02  0.267E-02
  -0.586  0.268E-02  0.268E-02
  -0.576  0.270E-02  0.270E-02
  -0.566  0.271E-02  0.271E-02
  -0.556  0.273E-02  0.273E-02
  -0.546  0.275E-02  0.275E-02
  -0.536  0.277E-02  0.277E-02
  -0.526  0.279E-02  0.279E-02
  -0.516  0.282E-02  0.282E-02
  -0.506  0.284E-02  0.284E-02
  -0.496  0.287E-02  0.287E-02
  -0.486  0.290E-02  0.290E-02
  -0.476  0.293E-02  0.293E-02
  -0.466  0.296E-02  0.296E-02
  -0.456  0.300E-02  0.300E-02
  -0.446  0.303E-02  0.303E-02
  -0.436  0.307E-02  0.307E-02
  -0.426  0.311E-02  0.311E-02
  -0.416  0.315E-02  0.315E-02
  -0.406  0.319E-02  0.319E-02
  -0.396  0.323E-02  0.323E-02
  -0.386  0.328E-02  0.328E-02
  -0.376  0.332E-02  0.332E-02
  -0.366  0.337E-02  0.337E-02
  -0.356  0.342E-02  0.342E-02
  -0.346  0.347E-02  0.347E-02
  -0.336  0.352E-02  0.352E-02
  -0.326  0.357E-02  0.357E-02
  -0.316  0.362E-02  0.362E-02
  -0.306  0.368E-02  0.368E-02
  -0.296  0.373E-02  0.373E-02
  -0.286  0.379E-02  0.379E-02
  -0.276  0.385E-02  0.385E-02
  -0.266  0.390E-02  0.390E-02
  -0.256  0.396E-02  0.396E-02
  -0.246  0.402E-02  0.402E-02
  -0.236  0.408E-02  0.408E-02
  -0.226  0.414E-02  0.414E-02
  -0.216  0.420E-02  0.420E-02
  -0.206  0.425E-02  0.425E-02
  -0.196  0.431E-02  0.431E-02
  -0.186  0.437E-02  0.437E-02
  -0.176  0.443E-02  0.443E-02
  -0.166  0.449E-02  0.449E-02
  -0.156  0.455E-02  0.455E-02
  -0.146  0.460E-02  0.460E-02
  -0.136  0.466E-02  0.466E-02
  -0.126  0.471E-02  0.471E-02
  -0.116  0.477E-02  0.477E-02
  -0.106  0.482E-02  0.482E-02
  -0.096  0.487E-02  0.487E-02
  -0.086  0.492E-02  0.492E-02
  -0.076  0.497E-02  0.497E-02
  -0.066  0.502E-02  0.502E-02
  -0.056  0.507E-02  0.507E-02
  -0.046  0.511E-02  0.511E-02
  -0.036  0.516E-02  0.516E-02
  -0.026  0.520E-02  0.520E-02
  -0.016  0.524E-02  0.524E-02
  -0.006  0.527E-02  0.527E-02
   0.004  0.531E-02  0.531E-02
   0.014  0.534E-02  0.534E-02
   0.024  0.537E-02  0.537E-02
   0.034  0.540E-02  0.540E-02
   0.044  0.543E-02  0.543E-02
   0.054  0.545E-02  0.545E-02
   0.064  0.547E-02  0.547E-02
   0.074  0.549E-02  0.549E-02
   0.084  0.551E-02  0.551E-02
   0.094  0.552E-02  0.552E-02
   0.104  0.553E-02  0.553E-02
   0.114  0.554E-02  0.554E-02
   0.124  0.554E-02  0.554E-02
   0.134  0.555E-02  0.555E-02
   0.144  0.555E-02  0.555E-02
   0.154  0.555E-02  0.555E-02
   0.164  0.554E-02  0.554E-02
   0.174  0.553E-02  0.553E-02
   0.184  0.552E-02  0.552E-02
   0.194  0.551E-02  0.551E-02
   0.204  0.549E-02  0.549E-02
   0.214  0.548E-02  0.548E-02
   0.224  0.546E-02  0.546E-02
   0.234  0.543E-02  0.543E-02
   0.244  0.541E-02  0.541E-02
   0.254  0.538E-02  0.538E-02
   0.264  0.535E-02  0.535E-02
   0.274  0.532E-02  0.532E-02
   0.284  0.529E-02  0.529E-02
   0.294  0.525E-02  0.525E-02
   0.304  0.521E-02  0.521E-02
   0.314  0.517E-02  0.517E-02
   0.324  0.513E-02  0.513E-02
   0.334  0.509E-02  0.509E-02
   0.344  0.504E-02  0.504E-02
   0.354  0.500E-02  0.500E-02
   0.364  0.495E-02  0.495E-02
   0.374  0.490E-02  0.490E-02
   0.384  0.485E-02  0.485E-02
   0.394  0.480E-02  0.480E-02
   0.404  0.475E-02  0.475E-02
   0.414  0.469E-02  0.469E-02
   0.424  0.464E-02  0.464E-02
   0.434  0.459E-02  0.459E-02
   0.444  0.453E-02  0.453E-02
   0.454  0.448E-02  0.448E-02
   0.464  0.442E-02  0.442E-02
   0.474  0.436E-02  0.436E-02
   0.484  0.431E-02  0.431E-02
   0.494  0.425E-02  0.425E-02
   0.504  0.420E-02  0.420E-02
   0.514  0.414E-02  0.414E-02
   0.524  0.409E-02  0.409E-02
   0.534  0.404E-02  0.404E-02
   0.544  0.399E-02  0.399E-02
   0.554  0.394E-02  0.394E-02
   0.564  0.389E-02  0.389E-02
   0.574  0.384E-02  0.384E-02
   0.584  0.379E-02  0.379E-02
   0.594  0.375E-02  0.375E-02
   0.604  0.370E-02  0.370E-02
   0.614  0.366E-02  0.366E-02
   0.624  0.362E-02  0.362E-02
   0.634  0.359E-02  0.359E-02
   0.644  0.355E-02  0.355E-02
   0.654  0.352E-02  0.352E-02
   0.664  0.350E-02  0.350E-02
   0.674  0.347E-02  0.347E-02
   0.684  0.345E-02  0.345E-02
   0.694  0.343E-02  0.343E-02
   0.704  0.342E-02  0.342E-02
   0.714  0.341E-02  0.341E-02
   0.724  0.340E-02  0.340E-02
   0.734  0.340E-02  0.340E-02
   0.744  0.340E-02  0.340E-02
   0.754  0.341E-02  0.341E-02
   0.764  0.342E-02  0.342E-02
   0.774  0.344E-02  0.344E-02
   0.784  0.346E-02  0.346E-02
   0.794  0.349E-02  0.349E-02
   0.804  0.353E-02  0.353E-02
   0.814  0.357E-02  0.357E-02
   0.824  0.361E-02  0.361E-02
   0.834  0.367E-02  0.367E-02
   0.844  0.373E-02  0.373E-02
   0.854  0.379E-02  0.379E-02
   0.864  0.387E-02  0.387E-02
   0.874  0.395E-02  0.395E-02
   0.884  0.404E-02  0.404E-02
   0.894  0.413E-02  0.413E-02
   0.904  0.424E-02  0.424E-02
   0.914  0.435E-02  0.435E-02
   0.924  0.447E-02  0.447E-02
   0.934  0.460E-02  0.460E-02
   0.944  0.474E-02  0.474E-02
   0.954  0.489E-02  0.489E-02
   0.964  0.505E-02  0.505E-02
   0.974  0.521E-02  0.521E-02
   0.984  0.539E-02  0.539E-02
   0.994  0.557E-02  0.557E-02
   1.004  0.577E-02  0.577E-02
   1.014  0.598E-02  0.598E-02
   1.024  0.619E-02  0.619E-02
   1.034  0.642E-02  0.642E-02
   1.044  0.666E-02  0.666E-02
   1.054  0.691E-02  0.691E-02
   1.064  0.717E-02  0.717E-02
   1.074  0.744E-02  0.744E-02
   1.084  0.772E-02  0.772E-02
   1.094  0.801E-02  0.801E-02
   1.104  0.832E-02  0.832E-02
   1.114  0.863E-02  0.863E-02
   1.124  0.896E-02  0.896E-02
   1.134  0.930E-02  0.930E-02
   1.144  0.965E-02  0.965E-02
   1.154  0.100E-01  0.100E-01
   1.164  0.104E-01  0.104E-01
   1.174  0.108E-01  0.108E-01
   1.184  0.112E-01  0.112E-01
   1.194  0.116E-01  0.116E-01
   1.204  0.120E-01  0.120E-01
   1.214  0.124E-01  0.124E-01
   1.224  0.129E-01  0.129E-01
   1.234  0.133E-01  0.133E-01
   1.244  0.138E-01  0.138E-01
   1.254  0.143E-01  0.143E-01
   1.264  0.147E-01  0.147E-01
   1.274  0.152E-01  0.152E-01
   1.284  0.157E-01  0.157E-01
   1.294  0.163E-01  0.163E-01
   1.304  0.168E-01  0.168E-01
   1.314  0.173E-01  0.173E-01
   1.324  0.178E-01  0.178E-01
   1.334  0.184E-01  0.184E-01
   1.344  0.190E-01  0.190E-01
   1.354  0.195E-01  0.195E-01
   1.364  0.201E-01  0.201E-01
   1.374  0.207E-01  0.207E-01
   1.384  0.213E-01  0.213E-01
   1.394  0.219E-01  0.219E-01
   1.404  0.225E-01  0.225E-01
   1.414  0.231E-01  0.231E-01
   1.424  0.237E-01  0.237E-01
   1.434  0.243E-01  0.243E-01
   1.444  0.249E-01  0.249E-01
   1.454  0.255E-01  0.255E-01
   1.464  0.262E-01  0.262E-01
   1.474  0.268E-01  0.268E-01
   1.484  0.274E-01  0.274E-01
   1.494  0.280E-01  0.280E-01
   1.504  0.287E-01  0.287E-01
   1.514  0.293E-01  0.293E-01
   1.524  0.300E-01  0.300E-01
   1.534  0.306E-01  0.306E-01
   1.544  0.312E-01  0.312E-01
   1.554  0.319E-01  0.319E-01
   1.564  0.325E-01  0.325E-01
   1.574  0.331E-01  0.331E-01
   1.584  0.338E-01  0.338E-01
   1.594  0.344E-01  0.344E-01
   1.604  0.350E-01  0.350E-01
   1.614  0.356E-01  0.356E-01
   1.624  0.363E-01  0.363E-01
   1.634  0.369E-01  0.369E-01
   1.644  0.375E-01  0.375E-01
   1.654  0.381E-01  0.381E-01
   1.664  0.387E-01  0.387E-01
   1.674  0.393E-01  0.393E-01
   1.684  0.399E-01  0.399E-01
   1.694  0.405E-01  0.405E-01
   1.704  0.411E-01  0.411E-01
   1.714  0.417E-01  0.417E-01
   1.724  0.423E-01  0.423E-01
   1.734  0.428E-01  0.428E-01
   1.744  0.434E-01  0.434E-01
   1.754  0.440E-01  0.440E-01
   1.764  0.445E-01  0.445E-01
   1.774  0.451E-01  0.451E-01
   1.784  0.456E-01  0.456E-01
   1.794  0.462E-01  0.462E-01
   1.804  0.467E-01  0.467E-01
   1.814  0.472E-01  0.472E-01
   1.824  0.478E-01  0.478E-01
   1.834  0.483E-01  0.483E-01
   1.844  0.488E-01  0.488E-01
   1.854  0.493E-01  0.493E-01
   1.864  0.498E-01  0.498E-01
   1.874  0.503E-01  0.503E-01
   1.884  0.508E-01  0.508E-01
   1.894  0.513E-01  0.513E-01
   1.904  0.519E-01  0.519E-01
   1.914  0.523E-01  0.523E-01
   1.924  0.528E-01  0.528E-01
   1.934  0.533E-01  0.533E-01
   1.944  0.538E-01  0.538E-01
   1.954  0.543E-01  0.543E-01
   1.964  0.548E-01  0.548E-01
   1.974  0.553E-01  0.553E-01
   1.984  0.558E-01  0.558E-01
   1.994  0.563E-01  0.563E-01
   2.004  0.568E-01  0.568E-01
   2.014  0.573E-01  0.573E-01
   2.024  0.578E-01  0.578E-01
   2.034  0.583E-01  0.583E-01
   2.044  0.588E-01  0.588E-01
   2.054  0.593E-01  0.593E-01
   2.064  0.598E-01  0.598E-01
   2.074  0.603E-01  0.603E-01
   2.084  0.608E-01  0.608E-01
   2.094  0.613E-01  0.613E-01
   2.104  0.618E-01  0.618E-01
   2.114  0.623E-01  0.623E-01
   2.124  0.628E-01  0.628E-01
   2.134  0.634E-01  0.634E-01
   2.144  0.639E-01  0.639E-01
   2.154  0.644E-01  0.644E-01
   2.164  0.649E-01  0.649E-01
   2.174  0.655E-01  0.655E-01
   2.184  0.660E-01  0.660E-01
   2.194  0.666E-01  0.666E-01
   2.204  0.671E-01  0.671E-01
   2.214  0.677E-01  0.677E-01
   2.224  0.682E-01  0.682E-01
   2.234  0.688E-01  0.688E-01
   2.244  0.693E-01  0.693E-01
   2.254  0.699E-01  0.699E-01
   2.264  0.704E-01  0.704E-01
   2.274  0.710E-01  0.710E-01
   2.284  0.715E-01  0.715E-01
   2.294  0.721E-01  0.721E-01
   2.304  0.726E-01  0.726E-01
   2.314  0.732E-01  0.732E-01
   2.324  0.737E-01  0.737E-01
   2.334  0.743E-01  0.743E-01
   2.344  0.748E-01  0.748E-01
   2.354  0.753E-01  0.753E-01
   2.364  0.759E-01  0.759E-01
   2.374  0.764E-01  0.764E-01
   2.384  0.769E-01  0.769E-01
   2.394  0.774E-01  0.774E-01
   2.404  0.779E-01  0.779E-01
   2.414  0.784E-01  0.784E-01
   2.424  0.789E-01  0.789E-01
   2.434  0.793E-01  0.793E-01
   2.444  0.798E-01  0.798E-01
   2.454  0.802E-01  0.802E-01
   2.464  0.807E-01  0.807E-01
   2.474  0.811E-01  0.811E-01
   2.484  0.815E-01  0.815E-01
   2.494  0.819E-01  0.819E-01
   2.504  0.822E-01  0.822E-01
   2.514  0.826E-01  0.826E-01
   2.524  0.829E-01  0.829E-01
   2.534  0.832E-01  0.832E-01
   2.544  0.835E-01  0.835E-01
   2.554  0.837E-01  0.837E-01
   2.564  0.840E-01  0.840E-01
   2.574  0.842E-01  0.842E-01
   2.584  0.844E-01  0.844E-01
   2.594  0.845E-01  0.845E-01
   2.604  0.847E-01  0.847E-01
   2.614  0.848E-01  0.848E-01
   2.624  0.849E-01  0.849E-01
   2.634  0.849E-01  0.849E-01
   2.644  0.849E-01  0.849E-01
   2.654  0.849E-01  0.849E-01
   2.664  0.849E-01  0.849E-01
   2.674  0.848E-01  0.848E-01
   2.684  0.847E-01  0.847E-01
   2.694  0.846E-01  0.846E-01
   2.704  0.844E-01  0.844E-01
   2.714  0.842E-01  0.842E-01
   2.724  0.840E-01  0.840E-01
   2.734  0.837E-01  0.837E-01
   2.744  0.834E-01  0.834E-01
   2.754  0.831E-01  0.831E-01
   2.764  0.828E-01  0.828E-01
   2.774  0.824E-01  0.824E-01
   2.784  0.819E-01  0.819E-01
   2.794  0.815E-01  0.815E-01
   2.804  0.810E-01  0.810E-01
   2.814  0.805E-01  0.805E-01
   2.824  0.799E-01  0.799E-01
   2.834  0.793E-01  0.793E-01
   2.844  0.787E-01  0.787E-01
   2.854  0.780E-01  0.780E-01
   2.864  0.774E-01  0.774E-01
   2.874  0.766E-01  0.766E-01
   2.884  0.759E-01  0.759E-01
   2.894  0.751E-01  0.751E-01
   2.904  0.743E-01  0.743E-01
   2.914  0.735E-01  0.735E-01
   2.924  0.726E-01  0.726E-01
   2.934  0.718E-01  0.718E-01
   2.944  0.708E-01  0.708E-01
   2.954  0.699E-01  0.699E-01
   2.964  0.690E-01  0.690E-01
   2.974  0.680E-01  0.680E-01
   2.984  0.670E-01  0.670E-01
   2.994  0.659E-01  0.659E-01
   3.004  0.649E-01  0.649E-01
   3.014  0.638E-01  0.638E-01
   3.024  0.628E-01  0.628E-01
   3.034  0.617E-01  0.617E-01
   3.044  0.605E-01  0.605E-01
   3.054  0.594E-01  0.594E-01
   3.064  0.583E-01  0.583E-01
   3.074  0.571E-01  0.571E-01
   3.084  0.560E-01  0.560E-01
   3.094  0.548E-01  0.548E-01
   3.104  0.536E-01  0.536E-01
   3.114  0.524E-01  0.524E-01
   3.124  0.512E-01  0.512E-01
   3.134  0.500E-01  0.500E-01
   3.144  0.488E-01  0.488E-01
   3.154  0.476E-01  0.476E-01
   3.164  0.464E-01  0.464E-01
   3.174  0.451E-01  0.451E-01
   3.184  0.439E-01  0.439E-01
   3.194  0.427E-01  0.427E-01
   3.204  0.415E-01  0.415E-01
   3.214  0.403E-01  0.403E-01
   3.224  0.391E-01  0.391E-01
   3.234  0.379E-01  0.379E-01
   3.244  0.367E-01  0.367E-01
   3.254  0.355E-01  0.355E-01
   3.264  0.344E-01  0.344E-01
   3.274  0.332E-01  0.332E-01
   3.284  0.320E-01  0.320E-01
   3.294  0.309E-01  0.309E-01
   3.304  0.298E-01  0.298E-01
   3.314  0.287E-01  0.287E-01
   3.324  0.276E-01  0.276E-01
   3.334  0.265E-01  0.265E-01
   3.344  0.254E-01  0.254E-01
   3.354  0.243E-01  0.243E-01
   3.364  0.233E-01  0.233E-01
   3.374  0.223E-01  0.223E-01
   3.384  0.213E-01  0.213E-01
   3.394  0.203E-01  0.203E-01
   3.404  0.193E-01  0.193E-01
   3.414  0.184E-01  0.184E-01
   3.424  0.175E-01  0.175E-01
   3.434  0.166E-01  0.166E-01
   3.444  0.157E-01  0.157E-01
   3.454  0.148E-01  0.148E-01
   3.464  0.140E-01  0.140E-01
   3.474  0.131E-01  0.131E-01
   3.484  0.123E-01  0.123E-01
   3.494  0.116E-01  0.116E-01
   3.504  0.108E-01  0.108E-01
   3.514  0.101E-01  0.101E-01
   3.524  0.936E-02  0.936E-02
   3.534  0.868E-02  0.868E-02
   3.544  0.801E-02  0.801E-02
   3.554  0.736E-02  0.736E-02
   3.564  0.674E-02  0.674E-02
   3.574  0.614E-02  0.614E-02
   3.584  0.556E-02  0.556E-02
   3.594  0.501E-02  0.501E-02
   3.604  0.447E-02  0.447E-02
   3.614  0.396E-02  0.396E-02
   3.624  0.347E-02  0.347E-02
   3.634  0.300E-02  0.300E-02
   3.644  0.254E-02  0.254E-02
   3.654  0.211E-02  0.211E-02
   3.664  0.170E-02  0.170E-02
   3.674  0.131E-02  0.131E-02
   3.684  0.942E-03  0.942E-03
   3.694  0.589E-03  0.589E-03
   3.704  0.256E-03  0.256E-03
   3.714 -0.599E-04 -0.599E-04
   3.724 -0.358E-03 -0.358E-03
   3.734 -0.638E-03 -0.638E-03
   3.744 -0.901E-03 -0.901E-03
   3.754 -0.115E-02 -0.115E-02
   3.764 -0.138E-02 -0.138E-02
   3.774 -0.159E-02 -0.159E-02
   3.784 -0.179E-02 -0.179E-02
   3.794 -0.198E-02 -0.198E-02
   3.804 -0.215E-02 -0.215E-02
   3.814 -0.231E-02 -0.231E-02
   3.824 -0.245E-02 -0.245E-02
   3.834 -0.258E-02 -0.258E-02
   3.844 -0.270E-02 -0.270E-02
   3.854 -0.281E-02 -0.281E-02
   3.864 -0.290E-02 -0.290E-02
   3.874 -0.299E-02 -0.299E-02
   3.884 -0.306E-02 -0.306E-02
   3.894 -0.313E-02 -0.313E-02
   3.904 -0.318E-02 -0.318E-02
   3.914 -0.323E-02 -0.323E-02
   3.924 -0.326E-02 -0.326E-02
   3.934 -0.329E-02 -0.329E-02
   3.944 -0.331E-02 -0.331E-02
   3.954 -0.333E-02 -0.333E-02
   3.964 -0.333E-02 -0.333E-02
   3.974 -0.333E-02 -0.333E-02
   3.984 -0.333E-02 -0.333E-02
   3.994 -0.332E-02 -0.332E-02
   4.004 -0.330E-02 -0.330E-02
   4.014 -0.328E-02 -0.328E-02
   4.024 -0.325E-02 -0.325E-02
   4.034 -0.322E-02 -0.322E-02
   4.044 -0.318E-02 -0.318E-02
   4.054 -0.314E-02 -0.314E-02
   4.064 -0.310E-02 -0.310E-02
   4.074 -0.305E-02 -0.305E-02
   4.084 -0.300E-02 -0.300E-02
   4.094 -0.295E-02 -0.295E-02
   4.104 -0.290E-02 -0.290E-02
   4.114 -0.284E-02 -0.284E-02
   4.124 -0.279E-02 -0.279E-02
   4.134 -0.273E-02 -0.273E-02
   4.144 -0.267E-02 -0.267E-02
   4.154 -0.260E-02 -0.260E-02
   4.164 -0.254E-02 -0.254E-02
   4.174 -0.248E-02 -0.248E-02
   4.184 -0.242E-02 -0.242E-02
   4.194 -0.235E-02 -0.235E-02
   4.204 -0.229E-02 -0.229E-02
   4.214 -0.222E-02 -0.222E-02
   4.224 -0.216E-02 -0.216E-02
   4.234 -0.210E-02 -0.210E-02
   4.244 -0.203E-02 -0.203E-02
   4.254 -0.197E-02 -0.197E-02
   4.264 -0.191E-02 -0.191E-02
   4.274 -0.184E-02 -0.184E-02
   4.284 -0.178E-02 -0.178E-02
   4.294 -0.172E-02 -0.172E-02
   4.304 -0.166E-02 -0.166E-02
   4.314 -0.160E-02 -0.160E-02
   4.324 -0.155E-02 -0.155E-02
   4.334 -0.149E-02 -0.149E-02
   4.344 -0.143E-02 -0.143E-02
   4.354 -0.138E-02 -0.138E-02
   4.364 -0.133E-02 -0.133E-02
   4.374 -0.127E-02 -0.127E-02
   4.384 -0.122E-02 -0.122E-02
   4.394 -0.117E-02 -0.117E-02
   4.404 -0.113E-02 -0.113E-02
   4.414 -0.108E-02 -0.108E-02
   4.424 -0.103E-02 -0.103E-02
   4.434 -0.990E-03 -0.990E-03
   4.444 -0.947E-03 -0.947E-03
   4.454 -0.906E-03 -0.906E-03
   4.464 -0.866E-03 -0.866E-03
   4.474 -0.827E-03 -0.827E-03
   4.484 -0.789E-03 -0.789E-03
   4.494 -0.753E-03 -0.753E-03
   4.504 -0.718E-03 -0.718E-03
   4.514 -0.684E-03 -0.684E-03
   4.524 -0.651E-03 -0.651E-03
   4.534 -0.620E-03 -0.620E-03
   4.544 -0.590E-03 -0.590E-03
   4.554 -0.560E-03 -0.560E-03
   4.564 -0.533E-03 -0.533E-03
   4.574 -0.506E-03 -0.506E-03
   4.584 -0.480E-03 -0.480E-03
   4.594 -0.455E-03 -0.455E-03
   4.604 -0.432E-03 -0.432E-03
   4.614 -0.409E-03 -0.409E-03
   4.624 -0.387E-03 -0.387E-03
   4.634 -0.367E-03 -0.367E-03
   4.644 -0.347E-03 -0.347E-03
   4.654 -0.328E-03 -0.328E-03
   4.664 -0.310E-03 -0.310E-03
   4.674 -0.293E-03 -0.293E-03
   4.684 -0.276E-03 -0.276E-03
   4.694 -0.261E-03 -0.261E-03
   4.704 -0.246E-03 -0.246E-03
   4.714 -0.232E-03 -0.232E-03
   4.724 -0.219E-03 -0.219E-03
   4.734 -0.206E-03 -0.206E-03
   4.744 -0.194E-03 -0.194E-03
   4.754 -0.182E-03 -0.182E-03
   4.764 -0.171E-03 -0.171E-03
   4.774 -0.161E-03 -0.161E-03
   4.784 -0.151E-03 -0.151E-03
   4.794 -0.142E-03 -0.142E-03
   4.804 -0.133E-03 -0.133E-03
   4.814 -0.125E-03 -0.125E-03
   4.824 -0.117E-03 -0.117E-03
   4.834 -0.110E-03 -0.110E-03
   4.844 -0.103E-03 -0.103E-03
   4.854 -0.961E-04 -0.961E-04
   4.864 -0.899E-04 -0.899E-04
   4.874 -0.841E-04 -0.841E-04
   4.884 -0.786E-04 -0.786E-04
   4.894 -0.734E-04 -0.734E-04
   4.904 -0.686E-04 -0.686E-04
   4.914 -0.640E-04 -0.640E-04
   4.924 -0.597E-04 -0.597E-04
   4.934 -0.556E-04 -0.556E-04
   4.944 -0.519E-04 -0.519E-04
   4.954 -0.483E-04 -0.483E-04
   4.964 -0.450E-04 -0.450E-04
   4.974 -0.418E-04 -0.418E-04
   4.984 -0.389E-04 -0.389E-04
   4.994 -0.362E-04 -0.362E-04
   5.004 -0.336E-04 -0.336E-04
   5.014 -0.312E-04 -0.312E-04
   5.024 -0.290E-04 -0.290E-04
   5.034 -0.269E-04 -0.269E-04
   5.044 -0.249E-04 -0.249E-04
   5.054 -0.231E-04 -0.231E-04
   5.064 -0.214E-04 -0.214E-04
   5.074 -0.198E-04 -0.198E-04
   5.084 -0.184E-04 -0.184E-04
   5.094 -0.170E-04 -0.170E-04
   5.104 -0.157E-04 -0.157E-04
   5.114 -0.145E-04 -0.145E-04
   5.124 -0.134E-04 -0.134E-04
   5.134 -0.124E-04 -0.124E-04
   5.144 -0.114E-04 -0.114E-04
   5.154 -0.106E-04 -0.106E-04
   5.164 -0.973E-05 -0.973E-05
   5.174 -0.897E-05 -0.897E-05
   5.184 -0.827E-05 -0.827E-05
   5.194 -0.761E-05 -0.761E-05
   5.204 -0.701E-05 -0.701E-05
   5.214 -0.645E-05 -0.645E-05
   5.224 -0.593E-05 -0.593E-05
   5.234 -0.545E-05 -0.545E-05
   5.244 -0.501E-05 -0.501E-05
   5.254 -0.460E-05 -0.460E-05
   5.264 -0.422E-05 -0.422E-05
   5.274 -0.387E-05 -0.387E-05
   5.284 -0.355E-05 -0.355E-05
   5.294 -0.326E-05 -0.326E-05
