# E (eV)   ldos(E)   pdos(E)   
 -27.116 -0.695E-09 -0.695E-09
 -27.106 -0.750E-09 -0.750E-09
 -27.096 -0.809E-09 -0.809E-09
 -27.086 -0.873E-09 -0.873E-09
 -27.076 -0.940E-09 -0.940E-09
 -27.066 -0.101E-08 -0.101E-08
 -27.056 -0.109E-08 -0.109E-08
 -27.046 -0.117E-08 -0.117E-08
 -27.036 -0.126E-08 -0.126E-08
 -27.026 -0.136E-08 -0.136E-08
 -27.016 -0.146E-08 -0.146E-08
 -27.006 -0.157E-08 -0.157E-08
 -26.996 -0.168E-08 -0.168E-08
 -26.986 -0.180E-08 -0.180E-08
 -26.976 -0.193E-08 -0.193E-08
 -26.966 -0.207E-08 -0.207E-08
 -26.956 -0.222E-08 -0.222E-08
 -26.946 -0.237E-08 -0.237E-08
 -26.936 -0.254E-08 -0.254E-08
 -26.926 -0.272E-08 -0.272E-08
 -26.916 -0.290E-08 -0.290E-08
 -26.906 -0.310E-08 -0.310E-08
 -26.896 -0.331E-08 -0.331E-08
 -26.886 -0.353E-08 -0.353E-08
 -26.876 -0.376E-08 -0.376E-08
 -26.866 -0.401E-08 -0.401E-08
 -26.856 -0.427E-08 -0.427E-08
 -26.846 -0.455E-08 -0.455E-08
 -26.836 -0.484E-08 -0.484E-08
 -26.826 -0.515E-08 -0.515E-08
 -26.816 -0.547E-08 -0.547E-08
 -26.806 -0.581E-08 -0.581E-08
 -26.796 -0.617E-08 -0.617E-08
 -26.786 -0.655E-08 -0.655E-08
 -26.776 -0.694E-08 -0.694E-08
 -26.766 -0.735E-08 -0.735E-08
 -26.756 -0.779E-08 -0.779E-08
 -26.746 -0.825E-08 -0.825E-08
 -26.736 -0.872E-08 -0.872E-08
 -26.726 -0.922E-08 -0.922E-08
 -26.716 -0.974E-08 -0.974E-08
 -26.706 -0.103E-07 -0.103E-07
 -26.696 -0.109E-07 -0.109E-07
 -26.686 -0.115E-07 -0.115E-07
 -26.676 -0.121E-07 -0.121E-07
 -26.666 -0.127E-07 -0.127E-07
 -26.656 -0.134E-07 -0.134E-07
 -26.646 -0.141E-07 -0.141E-07
 -26.636 -0.148E-07 -0.148E-07
 -26.626 -0.156E-07 -0.156E-07
 -26.616 -0.163E-07 -0.163E-07
 -26.606 -0.172E-07 -0.172E-07
 -26.596 -0.180E-07 -0.180E-07
 -26.586 -0.189E-07 -0.189E-07
 -26.576 -0.197E-07 -0.197E-07
 -26.566 -0.207E-07 -0.207E-07
 -26.556 -0.216E-07 -0.216E-07
 -26.546 -0.226E-07 -0.226E-07
 -26.536 -0.236E-07 -0.236E-07
 -26.526 -0.246E-07 -0.246E-07
 -26.516 -0.257E-07 -0.257E-07
 -26.506 -0.268E-07 -0.268E-07
 -26.496 -0.279E-07 -0.279E-07
 -26.486 -0.290E-07 -0.290E-07
 -26.476 -0.302E-07 -0.302E-07
 -26.466 -0.314E-07 -0.314E-07
 -26.456 -0.326E-07 -0.326E-07
 -26.446 -0.338E-07 -0.338E-07
 -26.436 -0.350E-07 -0.350E-07
 -26.426 -0.363E-07 -0.363E-07
 -26.416 -0.376E-07 -0.376E-07
 -26.406 -0.389E-07 -0.389E-07
 -26.396 -0.402E-07 -0.402E-07
 -26.386 -0.415E-07 -0.415E-07
 -26.376 -0.428E-07 -0.428E-07
 -26.366 -0.441E-07 -0.441E-07
 -26.356 -0.454E-07 -0.454E-07
 -26.346 -0.467E-07 -0.467E-07
 -26.336 -0.480E-07 -0.480E-07
 -26.326 -0.492E-07 -0.492E-07
 -26.316 -0.505E-07 -0.505E-07
 -26.306 -0.518E-07 -0.518E-07
 -26.296 -0.530E-07 -0.530E-07
 -26.286 -0.541E-07 -0.541E-07
 -26.276 -0.553E-07 -0.553E-07
 -26.266 -0.564E-07 -0.564E-07
 -26.256 -0.575E-07 -0.575E-07
 -26.246 -0.585E-07 -0.585E-07
 -26.236 -0.594E-07 -0.594E-07
 -26.226 -0.603E-07 -0.603E-07
 -26.216 -0.611E-07 -0.611E-07
 -26.206 -0.618E-07 -0.618E-07
 -26.196 -0.624E-07 -0.624E-07
 -26.186 -0.630E-07 -0.630E-07
 -26.176 -0.634E-07 -0.634E-07
 -26.166 -0.637E-07 -0.637E-07
 -26.156 -0.639E-07 -0.639E-07
 -26.146 -0.640E-07 -0.640E-07
 -26.136 -0.639E-07 -0.639E-07
 -26.126 -0.637E-07 -0.637E-07
 -26.116 -0.633E-07 -0.633E-07
 -26.106 -0.628E-07 -0.628E-07
 -26.096 -0.621E-07 -0.621E-07
 -26.086 -0.612E-07 -0.612E-07
 -26.076 -0.601E-07 -0.601E-07
 -26.066 -0.588E-07 -0.588E-07
 -26.056 -0.573E-07 -0.573E-07
 -26.046 -0.555E-07 -0.555E-07
 -26.036 -0.535E-07 -0.535E-07
 -26.026 -0.513E-07 -0.513E-07
 -26.016 -0.488E-07 -0.488E-07
 -26.006 -0.461E-07 -0.461E-07
 -25.996 -0.430E-07 -0.430E-07
 -25.986 -0.397E-07 -0.397E-07
 -25.976 -0.361E-07 -0.361E-07
 -25.966 -0.322E-07 -0.322E-07
 -25.956 -0.279E-07 -0.279E-07
 -25.946 -0.234E-07 -0.234E-07
 -25.936 -0.185E-07 -0.185E-07
 -25.926 -0.132E-07 -0.132E-07
 -25.916 -0.759E-08 -0.759E-08
 -25.906 -0.161E-08 -0.161E-08
 -25.896  0.474E-08  0.474E-08
 -25.886  0.115E-07  0.115E-07
 -25.876  0.186E-07  0.186E-07
 -25.866  0.261E-07  0.261E-07
 -25.856  0.340E-07  0.340E-07
 -25.846  0.424E-07  0.424E-07
 -25.836  0.511E-07  0.511E-07
 -25.826  0.603E-07  0.603E-07
 -25.816  0.699E-07  0.699E-07
 -25.806  0.799E-07  0.799E-07
 -25.796  0.904E-07  0.904E-07
 -25.786  0.101E-06  0.101E-06
 -25.776  0.113E-06  0.113E-06
 -25.766  0.124E-06  0.124E-06
 -25.756  0.137E-06  0.137E-06
 -25.746  0.149E-06  0.149E-06
 -25.736  0.162E-06  0.162E-06
 -25.726  0.176E-06  0.176E-06
 -25.716  0.190E-06  0.190E-06
 -25.706  0.204E-06  0.204E-06
 -25.696  0.219E-06  0.219E-06
 -25.686  0.234E-06  0.234E-06
 -25.676  0.249E-06  0.249E-06
 -25.666  0.265E-06  0.265E-06
 -25.656  0.282E-06  0.282E-06
 -25.646  0.298E-06  0.298E-06
 -25.636  0.315E-06  0.315E-06
 -25.626  0.333E-06  0.333E-06
 -25.616  0.351E-06  0.351E-06
 -25.606  0.369E-06  0.369E-06
 -25.596  0.387E-06  0.387E-06
 -25.586  0.406E-06  0.406E-06
 -25.576  0.425E-06  0.425E-06
 -25.566  0.444E-06  0.444E-06
 -25.556  0.463E-06  0.463E-06
 -25.546  0.483E-06  0.483E-06
 -25.536  0.503E-06  0.503E-06
 -25.526  0.523E-06  0.523E-06
 -25.516  0.543E-06  0.543E-06
 -25.506  0.563E-06  0.563E-06
 -25.496  0.584E-06  0.584E-06
 -25.486  0.604E-06  0.604E-06
 -25.476  0.625E-06  0.625E-06
 -25.466  0.645E-06  0.645E-06
 -25.456  0.666E-06  0.666E-06
 -25.446  0.686E-06  0.686E-06
 -25.436  0.707E-06  0.707E-06
 -25.426  0.727E-06  0.727E-06
 -25.416  0.747E-06  0.747E-06
 -25.406  0.768E-06  0.768E-06
 -25.396  0.787E-06  0.787E-06
 -25.386  0.807E-06  0.807E-06
 -25.376  0.827E-06  0.827E-06
 -25.366  0.846E-06  0.846E-06
 -25.356  0.865E-06  0.865E-06
 -25.346  0.883E-06  0.883E-06
 -25.336  0.902E-06  0.902E-06
 -25.326  0.919E-06  0.919E-06
 -25.316  0.937E-06  0.937E-06
 -25.306  0.954E-06  0.954E-06
 -25.296  0.970E-06  0.970E-06
 -25.286  0.986E-06  0.986E-06
 -25.276  0.100E-05  0.100E-05
 -25.266  0.102E-05  0.102E-05
 -25.256  0.103E-05  0.103E-05
 -25.246  0.105E-05  0.105E-05
 -25.236  0.106E-05  0.106E-05
 -25.226  0.107E-05  0.107E-05
 -25.216  0.108E-05  0.108E-05
 -25.206  0.109E-05  0.109E-05
 -25.196  0.110E-05  0.110E-05
 -25.186  0.111E-05  0.111E-05
 -25.176  0.112E-05  0.112E-05
 -25.166  0.113E-05  0.113E-05
 -25.156  0.114E-05  0.114E-05
 -25.146  0.115E-05  0.115E-05
 -25.136  0.115E-05  0.115E-05
 -25.126  0.116E-05  0.116E-05
 -25.116  0.116E-05  0.116E-05
 -25.106  0.116E-05  0.116E-05
 -25.096  0.117E-05  0.117E-05
 -25.086  0.117E-05  0.117E-05
 -25.076  0.117E-05  0.117E-05
 -25.066  0.117E-05  0.117E-05
 -25.056  0.117E-05  0.117E-05
 -25.046  0.117E-05  0.117E-05
 -25.036  0.116E-05  0.116E-05
 -25.026  0.116E-05  0.116E-05
 -25.016  0.116E-05  0.116E-05
 -25.006  0.115E-05  0.115E-05
 -24.996  0.115E-05  0.115E-05
 -24.986  0.114E-05  0.114E-05
 -24.976  0.113E-05  0.113E-05
 -24.966  0.112E-05  0.112E-05
 -24.956  0.112E-05  0.112E-05
 -24.946  0.111E-05  0.111E-05
 -24.936  0.110E-05  0.110E-05
 -24.926  0.108E-05  0.108E-05
 -24.916  0.107E-05  0.107E-05
 -24.906  0.106E-05  0.106E-05
 -24.896  0.105E-05  0.105E-05
 -24.886  0.103E-05  0.103E-05
 -24.876  0.102E-05  0.102E-05
 -24.866  0.100E-05  0.100E-05
 -24.856  0.989E-06  0.989E-06
 -24.846  0.973E-06  0.973E-06
 -24.836  0.956E-06  0.956E-06
 -24.826  0.940E-06  0.940E-06
 -24.816  0.922E-06  0.922E-06
 -24.806  0.904E-06  0.904E-06
 -24.796  0.886E-06  0.886E-06
 -24.786  0.868E-06  0.868E-06
 -24.776  0.849E-06  0.849E-06
 -24.766  0.830E-06  0.830E-06
 -24.756  0.810E-06  0.810E-06
 -24.746  0.791E-06  0.791E-06
 -24.736  0.771E-06  0.771E-06
 -24.726  0.751E-06  0.751E-06
 -24.716  0.730E-06  0.730E-06
 -24.706  0.710E-06  0.710E-06
 -24.696  0.690E-06  0.690E-06
 -24.686  0.669E-06  0.669E-06
 -24.676  0.649E-06  0.649E-06
 -24.666  0.628E-06  0.628E-06
 -24.656  0.608E-06  0.608E-06
 -24.646  0.587E-06  0.587E-06
 -24.636  0.567E-06  0.567E-06
 -24.626  0.546E-06  0.546E-06
 -24.616  0.526E-06  0.526E-06
 -24.606  0.506E-06  0.506E-06
 -24.596  0.486E-06  0.486E-06
 -24.586  0.467E-06  0.467E-06
 -24.576  0.447E-06  0.447E-06
 -24.566  0.428E-06  0.428E-06
 -24.556  0.409E-06  0.409E-06
 -24.546  0.390E-06  0.390E-06
 -24.536  0.372E-06  0.372E-06
 -24.526  0.353E-06  0.353E-06
 -24.516  0.336E-06  0.336E-06
 -24.506  0.318E-06  0.318E-06
 -24.496  0.301E-06  0.301E-06
 -24.486  0.284E-06  0.284E-06
 -24.476  0.268E-06  0.268E-06
 -24.466  0.252E-06  0.252E-06
 -24.456  0.236E-06  0.236E-06
 -24.446  0.221E-06  0.221E-06
 -24.436  0.206E-06  0.206E-06
 -24.426  0.192E-06  0.192E-06
 -24.416  0.178E-06  0.178E-06
 -24.406  0.164E-06  0.164E-06
 -24.396  0.151E-06  0.151E-06
 -24.386  0.138E-06  0.138E-06
 -24.376  0.126E-06  0.126E-06
 -24.366  0.114E-06  0.114E-06
 -24.356  0.103E-06  0.103E-06
 -24.346  0.920E-07  0.920E-07
 -24.336  0.815E-07  0.815E-07
 -24.326  0.714E-07  0.714E-07
 -24.316  0.618E-07  0.618E-07
 -24.306  0.525E-07  0.525E-07
 -24.296  0.437E-07  0.437E-07
 -24.286  0.353E-07  0.353E-07
 -24.276  0.273E-07  0.273E-07
 -24.266  0.197E-07  0.197E-07
 -24.256  0.126E-07  0.126E-07
 -24.246  0.576E-08  0.576E-08
 -24.236 -0.650E-09 -0.650E-09
 -24.226 -0.669E-08 -0.669E-08
 -24.216 -0.124E-07 -0.124E-07
 -24.206 -0.177E-07 -0.177E-07
 -24.196 -0.226E-07 -0.226E-07
 -24.186 -0.273E-07 -0.273E-07
 -24.176 -0.316E-07 -0.316E-07
 -24.166 -0.355E-07 -0.355E-07
 -24.156 -0.392E-07 -0.392E-07
 -24.146 -0.426E-07 -0.426E-07
 -24.136 -0.456E-07 -0.456E-07
 -24.126 -0.484E-07 -0.484E-07
 -24.116 -0.509E-07 -0.509E-07
 -24.106 -0.532E-07 -0.532E-07
 -24.096 -0.552E-07 -0.552E-07
 -24.086 -0.570E-07 -0.570E-07
 -24.076 -0.586E-07 -0.586E-07
 -24.066 -0.599E-07 -0.599E-07
 -24.056 -0.610E-07 -0.610E-07
 -24.046 -0.619E-07 -0.619E-07
 -24.036 -0.627E-07 -0.627E-07
 -24.026 -0.633E-07 -0.633E-07
 -24.016 -0.637E-07 -0.637E-07
 -24.006 -0.639E-07 -0.639E-07
 -23.996 -0.640E-07 -0.640E-07
 -23.986 -0.639E-07 -0.639E-07
 -23.976 -0.638E-07 -0.638E-07
 -23.966 -0.635E-07 -0.635E-07
 -23.956 -0.630E-07 -0.630E-07
 -23.946 -0.625E-07 -0.625E-07
 -23.936 -0.619E-07 -0.619E-07
 -23.926 -0.612E-07 -0.612E-07
 -23.916 -0.604E-07 -0.604E-07
 -23.906 -0.595E-07 -0.595E-07
 -23.896 -0.586E-07 -0.586E-07
 -23.886 -0.576E-07 -0.576E-07
 -23.876 -0.566E-07 -0.566E-07
 -23.866 -0.555E-07 -0.555E-07
 -23.856 -0.543E-07 -0.543E-07
 -23.846 -0.532E-07 -0.532E-07
 -23.836 -0.519E-07 -0.519E-07
 -23.826 -0.507E-07 -0.507E-07
 -23.816 -0.494E-07 -0.494E-07
 -23.806 -0.482E-07 -0.482E-07
 -23.796 -0.469E-07 -0.469E-07
 -23.786 -0.456E-07 -0.456E-07
 -23.776 -0.443E-07 -0.443E-07
 -23.766 -0.430E-07 -0.430E-07
 -23.756 -0.417E-07 -0.417E-07
 -23.746 -0.404E-07 -0.404E-07
 -23.736 -0.391E-07 -0.391E-07
 -23.726 -0.378E-07 -0.378E-07
 -23.716 -0.365E-07 -0.365E-07
 -23.706 -0.352E-07 -0.352E-07
 -23.696 -0.340E-07 -0.340E-07
 -23.686 -0.328E-07 -0.328E-07
 -23.676 -0.316E-07 -0.316E-07
 -23.666 -0.304E-07 -0.304E-07
 -23.656 -0.292E-07 -0.292E-07
 -23.646 -0.281E-07 -0.281E-07
 -23.636 -0.269E-07 -0.269E-07
 -23.626 -0.259E-07 -0.259E-07
 -23.616 -0.248E-07 -0.248E-07
 -23.606 -0.238E-07 -0.238E-07
 -23.596 -0.227E-07 -0.227E-07
 -23.586 -0.218E-07 -0.218E-07
 -23.576 -0.208E-07 -0.208E-07
 -23.566 -0.199E-07 -0.199E-07
 -23.556 -0.190E-07 -0.190E-07
 -23.546 -0.181E-07 -0.181E-07
 -23.536 -0.173E-07 -0.173E-07
 -23.526 -0.165E-07 -0.165E-07
 -23.516 -0.157E-07 -0.157E-07
 -23.506 -0.149E-07 -0.149E-07
 -23.496 -0.142E-07 -0.142E-07
 -23.486 -0.135E-07 -0.135E-07
 -23.476 -0.128E-07 -0.128E-07
 -23.466 -0.122E-07 -0.122E-07
 -23.456 -0.115E-07 -0.115E-07
 -23.446 -0.110E-07 -0.110E-07
 -23.436 -0.104E-07 -0.104E-07
 -23.426 -0.983E-08 -0.983E-08
 -23.416 -0.930E-08 -0.930E-08
 -23.406 -0.880E-08 -0.880E-08
 -23.396 -0.832E-08 -0.832E-08
 -23.386 -0.786E-08 -0.786E-08
 -23.376 -0.742E-08 -0.742E-08
 -23.366 -0.700E-08 -0.700E-08
 -23.356 -0.661E-08 -0.661E-08
 -23.346 -0.623E-08 -0.623E-08
 -23.336 -0.587E-08 -0.587E-08
 -23.326 -0.552E-08 -0.552E-08
 -23.316 -0.520E-08 -0.520E-08
 -23.306 -0.489E-08 -0.489E-08
 -23.296 -0.459E-08 -0.459E-08
 -23.286 -0.432E-08 -0.432E-08
 -23.276 -0.405E-08 -0.405E-08
 -23.266 -0.380E-08 -0.380E-08
 -23.256 -0.357E-08 -0.357E-08
 -23.246 -0.334E-08 -0.334E-08
 -23.236 -0.313E-08 -0.313E-08
 -23.226 -0.293E-08 -0.293E-08
 -23.216 -0.274E-08 -0.274E-08
 -23.206 -0.257E-08 -0.257E-08
 -23.196 -0.240E-08 -0.240E-08
 -23.186 -0.224E-08 -0.224E-08
 -23.176 -0.209E-08 -0.209E-08
 -23.166 -0.195E-08 -0.195E-08
 -23.156 -0.182E-08 -0.182E-08
 -23.146 -0.170E-08 -0.170E-08
 -23.136 -0.158E-08 -0.158E-08
 -23.126 -0.147E-08 -0.147E-08
 -23.116 -0.137E-08 -0.137E-08
 -23.106 -0.128E-08 -0.128E-08
 -23.096 -0.119E-08 -0.119E-08
 -23.086 -0.110E-08 -0.110E-08
 -23.076 -0.102E-08 -0.102E-08
 -23.066 -0.952E-09 -0.952E-09
 -23.056 -0.883E-09 -0.883E-09
 -23.046 -0.819E-09 -0.819E-09
 -23.036 -0.759E-09 -0.759E-09
 -23.026 -0.704E-09 -0.704E-09
 -23.016 -0.652E-09 -0.652E-09
 -23.006 -0.603E-09 -0.603E-09
 -22.996 -0.558E-09 -0.558E-09
 -22.986 -0.516E-09 -0.516E-09
 -22.976 -0.477E-09 -0.477E-09
 -22.966 -0.441E-09 -0.441E-09
 -22.956 -0.407E-09 -0.407E-09
 -22.946 -0.376E-09 -0.376E-09
 -22.936 -0.347E-09 -0.347E-09
 -22.926 -0.320E-09 -0.320E-09
 -22.916 -0.295E-09 -0.295E-09
 -22.906 -0.272E-09 -0.272E-09
 -22.896 -0.250E-09 -0.250E-09
 -22.886 -0.231E-09 -0.231E-09
 -22.876 -0.213E-09 -0.213E-09
 -22.866 -0.196E-09 -0.196E-09
 -22.856 -0.180E-09 -0.180E-09
 -22.846 -0.166E-09 -0.166E-09
 -22.836 -0.153E-09 -0.153E-09
 -22.826 -0.141E-09 -0.141E-09
 -22.816 -0.130E-09 -0.130E-09
 -22.806 -0.120E-09 -0.120E-09
 -22.796 -0.110E-09 -0.110E-09
 -22.786 -0.102E-09 -0.102E-09
 -22.776 -0.941E-10 -0.941E-10
 -22.766 -0.872E-10 -0.872E-10
 -22.756 -0.808E-10 -0.808E-10
 -22.746 -0.752E-10 -0.752E-10
 -22.736 -0.701E-10 -0.701E-10
 -22.726 -0.655E-10 -0.655E-10
 -22.716 -0.615E-10 -0.615E-10
 -22.706 -0.580E-10 -0.580E-10
 -22.696 -0.549E-10 -0.549E-10
 -22.686 -0.523E-10 -0.523E-10
 -22.676 -0.502E-10 -0.502E-10
 -22.666 -0.484E-10 -0.484E-10
 -22.656 -0.471E-10 -0.471E-10
 -22.646 -0.462E-10 -0.462E-10
 -22.636 -0.456E-10 -0.456E-10
 -22.626 -0.455E-10 -0.455E-10
 -22.616 -0.457E-10 -0.457E-10
 -22.606 -0.463E-10 -0.463E-10
 -22.596 -0.472E-10 -0.472E-10
 -22.586 -0.486E-10 -0.486E-10
 -22.576 -0.503E-10 -0.503E-10
 -22.566 -0.524E-10 -0.524E-10
 -22.556 -0.550E-10 -0.550E-10
 -22.546 -0.580E-10 -0.580E-10
 -22.536 -0.614E-10 -0.614E-10
 -22.526 -0.652E-10 -0.652E-10
 -22.516 -0.696E-10 -0.696E-10
 -22.506 -0.744E-10 -0.744E-10
 -22.496 -0.798E-10 -0.798E-10
 -22.486 -0.857E-10 -0.857E-10
 -22.476 -0.923E-10 -0.923E-10
 -22.466 -0.994E-10 -0.994E-10
 -22.456 -0.107E-09 -0.107E-09
 -22.446 -0.116E-09 -0.116E-09
 -22.436 -0.125E-09 -0.125E-09
 -22.426 -0.135E-09 -0.135E-09
 -22.416 -0.146E-09 -0.146E-09
 -22.406 -0.158E-09 -0.158E-09
 -22.396 -0.170E-09 -0.170E-09
 -22.386 -0.184E-09 -0.184E-09
 -22.376 -0.199E-09 -0.199E-09
 -22.366 -0.215E-09 -0.215E-09
 -22.356 -0.232E-09 -0.232E-09
 -22.346 -0.251E-09 -0.251E-09
 -22.336 -0.271E-09 -0.271E-09
 -22.326 -0.292E-09 -0.292E-09
 -22.316 -0.315E-09 -0.315E-09
 -22.306 -0.339E-09 -0.339E-09
 -22.296 -0.366E-09 -0.366E-09
 -22.286 -0.394E-09 -0.394E-09
 -22.276 -0.424E-09 -0.424E-09
 -22.266 -0.456E-09 -0.456E-09
 -22.256 -0.491E-09 -0.491E-09
 -22.246 -0.528E-09 -0.528E-09
 -22.236 -0.567E-09 -0.567E-09
 -22.226 -0.609E-09 -0.609E-09
 -22.216 -0.654E-09 -0.654E-09
 -22.206 -0.702E-09 -0.702E-09
 -22.196 -0.752E-09 -0.752E-09
 -22.186 -0.806E-09 -0.806E-09
 -22.176 -0.864E-09 -0.864E-09
 -22.166 -0.925E-09 -0.925E-09
 -22.156 -0.990E-09 -0.990E-09
 -22.146 -0.106E-08 -0.106E-08
 -22.136 -0.113E-08 -0.113E-08
 -22.126 -0.121E-08 -0.121E-08
 -22.116 -0.129E-08 -0.129E-08
 -22.106 -0.138E-08 -0.138E-08
 -22.096 -0.147E-08 -0.147E-08
 -22.086 -0.157E-08 -0.157E-08
 -22.076 -0.167E-08 -0.167E-08
 -22.066 -0.178E-08 -0.178E-08
 -22.056 -0.189E-08 -0.189E-08
 -22.046 -0.201E-08 -0.201E-08
 -22.036 -0.214E-08 -0.214E-08
 -22.026 -0.227E-08 -0.227E-08
 -22.016 -0.241E-08 -0.241E-08
 -22.006 -0.256E-08 -0.256E-08
 -21.996 -0.271E-08 -0.271E-08
 -21.986 -0.288E-08 -0.288E-08
 -21.976 -0.305E-08 -0.305E-08
 -21.966 -0.323E-08 -0.323E-08
 -21.956 -0.342E-08 -0.342E-08
 -21.946 -0.361E-08 -0.361E-08
 -21.936 -0.382E-08 -0.382E-08
 -21.926 -0.403E-08 -0.403E-08
 -21.916 -0.426E-08 -0.426E-08
 -21.906 -0.449E-08 -0.449E-08
 -21.896 -0.474E-08 -0.474E-08
 -21.886 -0.499E-08 -0.499E-08
 -21.876 -0.526E-08 -0.526E-08
 -21.866 -0.553E-08 -0.553E-08
 -21.856 -0.582E-08 -0.582E-08
 -21.846 -0.611E-08 -0.611E-08
 -21.836 -0.642E-08 -0.642E-08
 -21.826 -0.674E-08 -0.674E-08
 -21.816 -0.707E-08 -0.707E-08
 -21.806 -0.741E-08 -0.741E-08
 -21.796 -0.777E-08 -0.777E-08
 -21.786 -0.813E-08 -0.813E-08
 -21.776 -0.851E-08 -0.851E-08
 -21.766 -0.890E-08 -0.890E-08
 -21.756 -0.930E-08 -0.930E-08
 -21.746 -0.971E-08 -0.971E-08
 -21.736 -0.101E-07 -0.101E-07
 -21.726 -0.106E-07 -0.106E-07
 -21.716 -0.110E-07 -0.110E-07
 -21.706 -0.115E-07 -0.115E-07
 -21.696 -0.119E-07 -0.119E-07
 -21.686 -0.124E-07 -0.124E-07
 -21.676 -0.129E-07 -0.129E-07
 -21.666 -0.134E-07 -0.134E-07
 -21.656 -0.139E-07 -0.139E-07
 -21.646 -0.144E-07 -0.144E-07
 -21.636 -0.149E-07 -0.149E-07
 -21.626 -0.154E-07 -0.154E-07
 -21.616 -0.159E-07 -0.159E-07
 -21.606 -0.164E-07 -0.164E-07
 -21.596 -0.169E-07 -0.169E-07
 -21.586 -0.175E-07 -0.175E-07
 -21.576 -0.180E-07 -0.180E-07
 -21.566 -0.185E-07 -0.185E-07
 -21.556 -0.190E-07 -0.190E-07
 -21.546 -0.196E-07 -0.196E-07
 -21.536 -0.201E-07 -0.201E-07
 -21.526 -0.206E-07 -0.206E-07
 -21.516 -0.211E-07 -0.211E-07
 -21.506 -0.215E-07 -0.215E-07
 -21.496 -0.220E-07 -0.220E-07
 -21.486 -0.225E-07 -0.225E-07
 -21.476 -0.229E-07 -0.229E-07
 -21.466 -0.233E-07 -0.233E-07
 -21.456 -0.237E-07 -0.237E-07
 -21.446 -0.241E-07 -0.241E-07
 -21.436 -0.244E-07 -0.244E-07
 -21.426 -0.247E-07 -0.247E-07
 -21.416 -0.250E-07 -0.250E-07
 -21.406 -0.252E-07 -0.252E-07
 -21.396 -0.254E-07 -0.254E-07
 -21.386 -0.256E-07 -0.256E-07
 -21.376 -0.257E-07 -0.257E-07
 -21.366 -0.257E-07 -0.257E-07
 -21.356 -0.257E-07 -0.257E-07
 -21.346 -0.257E-07 -0.257E-07
 -21.336 -0.255E-07 -0.255E-07
 -21.326 -0.253E-07 -0.253E-07
 -21.316 -0.251E-07 -0.251E-07
 -21.306 -0.248E-07 -0.248E-07
 -21.296 -0.244E-07 -0.244E-07
 -21.286 -0.239E-07 -0.239E-07
 -21.276 -0.233E-07 -0.233E-07
 -21.266 -0.227E-07 -0.227E-07
 -21.256 -0.219E-07 -0.219E-07
 -21.246 -0.211E-07 -0.211E-07
 -21.236 -0.201E-07 -0.201E-07
 -21.226 -0.191E-07 -0.191E-07
 -21.216 -0.179E-07 -0.179E-07
 -21.206 -0.166E-07 -0.166E-07
 -21.196 -0.152E-07 -0.152E-07
 -21.186 -0.137E-07 -0.137E-07
 -21.176 -0.121E-07 -0.121E-07
 -21.166 -0.103E-07 -0.103E-07
 -21.156 -0.837E-08 -0.837E-08
 -21.146 -0.633E-08 -0.633E-08
 -21.136 -0.414E-08 -0.414E-08
 -21.126 -0.181E-08 -0.181E-08
 -21.116  0.675E-09  0.675E-09
 -21.106  0.331E-08  0.331E-08
 -21.096  0.610E-08  0.610E-08
 -21.086  0.904E-08  0.904E-08
 -21.076  0.121E-07  0.121E-07
 -21.066  0.154E-07  0.154E-07
 -21.056  0.189E-07  0.189E-07
 -21.046  0.225E-07  0.225E-07
 -21.036  0.262E-07  0.262E-07
 -21.026  0.302E-07  0.302E-07
 -21.016  0.343E-07  0.343E-07
 -21.006  0.386E-07  0.386E-07
 -20.996  0.430E-07  0.430E-07
 -20.986  0.477E-07  0.477E-07
 -20.976  0.525E-07  0.525E-07
 -20.966  0.575E-07  0.575E-07
 -20.956  0.626E-07  0.626E-07
 -20.946  0.680E-07  0.680E-07
 -20.936  0.735E-07  0.735E-07
 -20.926  0.791E-07  0.791E-07
 -20.916  0.850E-07  0.850E-07
 -20.906  0.910E-07  0.910E-07
 -20.896  0.972E-07  0.972E-07
 -20.886  0.103E-06  0.103E-06
 -20.876  0.110E-06  0.110E-06
 -20.866  0.117E-06  0.117E-06
 -20.856  0.123E-06  0.123E-06
 -20.846  0.130E-06  0.130E-06
 -20.836  0.137E-06  0.137E-06
 -20.826  0.145E-06  0.145E-06
 -20.816  0.152E-06  0.152E-06
 -20.806  0.159E-06  0.159E-06
 -20.796  0.167E-06  0.167E-06
 -20.786  0.175E-06  0.175E-06
 -20.776  0.182E-06  0.182E-06
 -20.766  0.190E-06  0.190E-06
 -20.756  0.198E-06  0.198E-06
 -20.746  0.206E-06  0.206E-06
 -20.736  0.214E-06  0.214E-06
 -20.726  0.222E-06  0.222E-06
 -20.716  0.230E-06  0.230E-06
 -20.706  0.239E-06  0.239E-06
 -20.696  0.247E-06  0.247E-06
 -20.686  0.255E-06  0.255E-06
 -20.676  0.263E-06  0.263E-06
 -20.666  0.271E-06  0.271E-06
 -20.656  0.280E-06  0.280E-06
 -20.646  0.288E-06  0.288E-06
 -20.636  0.296E-06  0.296E-06
 -20.626  0.304E-06  0.304E-06
 -20.616  0.312E-06  0.312E-06
 -20.606  0.320E-06  0.320E-06
 -20.596  0.328E-06  0.328E-06
 -20.586  0.335E-06  0.335E-06
 -20.576  0.343E-06  0.343E-06
 -20.566  0.350E-06  0.350E-06
 -20.556  0.358E-06  0.358E-06
 -20.546  0.365E-06  0.365E-06
 -20.536  0.372E-06  0.372E-06
 -20.526  0.379E-06  0.379E-06
 -20.516  0.385E-06  0.385E-06
 -20.506  0.392E-06  0.392E-06
 -20.496  0.398E-06  0.398E-06
 -20.486  0.404E-06  0.404E-06
 -20.476  0.410E-06  0.410E-06
 -20.466  0.416E-06  0.416E-06
 -20.456  0.421E-06  0.421E-06
 -20.446  0.426E-06  0.426E-06
 -20.436  0.431E-06  0.431E-06
 -20.426  0.435E-06  0.435E-06
 -20.416  0.440E-06  0.440E-06
 -20.406  0.444E-06  0.444E-06
 -20.396  0.447E-06  0.447E-06
 -20.386  0.451E-06  0.451E-06
 -20.376  0.454E-06  0.454E-06
 -20.366  0.456E-06  0.456E-06
 -20.356  0.459E-06  0.459E-06
 -20.346  0.461E-06  0.461E-06
 -20.336  0.463E-06  0.463E-06
 -20.326  0.464E-06  0.464E-06
 -20.316  0.465E-06  0.465E-06
 -20.306  0.466E-06  0.466E-06
 -20.296  0.466E-06  0.466E-06
 -20.286  0.466E-06  0.466E-06
 -20.276  0.466E-06  0.466E-06
 -20.266  0.466E-06  0.466E-06
 -20.256  0.465E-06  0.465E-06
 -20.246  0.463E-06  0.463E-06
 -20.236  0.462E-06  0.462E-06
 -20.226  0.460E-06  0.460E-06
 -20.216  0.458E-06  0.458E-06
 -20.206  0.455E-06  0.455E-06
 -20.196  0.452E-06  0.452E-06
 -20.186  0.449E-06  0.449E-06
 -20.176  0.445E-06  0.445E-06
 -20.166  0.442E-06  0.442E-06
 -20.156  0.438E-06  0.438E-06
 -20.146  0.433E-06  0.433E-06
 -20.136  0.429E-06  0.429E-06
 -20.126  0.424E-06  0.424E-06
 -20.116  0.419E-06  0.419E-06
 -20.106  0.413E-06  0.413E-06
 -20.096  0.407E-06  0.407E-06
 -20.086  0.402E-06  0.402E-06
 -20.076  0.395E-06  0.395E-06
 -20.066  0.389E-06  0.389E-06
 -20.056  0.383E-06  0.383E-06
 -20.046  0.376E-06  0.376E-06
 -20.036  0.369E-06  0.369E-06
 -20.026  0.362E-06  0.362E-06
 -20.016  0.355E-06  0.355E-06
 -20.006  0.348E-06  0.348E-06
 -19.996  0.340E-06  0.340E-06
 -19.986  0.333E-06  0.333E-06
 -19.976  0.325E-06  0.325E-06
 -19.966  0.317E-06  0.317E-06
 -19.956  0.310E-06  0.310E-06
 -19.946  0.302E-06  0.302E-06
 -19.936  0.294E-06  0.294E-06
 -19.926  0.286E-06  0.286E-06
 -19.916  0.278E-06  0.278E-06
 -19.906  0.270E-06  0.270E-06
 -19.896  0.262E-06  0.262E-06
 -19.886  0.254E-06  0.254E-06
 -19.876  0.246E-06  0.246E-06
 -19.866  0.239E-06  0.239E-06
 -19.856  0.231E-06  0.231E-06
 -19.846  0.223E-06  0.223E-06
 -19.836  0.215E-06  0.215E-06
 -19.826  0.208E-06  0.208E-06
 -19.816  0.200E-06  0.200E-06
 -19.806  0.193E-06  0.193E-06
 -19.796  0.185E-06  0.185E-06
 -19.786  0.178E-06  0.178E-06
 -19.776  0.171E-06  0.171E-06
 -19.766  0.164E-06  0.164E-06
 -19.756  0.158E-06  0.158E-06
 -19.746  0.151E-06  0.151E-06
 -19.736  0.145E-06  0.145E-06
 -19.726  0.138E-06  0.138E-06
 -19.716  0.132E-06  0.132E-06
 -19.706  0.126E-06  0.126E-06
 -19.696  0.120E-06  0.120E-06
 -19.686  0.115E-06  0.115E-06
 -19.676  0.110E-06  0.110E-06
 -19.666  0.104E-06  0.104E-06
 -19.656  0.993E-07  0.993E-07
 -19.646  0.945E-07  0.945E-07
 -19.636  0.899E-07  0.899E-07
 -19.626  0.855E-07  0.855E-07
 -19.616  0.813E-07  0.813E-07
 -19.606  0.773E-07  0.773E-07
 -19.596  0.736E-07  0.736E-07
 -19.586  0.700E-07  0.700E-07
 -19.576  0.666E-07  0.666E-07
 -19.566  0.634E-07  0.634E-07
 -19.556  0.604E-07  0.604E-07
 -19.546  0.577E-07  0.577E-07
 -19.536  0.551E-07  0.551E-07
 -19.526  0.527E-07  0.527E-07
 -19.516  0.505E-07  0.505E-07
 -19.506  0.485E-07  0.485E-07
 -19.496  0.467E-07  0.467E-07
 -19.486  0.450E-07  0.450E-07
 -19.476  0.435E-07  0.435E-07
 -19.466  0.422E-07  0.422E-07
 -19.456  0.411E-07  0.411E-07
 -19.446  0.402E-07  0.402E-07
 -19.436  0.393E-07  0.393E-07
 -19.426  0.387E-07  0.387E-07
 -19.416  0.382E-07  0.382E-07
 -19.406  0.378E-07  0.378E-07
 -19.396  0.376E-07  0.376E-07
 -19.386  0.375E-07  0.375E-07
 -19.376  0.375E-07  0.375E-07
 -19.366  0.376E-07  0.376E-07
 -19.356  0.379E-07  0.379E-07
 -19.346  0.382E-07  0.382E-07
 -19.336  0.387E-07  0.387E-07
 -19.326  0.392E-07  0.392E-07
 -19.316  0.398E-07  0.398E-07
 -19.306  0.405E-07  0.405E-07
 -19.296  0.413E-07  0.413E-07
 -19.286  0.422E-07  0.422E-07
 -19.276  0.431E-07  0.431E-07
 -19.266  0.440E-07  0.440E-07
 -19.256  0.450E-07  0.450E-07
 -19.246  0.461E-07  0.461E-07
 -19.236  0.472E-07  0.472E-07
 -19.226  0.483E-07  0.483E-07
 -19.216  0.494E-07  0.494E-07
 -19.206  0.505E-07  0.505E-07
 -19.196  0.517E-07  0.517E-07
 -19.186  0.529E-07  0.529E-07
 -19.176  0.540E-07  0.540E-07
 -19.166  0.552E-07  0.552E-07
 -19.156  0.564E-07  0.564E-07
 -19.146  0.575E-07  0.575E-07
 -19.136  0.586E-07  0.586E-07
 -19.126  0.597E-07  0.597E-07
 -19.116  0.608E-07  0.608E-07
 -19.106  0.618E-07  0.618E-07
 -19.096  0.628E-07  0.628E-07
 -19.086  0.638E-07  0.638E-07
 -19.076  0.647E-07  0.647E-07
 -19.066  0.656E-07  0.656E-07
 -19.056  0.665E-07  0.665E-07
 -19.046  0.672E-07  0.672E-07
 -19.036  0.680E-07  0.680E-07
 -19.026  0.687E-07  0.687E-07
 -19.016  0.693E-07  0.693E-07
 -19.006  0.698E-07  0.698E-07
 -18.996  0.703E-07  0.703E-07
 -18.986  0.708E-07  0.708E-07
 -18.976  0.711E-07  0.711E-07
 -18.966  0.715E-07  0.715E-07
 -18.956  0.717E-07  0.717E-07
 -18.946  0.719E-07  0.719E-07
 -18.936  0.720E-07  0.720E-07
 -18.926  0.720E-07  0.720E-07
 -18.916  0.720E-07  0.720E-07
 -18.906  0.719E-07  0.719E-07
 -18.896  0.718E-07  0.718E-07
 -18.886  0.716E-07  0.716E-07
 -18.876  0.713E-07  0.713E-07
 -18.866  0.709E-07  0.709E-07
 -18.856  0.705E-07  0.705E-07
 -18.846  0.700E-07  0.700E-07
 -18.836  0.695E-07  0.695E-07
 -18.826  0.689E-07  0.689E-07
 -18.816  0.683E-07  0.683E-07
 -18.806  0.675E-07  0.675E-07
 -18.796  0.668E-07  0.668E-07
 -18.786  0.660E-07  0.660E-07
 -18.776  0.651E-07  0.651E-07
 -18.766  0.642E-07  0.642E-07
 -18.756  0.632E-07  0.632E-07
 -18.746  0.622E-07  0.622E-07
 -18.736  0.612E-07  0.612E-07
 -18.726  0.601E-07  0.601E-07
 -18.716  0.589E-07  0.589E-07
 -18.706  0.578E-07  0.578E-07
 -18.696  0.566E-07  0.566E-07
 -18.686  0.554E-07  0.554E-07
 -18.676  0.541E-07  0.541E-07
 -18.666  0.528E-07  0.528E-07
 -18.656  0.515E-07  0.515E-07
 -18.646  0.502E-07  0.502E-07
 -18.636  0.488E-07  0.488E-07
 -18.626  0.475E-07  0.475E-07
 -18.616  0.461E-07  0.461E-07
 -18.606  0.447E-07  0.447E-07
 -18.596  0.433E-07  0.433E-07
 -18.586  0.419E-07  0.419E-07
 -18.576  0.405E-07  0.405E-07
 -18.566  0.390E-07  0.390E-07
 -18.556  0.376E-07  0.376E-07
 -18.546  0.362E-07  0.362E-07
 -18.536  0.348E-07  0.348E-07
 -18.526  0.334E-07  0.334E-07
 -18.516  0.320E-07  0.320E-07
 -18.506  0.306E-07  0.306E-07
 -18.496  0.292E-07  0.292E-07
 -18.486  0.278E-07  0.278E-07
 -18.476  0.265E-07  0.265E-07
 -18.466  0.251E-07  0.251E-07
 -18.456  0.238E-07  0.238E-07
 -18.446  0.225E-07  0.225E-07
 -18.436  0.212E-07  0.212E-07
 -18.426  0.199E-07  0.199E-07
 -18.416  0.187E-07  0.187E-07
 -18.406  0.174E-07  0.174E-07
 -18.396  0.162E-07  0.162E-07
 -18.386  0.150E-07  0.150E-07
 -18.376  0.139E-07  0.139E-07
 -18.366  0.127E-07  0.127E-07
 -18.356  0.116E-07  0.116E-07
 -18.346  0.106E-07  0.106E-07
 -18.336  0.949E-08  0.949E-08
 -18.326  0.846E-08  0.846E-08
 -18.316  0.746E-08  0.746E-08
 -18.306  0.649E-08  0.649E-08
 -18.296  0.554E-08  0.554E-08
 -18.286  0.462E-08  0.462E-08
 -18.276  0.373E-08  0.373E-08
 -18.266  0.286E-08  0.286E-08
 -18.256  0.202E-08  0.202E-08
 -18.246  0.121E-08  0.121E-08
 -18.236  0.431E-09  0.431E-09
 -18.226 -0.326E-09 -0.326E-09
 -18.216 -0.106E-08 -0.106E-08
 -18.206 -0.176E-08 -0.176E-08
 -18.196 -0.244E-08 -0.244E-08
 -18.186 -0.309E-08 -0.309E-08
 -18.176 -0.372E-08 -0.372E-08
 -18.166 -0.432E-08 -0.432E-08
 -18.156 -0.490E-08 -0.490E-08
 -18.146 -0.545E-08 -0.545E-08
 -18.136 -0.599E-08 -0.599E-08
 -18.126 -0.650E-08 -0.650E-08
 -18.116 -0.698E-08 -0.698E-08
 -18.106 -0.745E-08 -0.745E-08
 -18.096 -0.790E-08 -0.790E-08
 -18.086 -0.833E-08 -0.833E-08
 -18.076 -0.874E-08 -0.874E-08
 -18.066 -0.913E-08 -0.913E-08
 -18.056 -0.950E-08 -0.950E-08
 -18.046 -0.985E-08 -0.985E-08
 -18.036 -0.102E-07 -0.102E-07
 -18.026 -0.105E-07 -0.105E-07
 -18.016 -0.108E-07 -0.108E-07
 -18.006 -0.111E-07 -0.111E-07
 -17.996 -0.114E-07 -0.114E-07
 -17.986 -0.117E-07 -0.117E-07
 -17.976 -0.119E-07 -0.119E-07
 -17.966 -0.122E-07 -0.122E-07
 -17.956 -0.124E-07 -0.124E-07
 -17.946 -0.126E-07 -0.126E-07
 -17.936 -0.128E-07 -0.128E-07
 -17.926 -0.130E-07 -0.130E-07
 -17.916 -0.132E-07 -0.132E-07
 -17.906 -0.134E-07 -0.134E-07
 -17.896 -0.135E-07 -0.135E-07
 -17.886 -0.137E-07 -0.137E-07
 -17.876 -0.139E-07 -0.139E-07
 -17.866 -0.140E-07 -0.140E-07
 -17.856 -0.142E-07 -0.142E-07
 -17.846 -0.143E-07 -0.143E-07
 -17.836 -0.144E-07 -0.144E-07
 -17.826 -0.146E-07 -0.146E-07
 -17.816 -0.147E-07 -0.147E-07
 -17.806 -0.148E-07 -0.148E-07
 -17.796 -0.149E-07 -0.149E-07
 -17.786 -0.150E-07 -0.150E-07
 -17.776 -0.151E-07 -0.151E-07
 -17.766 -0.153E-07 -0.153E-07
 -17.756 -0.154E-07 -0.154E-07
 -17.746 -0.155E-07 -0.155E-07
 -17.736 -0.156E-07 -0.156E-07
 -17.726 -0.157E-07 -0.157E-07
 -17.716 -0.158E-07 -0.158E-07
 -17.706 -0.158E-07 -0.158E-07
 -17.696 -0.159E-07 -0.159E-07
 -17.686 -0.160E-07 -0.160E-07
 -17.676 -0.161E-07 -0.161E-07
 -17.666 -0.162E-07 -0.162E-07
 -17.656 -0.163E-07 -0.163E-07
 -17.646 -0.164E-07 -0.164E-07
 -17.636 -0.165E-07 -0.165E-07
 -17.626 -0.166E-07 -0.166E-07
 -17.616 -0.167E-07 -0.167E-07
 -17.606 -0.167E-07 -0.167E-07
 -17.596 -0.168E-07 -0.168E-07
 -17.586 -0.169E-07 -0.169E-07
 -17.576 -0.170E-07 -0.170E-07
 -17.566 -0.171E-07 -0.171E-07
 -17.556 -0.172E-07 -0.172E-07
 -17.546 -0.172E-07 -0.172E-07
 -17.536 -0.173E-07 -0.173E-07
 -17.526 -0.174E-07 -0.174E-07
 -17.516 -0.175E-07 -0.175E-07
 -17.506 -0.175E-07 -0.175E-07
 -17.496 -0.176E-07 -0.176E-07
 -17.486 -0.176E-07 -0.176E-07
 -17.476 -0.177E-07 -0.177E-07
 -17.466 -0.177E-07 -0.177E-07
 -17.456 -0.177E-07 -0.177E-07
 -17.446 -0.178E-07 -0.178E-07
 -17.436 -0.178E-07 -0.178E-07
 -17.426 -0.178E-07 -0.178E-07
 -17.416 -0.177E-07 -0.177E-07
 -17.406 -0.177E-07 -0.177E-07
 -17.396 -0.177E-07 -0.177E-07
 -17.386 -0.176E-07 -0.176E-07
 -17.376 -0.175E-07 -0.175E-07
 -17.366 -0.173E-07 -0.173E-07
 -17.356 -0.172E-07 -0.172E-07
 -17.346 -0.170E-07 -0.170E-07
 -17.336 -0.168E-07 -0.168E-07
 -17.326 -0.165E-07 -0.165E-07
 -17.316 -0.162E-07 -0.162E-07
 -17.306 -0.159E-07 -0.159E-07
 -17.296 -0.155E-07 -0.155E-07
 -17.286 -0.150E-07 -0.150E-07
 -17.276 -0.145E-07 -0.145E-07
 -17.266 -0.139E-07 -0.139E-07
 -17.256 -0.133E-07 -0.133E-07
 -17.246 -0.126E-07 -0.126E-07
 -17.236 -0.118E-07 -0.118E-07
 -17.226 -0.109E-07 -0.109E-07
 -17.216 -0.992E-08 -0.992E-08
 -17.206 -0.886E-08 -0.886E-08
 -17.196 -0.769E-08 -0.769E-08
 -17.186 -0.642E-08 -0.642E-08
 -17.176 -0.503E-08 -0.503E-08
 -17.166 -0.351E-08 -0.351E-08
 -17.156 -0.187E-08 -0.187E-08
 -17.146 -0.890E-10 -0.890E-10
 -17.136  0.184E-08  0.184E-08
 -17.126  0.392E-08  0.392E-08
 -17.116  0.616E-08  0.616E-08
 -17.106  0.857E-08  0.857E-08
 -17.096  0.112E-07  0.112E-07
 -17.086  0.139E-07  0.139E-07
 -17.076  0.169E-07  0.169E-07
 -17.066  0.201E-07  0.201E-07
 -17.056  0.235E-07  0.235E-07
 -17.046  0.271E-07  0.271E-07
 -17.036  0.309E-07  0.309E-07
 -17.026  0.350E-07  0.350E-07
 -17.016  0.394E-07  0.394E-07
 -17.006  0.440E-07  0.440E-07
 -16.996  0.488E-07  0.488E-07
 -16.986  0.540E-07  0.540E-07
 -16.976  0.594E-07  0.594E-07
 -16.966  0.651E-07  0.651E-07
 -16.956  0.712E-07  0.712E-07
 -16.946  0.775E-07  0.775E-07
 -16.936  0.842E-07  0.842E-07
 -16.926  0.911E-07  0.911E-07
 -16.916  0.985E-07  0.985E-07
 -16.906  0.106E-06  0.106E-06
 -16.896  0.114E-06  0.114E-06
 -16.886  0.123E-06  0.123E-06
 -16.876  0.131E-06  0.131E-06
 -16.866  0.140E-06  0.140E-06
 -16.856  0.150E-06  0.150E-06
 -16.846  0.160E-06  0.160E-06
 -16.836  0.170E-06  0.170E-06
 -16.826  0.181E-06  0.181E-06
 -16.816  0.192E-06  0.192E-06
 -16.806  0.203E-06  0.203E-06
 -16.796  0.215E-06  0.215E-06
 -16.786  0.227E-06  0.227E-06
 -16.776  0.240E-06  0.240E-06
 -16.766  0.253E-06  0.253E-06
 -16.756  0.266E-06  0.266E-06
 -16.746  0.280E-06  0.280E-06
 -16.736  0.294E-06  0.294E-06
 -16.726  0.308E-06  0.308E-06
 -16.716  0.323E-06  0.323E-06
 -16.706  0.338E-06  0.338E-06
 -16.696  0.354E-06  0.354E-06
 -16.686  0.370E-06  0.370E-06
 -16.676  0.386E-06  0.386E-06
 -16.666  0.403E-06  0.403E-06
 -16.656  0.420E-06  0.420E-06
 -16.646  0.437E-06  0.437E-06
 -16.636  0.455E-06  0.455E-06
 -16.626  0.473E-06  0.473E-06
 -16.616  0.491E-06  0.491E-06
 -16.606  0.509E-06  0.509E-06
 -16.596  0.528E-06  0.528E-06
 -16.586  0.546E-06  0.546E-06
 -16.576  0.566E-06  0.566E-06
 -16.566  0.585E-06  0.585E-06
 -16.556  0.604E-06  0.604E-06
 -16.546  0.624E-06  0.624E-06
 -16.536  0.643E-06  0.643E-06
 -16.526  0.663E-06  0.663E-06
 -16.516  0.683E-06  0.683E-06
 -16.506  0.702E-06  0.702E-06
 -16.496  0.722E-06  0.722E-06
 -16.486  0.742E-06  0.742E-06
 -16.476  0.762E-06  0.762E-06
 -16.466  0.781E-06  0.781E-06
 -16.456  0.801E-06  0.801E-06
 -16.446  0.820E-06  0.820E-06
 -16.436  0.840E-06  0.840E-06
 -16.426  0.859E-06  0.859E-06
 -16.416  0.878E-06  0.878E-06
 -16.406  0.896E-06  0.896E-06
 -16.396  0.915E-06  0.915E-06
 -16.386  0.933E-06  0.933E-06
 -16.376  0.951E-06  0.951E-06
 -16.366  0.968E-06  0.968E-06
 -16.356  0.985E-06  0.985E-06
 -16.346  0.100E-05  0.100E-05
 -16.336  0.102E-05  0.102E-05
 -16.326  0.103E-05  0.103E-05
 -16.316  0.105E-05  0.105E-05
 -16.306  0.106E-05  0.106E-05
 -16.296  0.108E-05  0.108E-05
 -16.286  0.109E-05  0.109E-05
 -16.276  0.110E-05  0.110E-05
 -16.266  0.112E-05  0.112E-05
 -16.256  0.113E-05  0.113E-05
 -16.246  0.114E-05  0.114E-05
 -16.236  0.115E-05  0.115E-05
 -16.226  0.116E-05  0.116E-05
 -16.216  0.117E-05  0.117E-05
 -16.206  0.118E-05  0.118E-05
 -16.196  0.118E-05  0.118E-05
 -16.186  0.119E-05  0.119E-05
 -16.176  0.120E-05  0.120E-05
 -16.166  0.120E-05  0.120E-05
 -16.156  0.121E-05  0.121E-05
 -16.146  0.121E-05  0.121E-05
 -16.136  0.121E-05  0.121E-05
 -16.126  0.121E-05  0.121E-05
 -16.116  0.122E-05  0.122E-05
 -16.106  0.122E-05  0.122E-05
 -16.096  0.122E-05  0.122E-05
 -16.086  0.121E-05  0.121E-05
 -16.076  0.121E-05  0.121E-05
 -16.066  0.121E-05  0.121E-05
 -16.056  0.120E-05  0.120E-05
 -16.046  0.120E-05  0.120E-05
 -16.036  0.119E-05  0.119E-05
 -16.026  0.119E-05  0.119E-05
 -16.016  0.118E-05  0.118E-05
 -16.006  0.117E-05  0.117E-05
 -15.996  0.116E-05  0.116E-05
 -15.986  0.115E-05  0.115E-05
 -15.976  0.114E-05  0.114E-05
 -15.966  0.113E-05  0.113E-05
 -15.956  0.112E-05  0.112E-05
 -15.946  0.111E-05  0.111E-05
 -15.936  0.109E-05  0.109E-05
 -15.926  0.108E-05  0.108E-05
 -15.916  0.107E-05  0.107E-05
 -15.906  0.105E-05  0.105E-05
 -15.896  0.103E-05  0.103E-05
 -15.886  0.102E-05  0.102E-05
 -15.876  0.100E-05  0.100E-05
 -15.866  0.985E-06  0.985E-06
 -15.856  0.967E-06  0.967E-06
 -15.846  0.949E-06  0.949E-06
 -15.836  0.930E-06  0.930E-06
 -15.826  0.911E-06  0.911E-06
 -15.816  0.892E-06  0.892E-06
 -15.806  0.872E-06  0.872E-06
 -15.796  0.852E-06  0.852E-06
 -15.786  0.832E-06  0.832E-06
 -15.776  0.811E-06  0.811E-06
 -15.766  0.791E-06  0.791E-06
 -15.756  0.770E-06  0.770E-06
 -15.746  0.749E-06  0.749E-06
 -15.736  0.728E-06  0.728E-06
 -15.726  0.706E-06  0.706E-06
 -15.716  0.685E-06  0.685E-06
 -15.706  0.664E-06  0.664E-06
 -15.696  0.642E-06  0.642E-06
 -15.686  0.621E-06  0.621E-06
 -15.676  0.600E-06  0.600E-06
 -15.666  0.579E-06  0.579E-06
 -15.656  0.557E-06  0.557E-06
 -15.646  0.536E-06  0.536E-06
 -15.636  0.515E-06  0.515E-06
 -15.626  0.495E-06  0.495E-06
 -15.616  0.474E-06  0.474E-06
 -15.606  0.454E-06  0.454E-06
 -15.596  0.434E-06  0.434E-06
 -15.586  0.414E-06  0.414E-06
 -15.576  0.394E-06  0.394E-06
 -15.566  0.375E-06  0.375E-06
 -15.556  0.356E-06  0.356E-06
 -15.546  0.338E-06  0.338E-06
 -15.536  0.319E-06  0.319E-06
 -15.526  0.301E-06  0.301E-06
 -15.516  0.284E-06  0.284E-06
 -15.506  0.266E-06  0.266E-06
 -15.496  0.249E-06  0.249E-06
 -15.486  0.233E-06  0.233E-06
 -15.476  0.217E-06  0.217E-06
 -15.466  0.201E-06  0.201E-06
 -15.456  0.186E-06  0.186E-06
 -15.446  0.171E-06  0.171E-06
 -15.436  0.156E-06  0.156E-06
 -15.426  0.142E-06  0.142E-06
 -15.416  0.129E-06  0.129E-06
 -15.406  0.115E-06  0.115E-06
 -15.396  0.102E-06  0.102E-06
 -15.386  0.900E-07  0.900E-07
 -15.376  0.780E-07  0.780E-07
 -15.366  0.664E-07  0.664E-07
 -15.356  0.552E-07  0.552E-07
 -15.346  0.444E-07  0.444E-07
 -15.336  0.340E-07  0.340E-07
 -15.326  0.240E-07  0.240E-07
 -15.316  0.144E-07  0.144E-07
 -15.306  0.517E-08  0.517E-08
 -15.296 -0.369E-08 -0.369E-08
 -15.286 -0.122E-07 -0.122E-07
 -15.276 -0.203E-07 -0.203E-07
 -15.266 -0.281E-07 -0.281E-07
 -15.256 -0.356E-07 -0.356E-07
 -15.246 -0.427E-07 -0.427E-07
 -15.236 -0.496E-07 -0.496E-07
 -15.226 -0.561E-07 -0.561E-07
 -15.216 -0.623E-07 -0.623E-07
 -15.206 -0.682E-07 -0.682E-07
 -15.196 -0.739E-07 -0.739E-07
 -15.186 -0.792E-07 -0.792E-07
 -15.176 -0.844E-07 -0.844E-07
 -15.166 -0.893E-07 -0.893E-07
 -15.156 -0.939E-07 -0.939E-07
 -15.146 -0.983E-07 -0.983E-07
 -15.136 -0.103E-06 -0.103E-06
 -15.126 -0.107E-06 -0.107E-06
 -15.116 -0.110E-06 -0.110E-06
 -15.106 -0.114E-06 -0.114E-06
 -15.096 -0.118E-06 -0.118E-06
 -15.086 -0.121E-06 -0.121E-06
 -15.076 -0.124E-06 -0.124E-06
 -15.066 -0.127E-06 -0.127E-06
 -15.056 -0.130E-06 -0.130E-06
 -15.046 -0.133E-06 -0.133E-06
 -15.036 -0.135E-06 -0.135E-06
 -15.026 -0.138E-06 -0.138E-06
 -15.016 -0.140E-06 -0.140E-06
 -15.006 -0.143E-06 -0.143E-06
 -14.996 -0.145E-06 -0.145E-06
 -14.986 -0.147E-06 -0.147E-06
 -14.976 -0.149E-06 -0.149E-06
 -14.966 -0.151E-06 -0.151E-06
 -14.956 -0.153E-06 -0.153E-06
 -14.946 -0.155E-06 -0.155E-06
 -14.936 -0.157E-06 -0.157E-06
 -14.926 -0.158E-06 -0.158E-06
 -14.916 -0.160E-06 -0.160E-06
 -14.906 -0.162E-06 -0.162E-06
 -14.896 -0.163E-06 -0.163E-06
 -14.886 -0.165E-06 -0.165E-06
 -14.876 -0.166E-06 -0.166E-06
 -14.866 -0.168E-06 -0.168E-06
 -14.856 -0.169E-06 -0.169E-06
 -14.846 -0.170E-06 -0.170E-06
 -14.836 -0.171E-06 -0.171E-06
 -14.826 -0.172E-06 -0.172E-06
 -14.816 -0.173E-06 -0.173E-06
 -14.806 -0.174E-06 -0.174E-06
 -14.796 -0.175E-06 -0.175E-06
 -14.786 -0.176E-06 -0.176E-06
 -14.776 -0.177E-06 -0.177E-06
 -14.766 -0.177E-06 -0.177E-06
 -14.756 -0.178E-06 -0.178E-06
 -14.746 -0.178E-06 -0.178E-06
 -14.736 -0.178E-06 -0.178E-06
 -14.726 -0.178E-06 -0.178E-06
 -14.716 -0.178E-06 -0.178E-06
 -14.706 -0.177E-06 -0.177E-06
 -14.696 -0.177E-06 -0.177E-06
 -14.686 -0.176E-06 -0.176E-06
 -14.676 -0.175E-06 -0.175E-06
 -14.666 -0.174E-06 -0.174E-06
 -14.656 -0.172E-06 -0.172E-06
 -14.646 -0.171E-06 -0.171E-06
 -14.636 -0.169E-06 -0.169E-06
 -14.626 -0.166E-06 -0.166E-06
 -14.616 -0.164E-06 -0.164E-06
 -14.606 -0.161E-06 -0.161E-06
 -14.596 -0.158E-06 -0.158E-06
 -14.586 -0.154E-06 -0.154E-06
 -14.576 -0.150E-06 -0.150E-06
 -14.566 -0.146E-06 -0.146E-06
 -14.556 -0.141E-06 -0.141E-06
 -14.546 -0.136E-06 -0.136E-06
 -14.536 -0.130E-06 -0.130E-06
 -14.526 -0.124E-06 -0.124E-06
 -14.516 -0.117E-06 -0.117E-06
 -14.506 -0.110E-06 -0.110E-06
 -14.496 -0.103E-06 -0.103E-06
 -14.486 -0.946E-07 -0.946E-07
 -14.476 -0.859E-07 -0.859E-07
 -14.466 -0.766E-07 -0.766E-07
 -14.456 -0.667E-07 -0.667E-07
 -14.446 -0.562E-07 -0.562E-07
 -14.436 -0.451E-07 -0.451E-07
 -14.426 -0.333E-07 -0.333E-07
 -14.416 -0.208E-07 -0.208E-07
 -14.406 -0.768E-08 -0.768E-08
 -14.396  0.619E-08  0.619E-08
 -14.386  0.208E-07  0.208E-07
 -14.376  0.361E-07  0.361E-07
 -14.366  0.522E-07  0.522E-07
 -14.356  0.691E-07  0.691E-07
 -14.346  0.868E-07  0.868E-07
 -14.336  0.105E-06  0.105E-06
 -14.326  0.125E-06  0.125E-06
 -14.316  0.145E-06  0.145E-06
 -14.306  0.166E-06  0.166E-06
 -14.296  0.188E-06  0.188E-06
 -14.286  0.210E-06  0.210E-06
 -14.276  0.234E-06  0.234E-06
 -14.266  0.259E-06  0.259E-06
 -14.256  0.284E-06  0.284E-06
 -14.246  0.310E-06  0.310E-06
 -14.236  0.338E-06  0.338E-06
 -14.226  0.366E-06  0.366E-06
 -14.216  0.395E-06  0.395E-06
 -14.206  0.425E-06  0.425E-06
 -14.196  0.457E-06  0.457E-06
 -14.186  0.489E-06  0.489E-06
 -14.176  0.522E-06  0.522E-06
 -14.166  0.556E-06  0.556E-06
 -14.156  0.591E-06  0.591E-06
 -14.146  0.627E-06  0.627E-06
 -14.136  0.664E-06  0.664E-06
 -14.126  0.702E-06  0.702E-06
 -14.116  0.741E-06  0.741E-06
 -14.106  0.781E-06  0.781E-06
 -14.096  0.822E-06  0.822E-06
 -14.086  0.864E-06  0.864E-06
 -14.076  0.907E-06  0.907E-06
 -14.066  0.951E-06  0.951E-06
 -14.056  0.995E-06  0.995E-06
 -14.046  0.104E-05  0.104E-05
 -14.036  0.109E-05  0.109E-05
 -14.026  0.114E-05  0.114E-05
 -14.016  0.118E-05  0.118E-05
 -14.006  0.123E-05  0.123E-05
 -13.996  0.128E-05  0.128E-05
 -13.986  0.133E-05  0.133E-05
 -13.976  0.139E-05  0.139E-05
 -13.966  0.144E-05  0.144E-05
 -13.956  0.149E-05  0.149E-05
 -13.946  0.155E-05  0.155E-05
 -13.936  0.160E-05  0.160E-05
 -13.926  0.166E-05  0.166E-05
 -13.916  0.172E-05  0.172E-05
 -13.906  0.177E-05  0.177E-05
 -13.896  0.183E-05  0.183E-05
 -13.886  0.189E-05  0.189E-05
 -13.876  0.195E-05  0.195E-05
 -13.866  0.201E-05  0.201E-05
 -13.856  0.207E-05  0.207E-05
 -13.846  0.213E-05  0.213E-05
 -13.836  0.219E-05  0.219E-05
 -13.826  0.225E-05  0.225E-05
 -13.816  0.231E-05  0.231E-05
 -13.806  0.238E-05  0.238E-05
 -13.796  0.244E-05  0.244E-05
 -13.786  0.250E-05  0.250E-05
 -13.776  0.257E-05  0.257E-05
 -13.766  0.263E-05  0.263E-05
 -13.756  0.270E-05  0.270E-05
 -13.746  0.276E-05  0.276E-05
 -13.736  0.282E-05  0.282E-05
 -13.726  0.289E-05  0.289E-05
 -13.716  0.295E-05  0.295E-05
 -13.706  0.302E-05  0.302E-05
 -13.696  0.308E-05  0.308E-05
 -13.686  0.315E-05  0.315E-05
 -13.676  0.321E-05  0.321E-05
 -13.666  0.327E-05  0.327E-05
 -13.656  0.334E-05  0.334E-05
 -13.646  0.340E-05  0.340E-05
 -13.636  0.347E-05  0.347E-05
 -13.626  0.353E-05  0.353E-05
 -13.616  0.359E-05  0.359E-05
 -13.606  0.365E-05  0.365E-05
 -13.596  0.371E-05  0.371E-05
 -13.586  0.378E-05  0.378E-05
 -13.576  0.384E-05  0.384E-05
 -13.566  0.390E-05  0.390E-05
 -13.556  0.395E-05  0.395E-05
 -13.546  0.401E-05  0.401E-05
 -13.536  0.407E-05  0.407E-05
 -13.526  0.413E-05  0.413E-05
 -13.516  0.418E-05  0.418E-05
 -13.506  0.424E-05  0.424E-05
 -13.496  0.429E-05  0.429E-05
 -13.486  0.435E-05  0.435E-05
 -13.476  0.440E-05  0.440E-05
 -13.466  0.445E-05  0.445E-05
 -13.456  0.450E-05  0.450E-05
 -13.446  0.455E-05  0.455E-05
 -13.436  0.459E-05  0.459E-05
 -13.426  0.464E-05  0.464E-05
 -13.416  0.468E-05  0.468E-05
 -13.406  0.473E-05  0.473E-05
 -13.396  0.477E-05  0.477E-05
 -13.386  0.481E-05  0.481E-05
 -13.376  0.485E-05  0.485E-05
 -13.366  0.488E-05  0.488E-05
 -13.356  0.492E-05  0.492E-05
 -13.346  0.495E-05  0.495E-05
 -13.336  0.498E-05  0.498E-05
 -13.326  0.501E-05  0.501E-05
 -13.316  0.504E-05  0.504E-05
 -13.306  0.507E-05  0.507E-05
 -13.296  0.509E-05  0.509E-05
 -13.286  0.511E-05  0.511E-05
 -13.276  0.514E-05  0.514E-05
 -13.266  0.515E-05  0.515E-05
 -13.256  0.517E-05  0.517E-05
 -13.246  0.519E-05  0.519E-05
 -13.236  0.520E-05  0.520E-05
 -13.226  0.521E-05  0.521E-05
 -13.216  0.522E-05  0.522E-05
 -13.206  0.523E-05  0.523E-05
 -13.196  0.523E-05  0.523E-05
 -13.186  0.523E-05  0.523E-05
 -13.176  0.523E-05  0.523E-05
 -13.166  0.523E-05  0.523E-05
 -13.156  0.523E-05  0.523E-05
 -13.146  0.522E-05  0.522E-05
 -13.136  0.521E-05  0.521E-05
 -13.126  0.520E-05  0.520E-05
 -13.116  0.519E-05  0.519E-05
 -13.106  0.517E-05  0.517E-05
 -13.096  0.515E-05  0.515E-05
 -13.086  0.513E-05  0.513E-05
 -13.076  0.511E-05  0.511E-05
 -13.066  0.509E-05  0.509E-05
 -13.056  0.506E-05  0.506E-05
 -13.046  0.503E-05  0.503E-05
 -13.036  0.500E-05  0.500E-05
 -13.026  0.497E-05  0.497E-05
 -13.016  0.493E-05  0.493E-05
 -13.006  0.490E-05  0.490E-05
 -12.996  0.486E-05  0.486E-05
 -12.986  0.482E-05  0.482E-05
 -12.976  0.478E-05  0.478E-05
 -12.966  0.473E-05  0.473E-05
 -12.956  0.468E-05  0.468E-05
 -12.946  0.463E-05  0.463E-05
 -12.936  0.458E-05  0.458E-05
 -12.926  0.453E-05  0.453E-05
 -12.916  0.448E-05  0.448E-05
 -12.906  0.442E-05  0.442E-05
 -12.896  0.436E-05  0.436E-05
 -12.886  0.431E-05  0.431E-05
 -12.876  0.425E-05  0.425E-05
 -12.866  0.418E-05  0.418E-05
 -12.856  0.412E-05  0.412E-05
 -12.846  0.406E-05  0.406E-05
 -12.836  0.399E-05  0.399E-05
 -12.826  0.392E-05  0.392E-05
 -12.816  0.385E-05  0.385E-05
 -12.806  0.378E-05  0.378E-05
 -12.796  0.371E-05  0.371E-05
 -12.786  0.364E-05  0.364E-05
 -12.776  0.357E-05  0.357E-05
 -12.766  0.350E-05  0.350E-05
 -12.756  0.342E-05  0.342E-05
 -12.746  0.335E-05  0.335E-05
 -12.736  0.327E-05  0.327E-05
 -12.726  0.320E-05  0.320E-05
 -12.716  0.312E-05  0.312E-05
 -12.706  0.304E-05  0.304E-05
 -12.696  0.297E-05  0.297E-05
 -12.686  0.289E-05  0.289E-05
 -12.676  0.281E-05  0.281E-05
 -12.666  0.273E-05  0.273E-05
 -12.656  0.266E-05  0.266E-05
 -12.646  0.258E-05  0.258E-05
 -12.636  0.250E-05  0.250E-05
 -12.626  0.243E-05  0.243E-05
 -12.616  0.235E-05  0.235E-05
 -12.606  0.227E-05  0.227E-05
 -12.596  0.220E-05  0.220E-05
 -12.586  0.212E-05  0.212E-05
 -12.576  0.205E-05  0.205E-05
 -12.566  0.197E-05  0.197E-05
 -12.556  0.190E-05  0.190E-05
 -12.546  0.183E-05  0.183E-05
 -12.536  0.175E-05  0.175E-05
 -12.526  0.168E-05  0.168E-05
 -12.516  0.161E-05  0.161E-05
 -12.506  0.154E-05  0.154E-05
 -12.496  0.147E-05  0.147E-05
 -12.486  0.141E-05  0.141E-05
 -12.476  0.134E-05  0.134E-05
 -12.466  0.128E-05  0.128E-05
 -12.456  0.121E-05  0.121E-05
 -12.446  0.115E-05  0.115E-05
 -12.436  0.109E-05  0.109E-05
 -12.426  0.103E-05  0.103E-05
 -12.416  0.967E-06  0.967E-06
 -12.406  0.910E-06  0.910E-06
 -12.396  0.854E-06  0.854E-06
 -12.386  0.799E-06  0.799E-06
 -12.376  0.745E-06  0.745E-06
 -12.366  0.693E-06  0.693E-06
 -12.356  0.643E-06  0.643E-06
 -12.346  0.594E-06  0.594E-06
 -12.336  0.546E-06  0.546E-06
 -12.326  0.500E-06  0.500E-06
 -12.316  0.455E-06  0.455E-06
 -12.306  0.412E-06  0.412E-06
 -12.296  0.371E-06  0.371E-06
 -12.286  0.331E-06  0.331E-06
 -12.276  0.292E-06  0.292E-06
 -12.266  0.255E-06  0.255E-06
 -12.256  0.220E-06  0.220E-06
 -12.246  0.186E-06  0.186E-06
 -12.236  0.153E-06  0.153E-06
 -12.226  0.122E-06  0.122E-06
 -12.216  0.924E-07  0.924E-07
 -12.206  0.643E-07  0.643E-07
 -12.196  0.377E-07  0.377E-07
 -12.186  0.124E-07  0.124E-07
 -12.176 -0.114E-07 -0.114E-07
 -12.166 -0.338E-07 -0.338E-07
 -12.156 -0.549E-07 -0.549E-07
 -12.146 -0.746E-07 -0.746E-07
 -12.136 -0.929E-07 -0.929E-07
 -12.126 -0.110E-06 -0.110E-06
 -12.116 -0.126E-06 -0.126E-06
 -12.106 -0.140E-06 -0.140E-06
 -12.096 -0.153E-06 -0.153E-06
 -12.086 -0.166E-06 -0.166E-06
 -12.076 -0.176E-06 -0.176E-06
 -12.066 -0.186E-06 -0.186E-06
 -12.056 -0.195E-06 -0.195E-06
 -12.046 -0.202E-06 -0.202E-06
 -12.036 -0.209E-06 -0.209E-06
 -12.026 -0.214E-06 -0.214E-06
 -12.016 -0.218E-06 -0.218E-06
 -12.006 -0.222E-06 -0.222E-06
 -11.996 -0.224E-06 -0.224E-06
 -11.986 -0.226E-06 -0.226E-06
 -11.976 -0.226E-06 -0.226E-06
 -11.966 -0.226E-06 -0.226E-06
 -11.956 -0.225E-06 -0.225E-06
 -11.946 -0.223E-06 -0.223E-06
 -11.936 -0.221E-06 -0.221E-06
 -11.926 -0.218E-06 -0.218E-06
 -11.916 -0.214E-06 -0.214E-06
 -11.906 -0.209E-06 -0.209E-06
 -11.896 -0.204E-06 -0.204E-06
 -11.886 -0.198E-06 -0.198E-06
 -11.876 -0.192E-06 -0.192E-06
 -11.866 -0.186E-06 -0.186E-06
 -11.856 -0.179E-06 -0.179E-06
 -11.846 -0.171E-06 -0.171E-06
 -11.836 -0.163E-06 -0.163E-06
 -11.826 -0.155E-06 -0.155E-06
 -11.816 -0.147E-06 -0.147E-06
 -11.806 -0.139E-06 -0.139E-06
 -11.796 -0.130E-06 -0.130E-06
 -11.786 -0.122E-06 -0.122E-06
 -11.776 -0.114E-06 -0.114E-06
 -11.766 -0.105E-06 -0.105E-06
 -11.756 -0.972E-07 -0.972E-07
 -11.746 -0.894E-07 -0.894E-07
 -11.736 -0.820E-07 -0.820E-07
 -11.726 -0.750E-07 -0.750E-07
 -11.716 -0.687E-07 -0.687E-07
 -11.706 -0.630E-07 -0.630E-07
 -11.696 -0.582E-07 -0.582E-07
 -11.686 -0.543E-07 -0.543E-07
 -11.676 -0.516E-07 -0.516E-07
 -11.666 -0.501E-07 -0.501E-07
 -11.656 -0.501E-07 -0.501E-07
 -11.646 -0.517E-07 -0.517E-07
 -11.636 -0.551E-07 -0.551E-07
 -11.626 -0.606E-07 -0.606E-07
 -11.616 -0.684E-07 -0.684E-07
 -11.606 -0.788E-07 -0.788E-07
 -11.596 -0.921E-07 -0.921E-07
 -11.586 -0.109E-06 -0.109E-06
 -11.576 -0.128E-06 -0.128E-06
 -11.566 -0.152E-06 -0.152E-06
 -11.556 -0.180E-06 -0.180E-06
 -11.546 -0.213E-06 -0.213E-06
 -11.536 -0.252E-06 -0.252E-06
 -11.526 -0.295E-06 -0.295E-06
 -11.516 -0.346E-06 -0.346E-06
 -11.506 -0.403E-06 -0.403E-06
 -11.496 -0.468E-06 -0.468E-06
 -11.486 -0.541E-06 -0.541E-06
 -11.476 -0.624E-06 -0.624E-06
 -11.466 -0.716E-06 -0.716E-06
 -11.456 -0.820E-06 -0.820E-06
 -11.446 -0.935E-06 -0.935E-06
 -11.436 -0.106E-05 -0.106E-05
 -11.426 -0.121E-05 -0.121E-05
 -11.416 -0.137E-05 -0.137E-05
 -11.406 -0.154E-05 -0.154E-05
 -11.396 -0.174E-05 -0.174E-05
 -11.386 -0.195E-05 -0.195E-05
 -11.376 -0.219E-05 -0.219E-05
 -11.366 -0.245E-05 -0.245E-05
 -11.356 -0.274E-05 -0.274E-05
 -11.346 -0.306E-05 -0.306E-05
 -11.336 -0.340E-05 -0.340E-05
 -11.326 -0.378E-05 -0.378E-05
 -11.316 -0.420E-05 -0.420E-05
 -11.306 -0.466E-05 -0.466E-05
 -11.296 -0.516E-05 -0.516E-05
 -11.286 -0.571E-05 -0.571E-05
 -11.276 -0.631E-05 -0.631E-05
 -11.266 -0.696E-05 -0.696E-05
 -11.256 -0.767E-05 -0.767E-05
 -11.246 -0.845E-05 -0.845E-05
 -11.236 -0.930E-05 -0.930E-05
 -11.226 -0.102E-04 -0.102E-04
 -11.216 -0.112E-04 -0.112E-04
 -11.206 -0.123E-04 -0.123E-04
 -11.196 -0.135E-04 -0.135E-04
 -11.186 -0.148E-04 -0.148E-04
 -11.176 -0.162E-04 -0.162E-04
 -11.166 -0.177E-04 -0.177E-04
 -11.156 -0.193E-04 -0.193E-04
 -11.146 -0.211E-04 -0.211E-04
 -11.136 -0.230E-04 -0.230E-04
 -11.126 -0.251E-04 -0.251E-04
 -11.116 -0.274E-04 -0.274E-04
 -11.106 -0.298E-04 -0.298E-04
 -11.096 -0.325E-04 -0.325E-04
 -11.086 -0.353E-04 -0.353E-04
 -11.076 -0.384E-04 -0.384E-04
 -11.066 -0.417E-04 -0.417E-04
 -11.056 -0.452E-04 -0.452E-04
 -11.046 -0.491E-04 -0.491E-04
 -11.036 -0.532E-04 -0.532E-04
 -11.026 -0.576E-04 -0.576E-04
 -11.016 -0.624E-04 -0.624E-04
 -11.006 -0.676E-04 -0.676E-04
 -10.996 -0.731E-04 -0.731E-04
 -10.986 -0.790E-04 -0.790E-04
 -10.976 -0.853E-04 -0.853E-04
 -10.966 -0.922E-04 -0.922E-04
 -10.956 -0.995E-04 -0.995E-04
 -10.946 -0.107E-03 -0.107E-03
 -10.936 -0.116E-03 -0.116E-03
 -10.926 -0.125E-03 -0.125E-03
 -10.916 -0.134E-03 -0.134E-03
 -10.906 -0.144E-03 -0.144E-03
 -10.896 -0.155E-03 -0.155E-03
 -10.886 -0.167E-03 -0.167E-03
 -10.876 -0.179E-03 -0.179E-03
 -10.866 -0.193E-03 -0.193E-03
 -10.856 -0.207E-03 -0.207E-03
 -10.846 -0.222E-03 -0.222E-03
 -10.836 -0.238E-03 -0.238E-03
 -10.826 -0.255E-03 -0.255E-03
 -10.816 -0.273E-03 -0.273E-03
 -10.806 -0.292E-03 -0.292E-03
 -10.796 -0.313E-03 -0.313E-03
 -10.786 -0.334E-03 -0.334E-03
 -10.776 -0.357E-03 -0.357E-03
 -10.766 -0.381E-03 -0.381E-03
 -10.756 -0.407E-03 -0.407E-03
 -10.746 -0.434E-03 -0.434E-03
 -10.736 -0.463E-03 -0.463E-03
 -10.726 -0.494E-03 -0.494E-03
 -10.716 -0.526E-03 -0.526E-03
 -10.706 -0.560E-03 -0.560E-03
 -10.696 -0.595E-03 -0.595E-03
 -10.686 -0.633E-03 -0.633E-03
 -10.676 -0.673E-03 -0.673E-03
 -10.666 -0.715E-03 -0.715E-03
 -10.656 -0.759E-03 -0.759E-03
 -10.646 -0.805E-03 -0.805E-03
 -10.636 -0.853E-03 -0.853E-03
 -10.626 -0.904E-03 -0.904E-03
 -10.616 -0.958E-03 -0.958E-03
 -10.606 -0.101E-02 -0.101E-02
 -10.596 -0.107E-02 -0.107E-02
 -10.586 -0.113E-02 -0.113E-02
 -10.576 -0.120E-02 -0.120E-02
 -10.566 -0.127E-02 -0.127E-02
 -10.556 -0.134E-02 -0.134E-02
 -10.546 -0.141E-02 -0.141E-02
 -10.536 -0.148E-02 -0.148E-02
 -10.526 -0.156E-02 -0.156E-02
 -10.516 -0.165E-02 -0.165E-02
 -10.506 -0.173E-02 -0.173E-02
 -10.496 -0.182E-02 -0.182E-02
 -10.486 -0.191E-02 -0.191E-02
 -10.476 -0.201E-02 -0.201E-02
 -10.466 -0.211E-02 -0.211E-02
 -10.456 -0.221E-02 -0.221E-02
 -10.446 -0.232E-02 -0.232E-02
 -10.436 -0.243E-02 -0.243E-02
 -10.426 -0.254E-02 -0.254E-02
 -10.416 -0.266E-02 -0.266E-02
 -10.406 -0.278E-02 -0.278E-02
 -10.396 -0.291E-02 -0.291E-02
 -10.386 -0.304E-02 -0.304E-02
 -10.376 -0.317E-02 -0.317E-02
 -10.366 -0.330E-02 -0.330E-02
 -10.356 -0.344E-02 -0.344E-02
 -10.346 -0.358E-02 -0.358E-02
 -10.336 -0.373E-02 -0.373E-02
 -10.326 -0.387E-02 -0.387E-02
 -10.316 -0.403E-02 -0.403E-02
 -10.306 -0.418E-02 -0.418E-02
 -10.296 -0.433E-02 -0.433E-02
 -10.286 -0.449E-02 -0.449E-02
 -10.276 -0.465E-02 -0.465E-02
 -10.266 -0.482E-02 -0.482E-02
 -10.256 -0.498E-02 -0.498E-02
 -10.246 -0.514E-02 -0.514E-02
 -10.236 -0.531E-02 -0.531E-02
 -10.226 -0.548E-02 -0.548E-02
 -10.216 -0.565E-02 -0.565E-02
 -10.206 -0.581E-02 -0.581E-02
 -10.196 -0.598E-02 -0.598E-02
 -10.186 -0.615E-02 -0.615E-02
 -10.176 -0.631E-02 -0.631E-02
 -10.166 -0.647E-02 -0.647E-02
 -10.156 -0.663E-02 -0.663E-02
 -10.146 -0.679E-02 -0.679E-02
 -10.136 -0.694E-02 -0.694E-02
 -10.126 -0.709E-02 -0.709E-02
 -10.116 -0.724E-02 -0.724E-02
 -10.106 -0.738E-02 -0.738E-02
 -10.096 -0.751E-02 -0.751E-02
 -10.086 -0.764E-02 -0.764E-02
 -10.076 -0.775E-02 -0.775E-02
 -10.066 -0.786E-02 -0.786E-02
 -10.056 -0.796E-02 -0.796E-02
 -10.046 -0.805E-02 -0.805E-02
 -10.036 -0.813E-02 -0.813E-02
 -10.026 -0.820E-02 -0.820E-02
 -10.016 -0.825E-02 -0.825E-02
 -10.006 -0.829E-02 -0.829E-02
  -9.996 -0.832E-02 -0.832E-02
  -9.986 -0.833E-02 -0.833E-02
  -9.976 -0.832E-02 -0.832E-02
  -9.966 -0.829E-02 -0.829E-02
  -9.956 -0.824E-02 -0.824E-02
  -9.946 -0.818E-02 -0.818E-02
  -9.936 -0.809E-02 -0.809E-02
  -9.926 -0.798E-02 -0.798E-02
  -9.916 -0.784E-02 -0.784E-02
  -9.906 -0.768E-02 -0.768E-02
  -9.896 -0.750E-02 -0.750E-02
  -9.886 -0.728E-02 -0.728E-02
  -9.876 -0.704E-02 -0.704E-02
  -9.866 -0.677E-02 -0.677E-02
  -9.856 -0.647E-02 -0.647E-02
  -9.846 -0.613E-02 -0.613E-02
  -9.836 -0.576E-02 -0.576E-02
  -9.826 -0.536E-02 -0.536E-02
  -9.816 -0.492E-02 -0.492E-02
  -9.806 -0.444E-02 -0.444E-02
  -9.796 -0.393E-02 -0.393E-02
  -9.786 -0.337E-02 -0.337E-02
  -9.776 -0.278E-02 -0.278E-02
  -9.766 -0.215E-02 -0.215E-02
  -9.756 -0.147E-02 -0.147E-02
  -9.746 -0.748E-03 -0.748E-03
  -9.736  0.176E-04  0.176E-04
  -9.726  0.828E-03  0.828E-03
  -9.716  0.168E-02  0.168E-02
  -9.706  0.259E-02  0.259E-02
  -9.696  0.354E-02  0.354E-02
  -9.686  0.454E-02  0.454E-02
  -9.676  0.558E-02  0.558E-02
  -9.666  0.668E-02  0.668E-02
  -9.656  0.783E-02  0.783E-02
  -9.646  0.902E-02  0.902E-02
  -9.636  0.103E-01  0.103E-01
  -9.626  0.116E-01  0.116E-01
  -9.616  0.129E-01  0.129E-01
  -9.606  0.143E-01  0.143E-01
  -9.596  0.158E-01  0.158E-01
  -9.586  0.173E-01  0.173E-01
  -9.576  0.188E-01  0.188E-01
  -9.566  0.204E-01  0.204E-01
  -9.556  0.221E-01  0.221E-01
  -9.546  0.238E-01  0.238E-01
  -9.536  0.256E-01  0.256E-01
  -9.526  0.274E-01  0.274E-01
  -9.516  0.292E-01  0.292E-01
  -9.506  0.311E-01  0.311E-01
  -9.496  0.330E-01  0.330E-01
  -9.486  0.350E-01  0.350E-01
  -9.476  0.371E-01  0.371E-01
  -9.466  0.392E-01  0.392E-01
  -9.456  0.413E-01  0.413E-01
  -9.446  0.434E-01  0.434E-01
  -9.436  0.456E-01  0.456E-01
  -9.426  0.479E-01  0.479E-01
  -9.416  0.501E-01  0.501E-01
  -9.406  0.524E-01  0.524E-01
  -9.396  0.548E-01  0.548E-01
  -9.386  0.571E-01  0.571E-01
  -9.376  0.595E-01  0.595E-01
  -9.366  0.620E-01  0.620E-01
  -9.356  0.644E-01  0.644E-01
  -9.346  0.669E-01  0.669E-01
  -9.336  0.693E-01  0.693E-01
  -9.326  0.719E-01  0.719E-01
  -9.316  0.744E-01  0.744E-01
  -9.306  0.769E-01  0.769E-01
  -9.296  0.794E-01  0.794E-01
  -9.286  0.820E-01  0.820E-01
  -9.276  0.845E-01  0.845E-01
  -9.266  0.871E-01  0.871E-01
  -9.256  0.896E-01  0.896E-01
  -9.246  0.922E-01  0.922E-01
  -9.236  0.947E-01  0.947E-01
  -9.226  0.973E-01  0.973E-01
  -9.216  0.998E-01  0.998E-01
  -9.206  0.102E+00  0.102E+00
  -9.196  0.105E+00  0.105E+00
  -9.186  0.107E+00  0.107E+00
  -9.176  0.110E+00  0.110E+00
  -9.166  0.112E+00  0.112E+00
  -9.156  0.115E+00  0.115E+00
  -9.146  0.117E+00  0.117E+00
  -9.136  0.119E+00  0.119E+00
  -9.126  0.122E+00  0.122E+00
  -9.116  0.124E+00  0.124E+00
  -9.106  0.126E+00  0.126E+00
  -9.096  0.128E+00  0.128E+00
  -9.086  0.131E+00  0.131E+00
  -9.076  0.133E+00  0.133E+00
  -9.066  0.135E+00  0.135E+00
  -9.056  0.137E+00  0.137E+00
  -9.046  0.139E+00  0.139E+00
  -9.036  0.141E+00  0.141E+00
  -9.026  0.143E+00  0.143E+00
  -9.016  0.145E+00  0.145E+00
  -9.006  0.146E+00  0.146E+00
  -8.996  0.148E+00  0.148E+00
  -8.986  0.150E+00  0.150E+00
  -8.976  0.152E+00  0.152E+00
  -8.966  0.153E+00  0.153E+00
  -8.956  0.155E+00  0.155E+00
  -8.946  0.156E+00  0.156E+00
  -8.936  0.157E+00  0.157E+00
  -8.926  0.159E+00  0.159E+00
  -8.916  0.160E+00  0.160E+00
  -8.906  0.161E+00  0.161E+00
  -8.896  0.162E+00  0.162E+00
  -8.886  0.164E+00  0.164E+00
  -8.876  0.165E+00  0.165E+00
  -8.866  0.166E+00  0.166E+00
  -8.856  0.167E+00  0.167E+00
  -8.846  0.167E+00  0.167E+00
  -8.836  0.168E+00  0.168E+00
  -8.826  0.169E+00  0.169E+00
  -8.816  0.170E+00  0.170E+00
  -8.806  0.170E+00  0.170E+00
  -8.796  0.171E+00  0.171E+00
  -8.786  0.171E+00  0.171E+00
  -8.776  0.172E+00  0.172E+00
  -8.766  0.172E+00  0.172E+00
  -8.756  0.172E+00  0.172E+00
  -8.746  0.173E+00  0.173E+00
  -8.736  0.173E+00  0.173E+00
  -8.726  0.173E+00  0.173E+00
  -8.716  0.173E+00  0.173E+00
  -8.706  0.173E+00  0.173E+00
  -8.696  0.173E+00  0.173E+00
  -8.686  0.173E+00  0.173E+00
  -8.676  0.173E+00  0.173E+00
  -8.666  0.173E+00  0.173E+00
  -8.656  0.173E+00  0.173E+00
  -8.646  0.173E+00  0.173E+00
  -8.636  0.172E+00  0.172E+00
  -8.626  0.172E+00  0.172E+00
  -8.616  0.172E+00  0.172E+00
  -8.606  0.171E+00  0.171E+00
  -8.596  0.171E+00  0.171E+00
  -8.586  0.170E+00  0.170E+00
  -8.576  0.170E+00  0.170E+00
  -8.566  0.169E+00  0.169E+00
  -8.556  0.168E+00  0.168E+00
  -8.546  0.168E+00  0.168E+00
  -8.536  0.167E+00  0.167E+00
  -8.526  0.166E+00  0.166E+00
  -8.516  0.165E+00  0.165E+00
  -8.506  0.164E+00  0.164E+00
  -8.496  0.164E+00  0.164E+00
  -8.486  0.163E+00  0.163E+00
  -8.476  0.162E+00  0.162E+00
  -8.466  0.161E+00  0.161E+00
  -8.456  0.160E+00  0.160E+00
  -8.446  0.159E+00  0.159E+00
  -8.436  0.158E+00  0.158E+00
  -8.426  0.156E+00  0.156E+00
  -8.416  0.155E+00  0.155E+00
  -8.406  0.154E+00  0.154E+00
  -8.396  0.153E+00  0.153E+00
  -8.386  0.151E+00  0.151E+00
  -8.376  0.150E+00  0.150E+00
  -8.366  0.149E+00  0.149E+00
  -8.356  0.147E+00  0.147E+00
  -8.346  0.146E+00  0.146E+00
  -8.336  0.145E+00  0.145E+00
  -8.326  0.143E+00  0.143E+00
  -8.316  0.142E+00  0.142E+00
  -8.306  0.140E+00  0.140E+00
  -8.296  0.139E+00  0.139E+00
  -8.286  0.137E+00  0.137E+00
  -8.276  0.136E+00  0.136E+00
  -8.266  0.134E+00  0.134E+00
  -8.256  0.132E+00  0.132E+00
  -8.246  0.131E+00  0.131E+00
  -8.236  0.129E+00  0.129E+00
  -8.226  0.127E+00  0.127E+00
  -8.216  0.126E+00  0.126E+00
  -8.206  0.124E+00  0.124E+00
  -8.196  0.122E+00  0.122E+00
  -8.186  0.120E+00  0.120E+00
  -8.176  0.119E+00  0.119E+00
  -8.166  0.117E+00  0.117E+00
  -8.156  0.115E+00  0.115E+00
  -8.146  0.113E+00  0.113E+00
  -8.136  0.111E+00  0.111E+00
  -8.126  0.110E+00  0.110E+00
  -8.116  0.108E+00  0.108E+00
  -8.106  0.106E+00  0.106E+00
  -8.096  0.104E+00  0.104E+00
  -8.086  0.102E+00  0.102E+00
  -8.076  0.101E+00  0.101E+00
  -8.066  0.988E-01  0.988E-01
  -8.056  0.970E-01  0.970E-01
  -8.046  0.952E-01  0.952E-01
  -8.036  0.934E-01  0.934E-01
  -8.026  0.917E-01  0.917E-01
  -8.016  0.900E-01  0.900E-01
  -8.006  0.883E-01  0.883E-01
  -7.996  0.866E-01  0.866E-01
  -7.986  0.849E-01  0.849E-01
  -7.976  0.833E-01  0.833E-01
  -7.966  0.817E-01  0.817E-01
  -7.956  0.801E-01  0.801E-01
  -7.946  0.786E-01  0.786E-01
  -7.936  0.771E-01  0.771E-01
  -7.926  0.756E-01  0.756E-01
  -7.916  0.742E-01  0.742E-01
  -7.906  0.728E-01  0.728E-01
  -7.896  0.714E-01  0.714E-01
  -7.886  0.701E-01  0.701E-01
  -7.876  0.689E-01  0.689E-01
  -7.866  0.677E-01  0.677E-01
  -7.856  0.665E-01  0.665E-01
  -7.846  0.654E-01  0.654E-01
  -7.836  0.643E-01  0.643E-01
  -7.826  0.633E-01  0.633E-01
  -7.816  0.623E-01  0.623E-01
  -7.806  0.614E-01  0.614E-01
  -7.796  0.605E-01  0.605E-01
  -7.786  0.597E-01  0.597E-01
  -7.776  0.590E-01  0.590E-01
  -7.766  0.583E-01  0.583E-01
  -7.756  0.577E-01  0.577E-01
  -7.746  0.571E-01  0.571E-01
  -7.736  0.566E-01  0.566E-01
  -7.726  0.561E-01  0.561E-01
  -7.716  0.557E-01  0.557E-01
  -7.706  0.554E-01  0.554E-01
  -7.696  0.551E-01  0.551E-01
  -7.686  0.548E-01  0.548E-01
  -7.676  0.546E-01  0.546E-01
  -7.666  0.545E-01  0.545E-01
  -7.656  0.544E-01  0.544E-01
  -7.646  0.544E-01  0.544E-01
  -7.636  0.544E-01  0.544E-01
  -7.626  0.545E-01  0.545E-01
  -7.616  0.546E-01  0.546E-01
  -7.606  0.548E-01  0.548E-01
  -7.596  0.550E-01  0.550E-01
  -7.586  0.553E-01  0.553E-01
  -7.576  0.556E-01  0.556E-01
  -7.566  0.559E-01  0.559E-01
  -7.556  0.563E-01  0.563E-01
  -7.546  0.567E-01  0.567E-01
  -7.536  0.571E-01  0.571E-01
  -7.526  0.576E-01  0.576E-01
  -7.516  0.581E-01  0.581E-01
  -7.506  0.587E-01  0.587E-01
  -7.496  0.592E-01  0.592E-01
  -7.486  0.598E-01  0.598E-01
  -7.476  0.604E-01  0.604E-01
  -7.466  0.610E-01  0.610E-01
  -7.456  0.616E-01  0.616E-01
  -7.446  0.622E-01  0.622E-01
  -7.436  0.629E-01  0.629E-01
  -7.426  0.635E-01  0.635E-01
  -7.416  0.642E-01  0.642E-01
  -7.406  0.648E-01  0.648E-01
  -7.396  0.655E-01  0.655E-01
  -7.386  0.661E-01  0.661E-01
  -7.376  0.667E-01  0.667E-01
  -7.366  0.673E-01  0.673E-01
  -7.356  0.679E-01  0.679E-01
  -7.346  0.685E-01  0.685E-01
  -7.336  0.691E-01  0.691E-01
  -7.326  0.696E-01  0.696E-01
  -7.316  0.702E-01  0.702E-01
  -7.306  0.707E-01  0.707E-01
  -7.296  0.711E-01  0.711E-01
  -7.286  0.716E-01  0.716E-01
  -7.276  0.720E-01  0.720E-01
  -7.266  0.724E-01  0.724E-01
  -7.256  0.727E-01  0.727E-01
  -7.246  0.730E-01  0.730E-01
  -7.236  0.733E-01  0.733E-01
  -7.226  0.735E-01  0.735E-01
  -7.216  0.737E-01  0.737E-01
  -7.206  0.738E-01  0.738E-01
  -7.196  0.739E-01  0.739E-01
  -7.186  0.739E-01  0.739E-01
  -7.176  0.739E-01  0.739E-01
  -7.166  0.739E-01  0.739E-01
  -7.156  0.738E-01  0.738E-01
  -7.146  0.736E-01  0.736E-01
  -7.136  0.734E-01  0.734E-01
  -7.126  0.732E-01  0.732E-01
  -7.116  0.729E-01  0.729E-01
  -7.106  0.725E-01  0.725E-01
  -7.096  0.721E-01  0.721E-01
  -7.086  0.717E-01  0.717E-01
  -7.076  0.712E-01  0.712E-01
  -7.066  0.706E-01  0.706E-01
  -7.056  0.700E-01  0.700E-01
  -7.046  0.694E-01  0.694E-01
  -7.036  0.687E-01  0.687E-01
  -7.026  0.679E-01  0.679E-01
  -7.016  0.671E-01  0.671E-01
  -7.006  0.663E-01  0.663E-01
  -6.996  0.654E-01  0.654E-01
  -6.986  0.645E-01  0.645E-01
  -6.976  0.636E-01  0.636E-01
  -6.966  0.626E-01  0.626E-01
  -6.956  0.615E-01  0.615E-01
  -6.946  0.605E-01  0.605E-01
  -6.936  0.594E-01  0.594E-01
  -6.926  0.582E-01  0.582E-01
  -6.916  0.570E-01  0.570E-01
  -6.906  0.559E-01  0.559E-01
  -6.896  0.546E-01  0.546E-01
  -6.886  0.534E-01  0.534E-01
  -6.876  0.521E-01  0.521E-01
  -6.866  0.508E-01  0.508E-01
  -6.856  0.495E-01  0.495E-01
  -6.846  0.482E-01  0.482E-01
  -6.836  0.469E-01  0.469E-01
  -6.826  0.456E-01  0.456E-01
  -6.816  0.442E-01  0.442E-01
  -6.806  0.429E-01  0.429E-01
  -6.796  0.415E-01  0.415E-01
  -6.786  0.402E-01  0.402E-01
  -6.776  0.388E-01  0.388E-01
  -6.766  0.375E-01  0.375E-01
  -6.756  0.361E-01  0.361E-01
  -6.746  0.348E-01  0.348E-01
  -6.736  0.335E-01  0.335E-01
  -6.726  0.322E-01  0.322E-01
  -6.716  0.309E-01  0.309E-01
  -6.706  0.297E-01  0.297E-01
  -6.696  0.284E-01  0.284E-01
  -6.686  0.272E-01  0.272E-01
  -6.676  0.260E-01  0.260E-01
  -6.666  0.249E-01  0.249E-01
  -6.656  0.238E-01  0.238E-01
  -6.646  0.227E-01  0.227E-01
  -6.636  0.217E-01  0.217E-01
  -6.626  0.206E-01  0.206E-01
  -6.616  0.197E-01  0.197E-01
  -6.606  0.188E-01  0.188E-01
  -6.596  0.179E-01  0.179E-01
  -6.586  0.171E-01  0.171E-01
  -6.576  0.163E-01  0.163E-01
  -6.566  0.156E-01  0.156E-01
  -6.556  0.149E-01  0.149E-01
  -6.546  0.143E-01  0.143E-01
  -6.536  0.137E-01  0.137E-01
  -6.526  0.132E-01  0.132E-01
  -6.516  0.127E-01  0.127E-01
  -6.506  0.123E-01  0.123E-01
  -6.496  0.120E-01  0.120E-01
  -6.486  0.118E-01  0.118E-01
  -6.476  0.116E-01  0.116E-01
  -6.466  0.114E-01  0.114E-01
  -6.456  0.113E-01  0.113E-01
  -6.446  0.113E-01  0.113E-01
  -6.436  0.114E-01  0.114E-01
  -6.426  0.115E-01  0.115E-01
  -6.416  0.117E-01  0.117E-01
  -6.406  0.120E-01  0.120E-01
  -6.396  0.123E-01  0.123E-01
  -6.386  0.127E-01  0.127E-01
  -6.376  0.132E-01  0.132E-01
  -6.366  0.137E-01  0.137E-01
  -6.356  0.143E-01  0.143E-01
  -6.346  0.150E-01  0.150E-01
  -6.336  0.157E-01  0.157E-01
  -6.326  0.165E-01  0.165E-01
  -6.316  0.174E-01  0.174E-01
  -6.306  0.183E-01  0.183E-01
  -6.296  0.193E-01  0.193E-01
  -6.286  0.204E-01  0.204E-01
  -6.276  0.215E-01  0.215E-01
  -6.266  0.227E-01  0.227E-01
  -6.256  0.240E-01  0.240E-01
  -6.246  0.253E-01  0.253E-01
  -6.236  0.267E-01  0.267E-01
  -6.226  0.281E-01  0.281E-01
  -6.216  0.296E-01  0.296E-01
  -6.206  0.311E-01  0.311E-01
  -6.196  0.327E-01  0.327E-01
  -6.186  0.343E-01  0.343E-01
  -6.176  0.360E-01  0.360E-01
  -6.166  0.377E-01  0.377E-01
  -6.156  0.395E-01  0.395E-01
  -6.146  0.413E-01  0.413E-01
  -6.136  0.432E-01  0.432E-01
  -6.126  0.451E-01  0.451E-01
  -6.116  0.470E-01  0.470E-01
  -6.106  0.489E-01  0.489E-01
  -6.096  0.509E-01  0.509E-01
  -6.086  0.529E-01  0.529E-01
  -6.076  0.550E-01  0.550E-01
  -6.066  0.570E-01  0.570E-01
  -6.056  0.591E-01  0.591E-01
  -6.046  0.612E-01  0.612E-01
  -6.036  0.633E-01  0.633E-01
  -6.026  0.655E-01  0.655E-01
  -6.016  0.676E-01  0.676E-01
  -6.006  0.697E-01  0.697E-01
  -5.996  0.719E-01  0.719E-01
  -5.986  0.740E-01  0.740E-01
  -5.976  0.762E-01  0.762E-01
  -5.966  0.783E-01  0.783E-01
  -5.956  0.805E-01  0.805E-01
  -5.946  0.826E-01  0.826E-01
  -5.936  0.847E-01  0.847E-01
  -5.926  0.868E-01  0.868E-01
  -5.916  0.889E-01  0.889E-01
  -5.906  0.909E-01  0.909E-01
  -5.896  0.930E-01  0.930E-01
  -5.886  0.950E-01  0.950E-01
  -5.876  0.970E-01  0.970E-01
  -5.866  0.990E-01  0.990E-01
  -5.856  0.101E+00  0.101E+00
  -5.846  0.103E+00  0.103E+00
  -5.836  0.105E+00  0.105E+00
  -5.826  0.107E+00  0.107E+00
  -5.816  0.108E+00  0.108E+00
  -5.806  0.110E+00  0.110E+00
  -5.796  0.112E+00  0.112E+00
  -5.786  0.113E+00  0.113E+00
  -5.776  0.115E+00  0.115E+00
  -5.766  0.117E+00  0.117E+00
  -5.756  0.118E+00  0.118E+00
  -5.746  0.120E+00  0.120E+00
  -5.736  0.121E+00  0.121E+00
  -5.726  0.123E+00  0.123E+00
  -5.716  0.124E+00  0.124E+00
  -5.706  0.125E+00  0.125E+00
  -5.696  0.126E+00  0.126E+00
  -5.686  0.128E+00  0.128E+00
  -5.676  0.129E+00  0.129E+00
  -5.666  0.130E+00  0.130E+00
  -5.656  0.131E+00  0.131E+00
  -5.646  0.132E+00  0.132E+00
  -5.636  0.133E+00  0.133E+00
  -5.626  0.134E+00  0.134E+00
  -5.616  0.135E+00  0.135E+00
  -5.606  0.136E+00  0.136E+00
  -5.596  0.136E+00  0.136E+00
  -5.586  0.137E+00  0.137E+00
  -5.576  0.138E+00  0.138E+00
  -5.566  0.138E+00  0.138E+00
  -5.556  0.139E+00  0.139E+00
  -5.546  0.139E+00  0.139E+00
  -5.536  0.140E+00  0.140E+00
  -5.526  0.140E+00  0.140E+00
  -5.516  0.141E+00  0.141E+00
  -5.506  0.141E+00  0.141E+00
  -5.496  0.141E+00  0.141E+00
  -5.486  0.142E+00  0.142E+00
  -5.476  0.142E+00  0.142E+00
  -5.466  0.142E+00  0.142E+00
  -5.456  0.142E+00  0.142E+00
  -5.446  0.143E+00  0.143E+00
  -5.436  0.143E+00  0.143E+00
  -5.426  0.143E+00  0.143E+00
  -5.416  0.143E+00  0.143E+00
  -5.406  0.143E+00  0.143E+00
  -5.396  0.143E+00  0.143E+00
  -5.386  0.143E+00  0.143E+00
  -5.376  0.143E+00  0.143E+00
  -5.366  0.143E+00  0.143E+00
  -5.356  0.143E+00  0.143E+00
  -5.346  0.143E+00  0.143E+00
  -5.336  0.143E+00  0.143E+00
  -5.326  0.143E+00  0.143E+00
  -5.316  0.143E+00  0.143E+00
  -5.306  0.143E+00  0.143E+00
  -5.296  0.143E+00  0.143E+00
  -5.286  0.143E+00  0.143E+00
  -5.276  0.143E+00  0.143E+00
  -5.266  0.143E+00  0.143E+00
  -5.256  0.143E+00  0.143E+00
  -5.246  0.143E+00  0.143E+00
  -5.236  0.143E+00  0.143E+00
  -5.226  0.143E+00  0.143E+00
  -5.216  0.143E+00  0.143E+00
  -5.206  0.143E+00  0.143E+00
  -5.196  0.143E+00  0.143E+00
  -5.186  0.143E+00  0.143E+00
  -5.176  0.143E+00  0.143E+00
  -5.166  0.143E+00  0.143E+00
  -5.156  0.142E+00  0.142E+00
  -5.146  0.142E+00  0.142E+00
  -5.136  0.142E+00  0.142E+00
  -5.126  0.142E+00  0.142E+00
  -5.116  0.142E+00  0.142E+00
  -5.106  0.142E+00  0.142E+00
  -5.096  0.142E+00  0.142E+00
  -5.086  0.142E+00  0.142E+00
  -5.076  0.142E+00  0.142E+00
  -5.066  0.142E+00  0.142E+00
  -5.056  0.142E+00  0.142E+00
  -5.046  0.142E+00  0.142E+00
  -5.036  0.142E+00  0.142E+00
  -5.026  0.142E+00  0.142E+00
  -5.016  0.142E+00  0.142E+00
  -5.006  0.142E+00  0.142E+00
  -4.996  0.142E+00  0.142E+00
  -4.986  0.142E+00  0.142E+00
  -4.976  0.142E+00  0.142E+00
  -4.966  0.142E+00  0.142E+00
  -4.956  0.141E+00  0.141E+00
  -4.946  0.141E+00  0.141E+00
  -4.936  0.141E+00  0.141E+00
  -4.926  0.141E+00  0.141E+00
  -4.916  0.141E+00  0.141E+00
  -4.906  0.141E+00  0.141E+00
  -4.896  0.140E+00  0.140E+00
  -4.886  0.140E+00  0.140E+00
  -4.876  0.140E+00  0.140E+00
  -4.866  0.139E+00  0.139E+00
  -4.856  0.139E+00  0.139E+00
  -4.846  0.139E+00  0.139E+00
  -4.836  0.138E+00  0.138E+00
  -4.826  0.138E+00  0.138E+00
  -4.816  0.138E+00  0.138E+00
  -4.806  0.137E+00  0.137E+00
  -4.796  0.137E+00  0.137E+00
  -4.786  0.136E+00  0.136E+00
  -4.776  0.136E+00  0.136E+00
  -4.766  0.135E+00  0.135E+00
  -4.756  0.134E+00  0.134E+00
  -4.746  0.134E+00  0.134E+00
  -4.736  0.133E+00  0.133E+00
  -4.726  0.132E+00  0.132E+00
  -4.716  0.132E+00  0.132E+00
  -4.706  0.131E+00  0.131E+00
  -4.696  0.130E+00  0.130E+00
  -4.686  0.129E+00  0.129E+00
  -4.676  0.128E+00  0.128E+00
  -4.666  0.127E+00  0.127E+00
  -4.656  0.126E+00  0.126E+00
  -4.646  0.125E+00  0.125E+00
  -4.636  0.124E+00  0.124E+00
  -4.626  0.123E+00  0.123E+00
  -4.616  0.122E+00  0.122E+00
  -4.606  0.121E+00  0.121E+00
  -4.596  0.120E+00  0.120E+00
  -4.586  0.119E+00  0.119E+00
  -4.576  0.118E+00  0.118E+00
  -4.566  0.117E+00  0.117E+00
  -4.556  0.115E+00  0.115E+00
  -4.546  0.114E+00  0.114E+00
  -4.536  0.113E+00  0.113E+00
  -4.526  0.112E+00  0.112E+00
  -4.516  0.110E+00  0.110E+00
  -4.506  0.109E+00  0.109E+00
  -4.496  0.108E+00  0.108E+00
  -4.486  0.107E+00  0.107E+00
  -4.476  0.105E+00  0.105E+00
  -4.466  0.104E+00  0.104E+00
  -4.456  0.102E+00  0.102E+00
  -4.446  0.101E+00  0.101E+00
  -4.436  0.998E-01  0.998E-01
  -4.426  0.984E-01  0.984E-01
  -4.416  0.970E-01  0.970E-01
  -4.406  0.957E-01  0.957E-01
  -4.396  0.943E-01  0.943E-01
  -4.386  0.929E-01  0.929E-01
  -4.376  0.916E-01  0.916E-01
  -4.366  0.902E-01  0.902E-01
  -4.356  0.889E-01  0.889E-01
  -4.346  0.875E-01  0.875E-01
  -4.336  0.862E-01  0.862E-01
  -4.326  0.849E-01  0.849E-01
  -4.316  0.836E-01  0.836E-01
  -4.306  0.823E-01  0.823E-01
  -4.296  0.810E-01  0.810E-01
  -4.286  0.797E-01  0.797E-01
  -4.276  0.785E-01  0.785E-01
  -4.266  0.772E-01  0.772E-01
  -4.256  0.760E-01  0.760E-01
  -4.246  0.748E-01  0.748E-01
  -4.236  0.737E-01  0.737E-01
  -4.226  0.725E-01  0.725E-01
  -4.216  0.714E-01  0.714E-01
  -4.206  0.703E-01  0.703E-01
  -4.196  0.692E-01  0.692E-01
  -4.186  0.682E-01  0.682E-01
  -4.176  0.672E-01  0.672E-01
  -4.166  0.662E-01  0.662E-01
  -4.156  0.652E-01  0.652E-01
  -4.146  0.642E-01  0.642E-01
  -4.136  0.633E-01  0.633E-01
  -4.126  0.624E-01  0.624E-01
  -4.116  0.616E-01  0.616E-01
  -4.106  0.608E-01  0.608E-01
  -4.096  0.599E-01  0.599E-01
  -4.086  0.592E-01  0.592E-01
  -4.076  0.584E-01  0.584E-01
  -4.066  0.577E-01  0.577E-01
  -4.056  0.570E-01  0.570E-01
  -4.046  0.564E-01  0.564E-01
  -4.036  0.557E-01  0.557E-01
  -4.026  0.551E-01  0.551E-01
  -4.016  0.546E-01  0.546E-01
  -4.006  0.540E-01  0.540E-01
  -3.996  0.535E-01  0.535E-01
  -3.986  0.530E-01  0.530E-01
  -3.976  0.526E-01  0.526E-01
  -3.966  0.521E-01  0.521E-01
  -3.956  0.517E-01  0.517E-01
  -3.946  0.514E-01  0.514E-01
  -3.936  0.510E-01  0.510E-01
  -3.926  0.507E-01  0.507E-01
  -3.916  0.504E-01  0.504E-01
  -3.906  0.501E-01  0.501E-01
  -3.896  0.499E-01  0.499E-01
  -3.886  0.496E-01  0.496E-01
  -3.876  0.494E-01  0.494E-01
  -3.866  0.493E-01  0.493E-01
  -3.856  0.491E-01  0.491E-01
  -3.846  0.490E-01  0.490E-01
  -3.836  0.489E-01  0.489E-01
  -3.826  0.488E-01  0.488E-01
  -3.816  0.487E-01  0.487E-01
  -3.806  0.487E-01  0.487E-01
  -3.796  0.486E-01  0.486E-01
  -3.786  0.486E-01  0.486E-01
  -3.776  0.486E-01  0.486E-01
  -3.766  0.487E-01  0.487E-01
  -3.756  0.487E-01  0.487E-01
  -3.746  0.488E-01  0.488E-01
  -3.736  0.489E-01  0.489E-01
  -3.726  0.490E-01  0.490E-01
  -3.716  0.491E-01  0.491E-01
  -3.706  0.492E-01  0.492E-01
  -3.696  0.494E-01  0.494E-01
  -3.686  0.496E-01  0.496E-01
  -3.676  0.497E-01  0.497E-01
  -3.666  0.499E-01  0.499E-01
  -3.656  0.502E-01  0.502E-01
  -3.646  0.504E-01  0.504E-01
  -3.636  0.506E-01  0.506E-01
  -3.626  0.509E-01  0.509E-01
  -3.616  0.511E-01  0.511E-01
  -3.606  0.514E-01  0.514E-01
  -3.596  0.517E-01  0.517E-01
  -3.586  0.520E-01  0.520E-01
  -3.576  0.523E-01  0.523E-01
  -3.566  0.526E-01  0.526E-01
  -3.556  0.530E-01  0.530E-01
  -3.546  0.533E-01  0.533E-01
  -3.536  0.537E-01  0.537E-01
  -3.526  0.540E-01  0.540E-01
  -3.516  0.544E-01  0.544E-01
  -3.506  0.548E-01  0.548E-01
  -3.496  0.552E-01  0.552E-01
  -3.486  0.556E-01  0.556E-01
  -3.476  0.560E-01  0.560E-01
  -3.466  0.564E-01  0.564E-01
  -3.456  0.568E-01  0.568E-01
  -3.446  0.572E-01  0.572E-01
  -3.436  0.576E-01  0.576E-01
  -3.426  0.581E-01  0.581E-01
  -3.416  0.585E-01  0.585E-01
  -3.406  0.590E-01  0.590E-01
  -3.396  0.594E-01  0.594E-01
  -3.386  0.599E-01  0.599E-01
  -3.376  0.603E-01  0.603E-01
  -3.366  0.608E-01  0.608E-01
  -3.356  0.613E-01  0.613E-01
  -3.346  0.618E-01  0.618E-01
  -3.336  0.622E-01  0.622E-01
  -3.326  0.627E-01  0.627E-01
  -3.316  0.632E-01  0.632E-01
  -3.306  0.637E-01  0.637E-01
  -3.296  0.641E-01  0.641E-01
  -3.286  0.646E-01  0.646E-01
  -3.276  0.651E-01  0.651E-01
  -3.266  0.656E-01  0.656E-01
  -3.256  0.660E-01  0.660E-01
  -3.246  0.665E-01  0.665E-01
  -3.236  0.670E-01  0.670E-01
  -3.226  0.675E-01  0.675E-01
  -3.216  0.679E-01  0.679E-01
  -3.206  0.684E-01  0.684E-01
  -3.196  0.689E-01  0.689E-01
  -3.186  0.693E-01  0.693E-01
  -3.176  0.698E-01  0.698E-01
  -3.166  0.702E-01  0.702E-01
  -3.156  0.706E-01  0.706E-01
  -3.146  0.711E-01  0.711E-01
  -3.136  0.715E-01  0.715E-01
  -3.126  0.719E-01  0.719E-01
  -3.116  0.723E-01  0.723E-01
  -3.106  0.727E-01  0.727E-01
  -3.096  0.731E-01  0.731E-01
  -3.086  0.735E-01  0.735E-01
  -3.076  0.739E-01  0.739E-01
  -3.066  0.743E-01  0.743E-01
  -3.056  0.746E-01  0.746E-01
  -3.046  0.750E-01  0.750E-01
  -3.036  0.753E-01  0.753E-01
  -3.026  0.756E-01  0.756E-01
  -3.016  0.759E-01  0.759E-01
  -3.006  0.762E-01  0.762E-01
  -2.996  0.765E-01  0.765E-01
  -2.986  0.768E-01  0.768E-01
  -2.976  0.771E-01  0.771E-01
  -2.966  0.774E-01  0.774E-01
  -2.956  0.776E-01  0.776E-01
  -2.946  0.779E-01  0.779E-01
  -2.936  0.781E-01  0.781E-01
  -2.926  0.783E-01  0.783E-01
  -2.916  0.785E-01  0.785E-01
  -2.906  0.787E-01  0.787E-01
  -2.896  0.789E-01  0.789E-01
  -2.886  0.791E-01  0.791E-01
  -2.876  0.793E-01  0.793E-01
  -2.866  0.794E-01  0.794E-01
  -2.856  0.796E-01  0.796E-01
  -2.846  0.797E-01  0.797E-01
  -2.836  0.799E-01  0.799E-01
  -2.826  0.800E-01  0.800E-01
  -2.816  0.801E-01  0.801E-01
  -2.806  0.802E-01  0.802E-01
  -2.796  0.803E-01  0.803E-01
  -2.786  0.804E-01  0.804E-01
  -2.776  0.805E-01  0.805E-01
  -2.766  0.806E-01  0.806E-01
  -2.756  0.807E-01  0.807E-01
  -2.746  0.808E-01  0.808E-01
  -2.736  0.809E-01  0.809E-01
  -2.726  0.810E-01  0.810E-01
  -2.716  0.811E-01  0.811E-01
  -2.706  0.812E-01  0.812E-01
  -2.696  0.813E-01  0.813E-01
  -2.686  0.813E-01  0.813E-01
  -2.676  0.814E-01  0.814E-01
  -2.666  0.815E-01  0.815E-01
  -2.656  0.816E-01  0.816E-01
  -2.646  0.817E-01  0.817E-01
  -2.636  0.818E-01  0.818E-01
  -2.626  0.819E-01  0.819E-01
  -2.616  0.821E-01  0.821E-01
  -2.606  0.822E-01  0.822E-01
  -2.596  0.823E-01  0.823E-01
  -2.586  0.824E-01  0.824E-01
  -2.576  0.826E-01  0.826E-01
  -2.566  0.828E-01  0.828E-01
  -2.556  0.829E-01  0.829E-01
  -2.546  0.831E-01  0.831E-01
  -2.536  0.833E-01  0.833E-01
  -2.526  0.835E-01  0.835E-01
  -2.516  0.837E-01  0.837E-01
  -2.506  0.839E-01  0.839E-01
  -2.496  0.841E-01  0.841E-01
  -2.486  0.844E-01  0.844E-01
  -2.476  0.846E-01  0.846E-01
  -2.466  0.849E-01  0.849E-01
  -2.456  0.852E-01  0.852E-01
  -2.446  0.855E-01  0.855E-01
  -2.436  0.858E-01  0.858E-01
  -2.426  0.861E-01  0.861E-01
  -2.416  0.864E-01  0.864E-01
  -2.406  0.867E-01  0.867E-01
  -2.396  0.871E-01  0.871E-01
  -2.386  0.874E-01  0.874E-01
  -2.376  0.878E-01  0.878E-01
  -2.366  0.881E-01  0.881E-01
  -2.356  0.885E-01  0.885E-01
  -2.346  0.889E-01  0.889E-01
  -2.336  0.893E-01  0.893E-01
  -2.326  0.897E-01  0.897E-01
  -2.316  0.900E-01  0.900E-01
  -2.306  0.904E-01  0.904E-01
  -2.296  0.908E-01  0.908E-01
  -2.286  0.912E-01  0.912E-01
  -2.276  0.916E-01  0.916E-01
  -2.266  0.920E-01  0.920E-01
  -2.256  0.924E-01  0.924E-01
  -2.246  0.928E-01  0.928E-01
  -2.236  0.931E-01  0.931E-01
  -2.226  0.935E-01  0.935E-01
  -2.216  0.939E-01  0.939E-01
  -2.206  0.942E-01  0.942E-01
  -2.196  0.945E-01  0.945E-01
  -2.186  0.948E-01  0.948E-01
  -2.176  0.951E-01  0.951E-01
  -2.166  0.954E-01  0.954E-01
  -2.156  0.957E-01  0.957E-01
  -2.146  0.959E-01  0.959E-01
  -2.136  0.962E-01  0.962E-01
  -2.126  0.964E-01  0.964E-01
  -2.116  0.965E-01  0.965E-01
  -2.106  0.967E-01  0.967E-01
  -2.096  0.968E-01  0.968E-01
  -2.086  0.969E-01  0.969E-01
  -2.076  0.970E-01  0.970E-01
  -2.066  0.970E-01  0.970E-01
  -2.056  0.970E-01  0.970E-01
  -2.046  0.969E-01  0.969E-01
  -2.036  0.969E-01  0.969E-01
  -2.026  0.968E-01  0.968E-01
  -2.016  0.966E-01  0.966E-01
  -2.006  0.964E-01  0.964E-01
  -1.996  0.962E-01  0.962E-01
  -1.986  0.960E-01  0.960E-01
  -1.976  0.957E-01  0.957E-01
  -1.966  0.953E-01  0.953E-01
  -1.956  0.949E-01  0.949E-01
  -1.946  0.945E-01  0.945E-01
  -1.936  0.940E-01  0.940E-01
  -1.926  0.935E-01  0.935E-01
  -1.916  0.930E-01  0.930E-01
  -1.906  0.924E-01  0.924E-01
  -1.896  0.918E-01  0.918E-01
  -1.886  0.911E-01  0.911E-01
  -1.876  0.904E-01  0.904E-01
  -1.866  0.897E-01  0.897E-01
  -1.856  0.889E-01  0.889E-01
  -1.846  0.881E-01  0.881E-01
  -1.836  0.872E-01  0.872E-01
  -1.826  0.863E-01  0.863E-01
  -1.816  0.854E-01  0.854E-01
  -1.806  0.844E-01  0.844E-01
  -1.796  0.834E-01  0.834E-01
  -1.786  0.824E-01  0.824E-01
  -1.776  0.813E-01  0.813E-01
  -1.766  0.803E-01  0.803E-01
  -1.756  0.792E-01  0.792E-01
  -1.746  0.780E-01  0.780E-01
  -1.736  0.769E-01  0.769E-01
  -1.726  0.757E-01  0.757E-01
  -1.716  0.745E-01  0.745E-01
  -1.706  0.733E-01  0.733E-01
  -1.696  0.721E-01  0.721E-01
  -1.686  0.709E-01  0.709E-01
  -1.676  0.697E-01  0.697E-01
  -1.666  0.684E-01  0.684E-01
  -1.656  0.672E-01  0.672E-01
  -1.646  0.660E-01  0.660E-01
  -1.636  0.647E-01  0.647E-01
  -1.626  0.635E-01  0.635E-01
  -1.616  0.623E-01  0.623E-01
  -1.606  0.611E-01  0.611E-01
  -1.596  0.599E-01  0.599E-01
  -1.586  0.587E-01  0.587E-01
  -1.576  0.575E-01  0.575E-01
  -1.566  0.564E-01  0.564E-01
  -1.556  0.553E-01  0.553E-01
  -1.546  0.542E-01  0.542E-01
  -1.536  0.531E-01  0.531E-01
  -1.526  0.521E-01  0.521E-01
  -1.516  0.511E-01  0.511E-01
  -1.506  0.501E-01  0.501E-01
  -1.496  0.492E-01  0.492E-01
  -1.486  0.483E-01  0.483E-01
  -1.476  0.474E-01  0.474E-01
  -1.466  0.466E-01  0.466E-01
  -1.456  0.459E-01  0.459E-01
  -1.446  0.452E-01  0.452E-01
  -1.436  0.445E-01  0.445E-01
  -1.426  0.439E-01  0.439E-01
  -1.416  0.434E-01  0.434E-01
  -1.406  0.429E-01  0.429E-01
  -1.396  0.425E-01  0.425E-01
  -1.386  0.421E-01  0.421E-01
  -1.376  0.418E-01  0.418E-01
  -1.366  0.415E-01  0.415E-01
  -1.356  0.413E-01  0.413E-01
  -1.346  0.412E-01  0.412E-01
  -1.336  0.411E-01  0.411E-01
  -1.326  0.411E-01  0.411E-01
  -1.316  0.411E-01  0.411E-01
  -1.306  0.412E-01  0.412E-01
  -1.296  0.414E-01  0.414E-01
  -1.286  0.416E-01  0.416E-01
  -1.276  0.419E-01  0.419E-01
  -1.266  0.422E-01  0.422E-01
  -1.256  0.426E-01  0.426E-01
  -1.246  0.431E-01  0.431E-01
  -1.236  0.436E-01  0.436E-01
  -1.226  0.442E-01  0.442E-01
  -1.216  0.448E-01  0.448E-01
  -1.206  0.455E-01  0.455E-01
  -1.196  0.463E-01  0.463E-01
  -1.186  0.471E-01  0.471E-01
  -1.176  0.479E-01  0.479E-01
  -1.166  0.488E-01  0.488E-01
  -1.156  0.498E-01  0.498E-01
  -1.146  0.507E-01  0.507E-01
  -1.136  0.518E-01  0.518E-01
  -1.126  0.528E-01  0.528E-01
  -1.116  0.539E-01  0.539E-01
  -1.106  0.551E-01  0.551E-01
  -1.096  0.562E-01  0.562E-01
  -1.086  0.574E-01  0.574E-01
  -1.076  0.586E-01  0.586E-01
  -1.066  0.599E-01  0.599E-01
  -1.056  0.612E-01  0.612E-01
  -1.046  0.624E-01  0.624E-01
  -1.036  0.637E-01  0.637E-01
  -1.026  0.650E-01  0.650E-01
  -1.016  0.664E-01  0.664E-01
  -1.006  0.677E-01  0.677E-01
  -0.996  0.690E-01  0.690E-01
  -0.986  0.704E-01  0.704E-01
  -0.976  0.717E-01  0.717E-01
  -0.966  0.730E-01  0.730E-01
  -0.956  0.743E-01  0.743E-01
  -0.946  0.756E-01  0.756E-01
  -0.936  0.769E-01  0.769E-01
  -0.926  0.782E-01  0.782E-01
  -0.916  0.795E-01  0.795E-01
  -0.906  0.807E-01  0.807E-01
  -0.896  0.819E-01  0.819E-01
  -0.886  0.831E-01  0.831E-01
  -0.876  0.843E-01  0.843E-01
  -0.866  0.854E-01  0.854E-01
  -0.856  0.865E-01  0.865E-01
  -0.846  0.875E-01  0.875E-01
  -0.836  0.885E-01  0.885E-01
  -0.826  0.895E-01  0.895E-01
  -0.816  0.904E-01  0.904E-01
  -0.806  0.913E-01  0.913E-01
  -0.796  0.922E-01  0.922E-01
  -0.786  0.930E-01  0.930E-01
  -0.776  0.937E-01  0.937E-01
  -0.766  0.944E-01  0.944E-01
  -0.756  0.951E-01  0.951E-01
  -0.746  0.957E-01  0.957E-01
  -0.736  0.963E-01  0.963E-01
  -0.726  0.968E-01  0.968E-01
  -0.716  0.972E-01  0.972E-01
  -0.706  0.976E-01  0.976E-01
  -0.696  0.980E-01  0.980E-01
  -0.686  0.982E-01  0.982E-01
  -0.676  0.985E-01  0.985E-01
  -0.666  0.987E-01  0.987E-01
  -0.656  0.988E-01  0.988E-01
  -0.646  0.989E-01  0.989E-01
  -0.636  0.989E-01  0.989E-01
  -0.626  0.989E-01  0.989E-01
  -0.616  0.988E-01  0.988E-01
  -0.606  0.987E-01  0.987E-01
  -0.596  0.985E-01  0.985E-01
  -0.586  0.983E-01  0.983E-01
  -0.576  0.980E-01  0.980E-01
  -0.566  0.977E-01  0.977E-01
  -0.556  0.974E-01  0.974E-01
  -0.546  0.970E-01  0.970E-01
  -0.536  0.966E-01  0.966E-01
  -0.526  0.961E-01  0.961E-01
  -0.516  0.956E-01  0.956E-01
  -0.506  0.951E-01  0.951E-01
  -0.496  0.945E-01  0.945E-01
  -0.486  0.939E-01  0.939E-01
  -0.476  0.933E-01  0.933E-01
  -0.466  0.926E-01  0.926E-01
  -0.456  0.920E-01  0.920E-01
  -0.446  0.913E-01  0.913E-01
  -0.436  0.905E-01  0.905E-01
  -0.426  0.898E-01  0.898E-01
  -0.416  0.890E-01  0.890E-01
  -0.406  0.883E-01  0.883E-01
  -0.396  0.875E-01  0.875E-01
  -0.386  0.867E-01  0.867E-01
  -0.376  0.859E-01  0.859E-01
  -0.366  0.851E-01  0.851E-01
  -0.356  0.843E-01  0.843E-01
  -0.346  0.835E-01  0.835E-01
  -0.336  0.827E-01  0.827E-01
  -0.326  0.819E-01  0.819E-01
  -0.316  0.811E-01  0.811E-01
  -0.306  0.803E-01  0.803E-01
  -0.296  0.796E-01  0.796E-01
  -0.286  0.788E-01  0.788E-01
  -0.276  0.780E-01  0.780E-01
  -0.266  0.773E-01  0.773E-01
  -0.256  0.765E-01  0.765E-01
  -0.246  0.758E-01  0.758E-01
  -0.236  0.751E-01  0.751E-01
  -0.226  0.744E-01  0.744E-01
  -0.216  0.737E-01  0.737E-01
  -0.206  0.731E-01  0.731E-01
  -0.196  0.725E-01  0.725E-01
  -0.186  0.718E-01  0.718E-01
  -0.176  0.712E-01  0.712E-01
  -0.166  0.707E-01  0.707E-01
  -0.156  0.701E-01  0.701E-01
  -0.146  0.696E-01  0.696E-01
  -0.136  0.691E-01  0.691E-01
  -0.126  0.686E-01  0.686E-01
  -0.116  0.682E-01  0.682E-01
  -0.106  0.677E-01  0.677E-01
  -0.096  0.673E-01  0.673E-01
  -0.086  0.669E-01  0.669E-01
  -0.076  0.665E-01  0.665E-01
  -0.066  0.662E-01  0.662E-01
  -0.056  0.659E-01  0.659E-01
  -0.046  0.656E-01  0.656E-01
  -0.036  0.653E-01  0.653E-01
  -0.026  0.650E-01  0.650E-01
  -0.016  0.647E-01  0.647E-01
  -0.006  0.645E-01  0.645E-01
   0.004  0.643E-01  0.643E-01
   0.014  0.641E-01  0.641E-01
   0.024  0.639E-01  0.639E-01
   0.034  0.637E-01  0.637E-01
   0.044  0.636E-01  0.636E-01
   0.054  0.634E-01  0.634E-01
   0.064  0.633E-01  0.633E-01
   0.074  0.632E-01  0.632E-01
   0.084  0.630E-01  0.630E-01
   0.094  0.629E-01  0.629E-01
   0.104  0.628E-01  0.628E-01
   0.114  0.627E-01  0.627E-01
   0.124  0.626E-01  0.626E-01
   0.134  0.625E-01  0.625E-01
   0.144  0.624E-01  0.624E-01
   0.154  0.623E-01  0.623E-01
   0.164  0.622E-01  0.622E-01
   0.174  0.621E-01  0.621E-01
   0.184  0.620E-01  0.620E-01
   0.194  0.619E-01  0.619E-01
   0.204  0.618E-01  0.618E-01
   0.214  0.617E-01  0.617E-01
   0.224  0.616E-01  0.616E-01
   0.234  0.614E-01  0.614E-01
   0.244  0.613E-01  0.613E-01
   0.254  0.612E-01  0.612E-01
   0.264  0.610E-01  0.610E-01
   0.274  0.608E-01  0.608E-01
   0.284  0.606E-01  0.606E-01
   0.294  0.605E-01  0.605E-01
   0.304  0.603E-01  0.603E-01
   0.314  0.600E-01  0.600E-01
   0.324  0.598E-01  0.598E-01
   0.334  0.596E-01  0.596E-01
   0.344  0.593E-01  0.593E-01
   0.354  0.591E-01  0.591E-01
   0.364  0.588E-01  0.588E-01
   0.374  0.585E-01  0.585E-01
   0.384  0.582E-01  0.582E-01
   0.394  0.579E-01  0.579E-01
   0.404  0.576E-01  0.576E-01
   0.414  0.572E-01  0.572E-01
   0.424  0.569E-01  0.569E-01
   0.434  0.565E-01  0.565E-01
   0.444  0.562E-01  0.562E-01
   0.454  0.558E-01  0.558E-01
   0.464  0.554E-01  0.554E-01
   0.474  0.550E-01  0.550E-01
   0.484  0.546E-01  0.546E-01
   0.494  0.542E-01  0.542E-01
   0.504  0.538E-01  0.538E-01
   0.514  0.534E-01  0.534E-01
   0.524  0.530E-01  0.530E-01
   0.534  0.526E-01  0.526E-01
   0.544  0.522E-01  0.522E-01
   0.554  0.518E-01  0.518E-01
   0.564  0.514E-01  0.514E-01
   0.574  0.510E-01  0.510E-01
   0.584  0.506E-01  0.506E-01
   0.594  0.503E-01  0.503E-01
   0.604  0.499E-01  0.499E-01
   0.614  0.495E-01  0.495E-01
   0.624  0.492E-01  0.492E-01
   0.634  0.488E-01  0.488E-01
   0.644  0.485E-01  0.485E-01
   0.654  0.482E-01  0.482E-01
   0.664  0.479E-01  0.479E-01
   0.674  0.477E-01  0.477E-01
   0.684  0.474E-01  0.474E-01
   0.694  0.472E-01  0.472E-01
   0.704  0.470E-01  0.470E-01
   0.714  0.468E-01  0.468E-01
   0.724  0.467E-01  0.467E-01
   0.734  0.466E-01  0.466E-01
   0.744  0.465E-01  0.465E-01
   0.754  0.464E-01  0.464E-01
   0.764  0.464E-01  0.464E-01
   0.774  0.464E-01  0.464E-01
   0.784  0.464E-01  0.464E-01
   0.794  0.465E-01  0.465E-01
   0.804  0.466E-01  0.466E-01
   0.814  0.468E-01  0.468E-01
   0.824  0.470E-01  0.470E-01
   0.834  0.472E-01  0.472E-01
   0.844  0.475E-01  0.475E-01
   0.854  0.478E-01  0.478E-01
   0.864  0.481E-01  0.481E-01
   0.874  0.485E-01  0.485E-01
   0.884  0.490E-01  0.490E-01
   0.894  0.494E-01  0.494E-01
   0.904  0.500E-01  0.500E-01
   0.914  0.505E-01  0.505E-01
   0.924  0.512E-01  0.512E-01
   0.934  0.518E-01  0.518E-01
   0.944  0.525E-01  0.525E-01
   0.954  0.533E-01  0.533E-01
   0.964  0.541E-01  0.541E-01
   0.974  0.549E-01  0.549E-01
   0.984  0.558E-01  0.558E-01
   0.994  0.568E-01  0.568E-01
   1.004  0.577E-01  0.577E-01
   1.014  0.588E-01  0.588E-01
   1.024  0.598E-01  0.598E-01
   1.034  0.609E-01  0.609E-01
   1.044  0.621E-01  0.621E-01
   1.054  0.633E-01  0.633E-01
   1.064  0.645E-01  0.645E-01
   1.074  0.658E-01  0.658E-01
   1.084  0.671E-01  0.671E-01
   1.094  0.684E-01  0.684E-01
   1.104  0.698E-01  0.698E-01
   1.114  0.712E-01  0.712E-01
   1.124  0.727E-01  0.727E-01
   1.134  0.742E-01  0.742E-01
   1.144  0.757E-01  0.757E-01
   1.154  0.772E-01  0.772E-01
   1.164  0.788E-01  0.788E-01
   1.174  0.804E-01  0.804E-01
   1.184  0.820E-01  0.820E-01
   1.194  0.836E-01  0.836E-01
   1.204  0.853E-01  0.853E-01
   1.214  0.869E-01  0.869E-01
   1.224  0.886E-01  0.886E-01
   1.234  0.903E-01  0.903E-01
   1.244  0.920E-01  0.920E-01
   1.254  0.937E-01  0.937E-01
   1.264  0.955E-01  0.955E-01
   1.274  0.972E-01  0.972E-01
   1.284  0.989E-01  0.989E-01
   1.294  0.101E+00  0.101E+00
   1.304  0.102E+00  0.102E+00
   1.314  0.104E+00  0.104E+00
   1.324  0.106E+00  0.106E+00
   1.334  0.108E+00  0.108E+00
   1.344  0.109E+00  0.109E+00
   1.354  0.111E+00  0.111E+00
   1.364  0.113E+00  0.113E+00
   1.374  0.114E+00  0.114E+00
   1.384  0.116E+00  0.116E+00
   1.394  0.118E+00  0.118E+00
   1.404  0.119E+00  0.119E+00
   1.414  0.121E+00  0.121E+00
   1.424  0.122E+00  0.122E+00
   1.434  0.124E+00  0.124E+00
   1.444  0.125E+00  0.125E+00
   1.454  0.127E+00  0.127E+00
   1.464  0.128E+00  0.128E+00
   1.474  0.130E+00  0.130E+00
   1.484  0.131E+00  0.131E+00
   1.494  0.132E+00  0.132E+00
   1.504  0.134E+00  0.134E+00
   1.514  0.135E+00  0.135E+00
   1.524  0.136E+00  0.136E+00
   1.534  0.137E+00  0.137E+00
   1.544  0.138E+00  0.138E+00
   1.554  0.139E+00  0.139E+00
   1.564  0.140E+00  0.140E+00
   1.574  0.141E+00  0.141E+00
   1.584  0.142E+00  0.142E+00
   1.594  0.143E+00  0.143E+00
   1.604  0.144E+00  0.144E+00
   1.614  0.144E+00  0.144E+00
   1.624  0.145E+00  0.145E+00
   1.634  0.146E+00  0.146E+00
   1.644  0.146E+00  0.146E+00
   1.654  0.147E+00  0.147E+00
   1.664  0.147E+00  0.147E+00
   1.674  0.148E+00  0.148E+00
   1.684  0.148E+00  0.148E+00
   1.694  0.149E+00  0.149E+00
   1.704  0.149E+00  0.149E+00
   1.714  0.149E+00  0.149E+00
   1.724  0.149E+00  0.149E+00
   1.734  0.150E+00  0.150E+00
   1.744  0.150E+00  0.150E+00
   1.754  0.150E+00  0.150E+00
   1.764  0.150E+00  0.150E+00
   1.774  0.150E+00  0.150E+00
   1.784  0.150E+00  0.150E+00
   1.794  0.150E+00  0.150E+00
   1.804  0.149E+00  0.149E+00
   1.814  0.149E+00  0.149E+00
   1.824  0.149E+00  0.149E+00
   1.834  0.149E+00  0.149E+00
   1.844  0.149E+00  0.149E+00
   1.854  0.148E+00  0.148E+00
   1.864  0.148E+00  0.148E+00
   1.874  0.148E+00  0.148E+00
   1.884  0.147E+00  0.147E+00
   1.894  0.147E+00  0.147E+00
   1.904  0.146E+00  0.146E+00
   1.914  0.146E+00  0.146E+00
   1.924  0.145E+00  0.145E+00
   1.934  0.145E+00  0.145E+00
   1.944  0.144E+00  0.144E+00
   1.954  0.144E+00  0.144E+00
   1.964  0.144E+00  0.144E+00
   1.974  0.143E+00  0.143E+00
   1.984  0.143E+00  0.143E+00
   1.994  0.142E+00  0.142E+00
   2.004  0.142E+00  0.142E+00
   2.014  0.141E+00  0.141E+00
   2.024  0.141E+00  0.141E+00
   2.034  0.140E+00  0.140E+00
   2.044  0.140E+00  0.140E+00
   2.054  0.139E+00  0.139E+00
   2.064  0.139E+00  0.139E+00
   2.074  0.138E+00  0.138E+00
   2.084  0.138E+00  0.138E+00
   2.094  0.138E+00  0.138E+00
   2.104  0.137E+00  0.137E+00
   2.114  0.137E+00  0.137E+00
   2.124  0.137E+00  0.137E+00
   2.134  0.136E+00  0.136E+00
   2.144  0.136E+00  0.136E+00
   2.154  0.136E+00  0.136E+00
   2.164  0.136E+00  0.136E+00
   2.174  0.135E+00  0.135E+00
   2.184  0.135E+00  0.135E+00
   2.194  0.135E+00  0.135E+00
   2.204  0.135E+00  0.135E+00
   2.214  0.135E+00  0.135E+00
   2.224  0.135E+00  0.135E+00
   2.234  0.135E+00  0.135E+00
   2.244  0.135E+00  0.135E+00
   2.254  0.135E+00  0.135E+00
   2.264  0.136E+00  0.136E+00
   2.274  0.136E+00  0.136E+00
   2.284  0.136E+00  0.136E+00
   2.294  0.136E+00  0.136E+00
   2.304  0.137E+00  0.137E+00
   2.314  0.137E+00  0.137E+00
   2.324  0.137E+00  0.137E+00
   2.334  0.138E+00  0.138E+00
   2.344  0.138E+00  0.138E+00
   2.354  0.139E+00  0.139E+00
   2.364  0.139E+00  0.139E+00
   2.374  0.140E+00  0.140E+00
   2.384  0.140E+00  0.140E+00
   2.394  0.141E+00  0.141E+00
   2.404  0.141E+00  0.141E+00
   2.414  0.142E+00  0.142E+00
   2.424  0.142E+00  0.142E+00
   2.434  0.143E+00  0.143E+00
   2.444  0.144E+00  0.144E+00
   2.454  0.144E+00  0.144E+00
   2.464  0.145E+00  0.145E+00
   2.474  0.146E+00  0.146E+00
   2.484  0.147E+00  0.147E+00
   2.494  0.147E+00  0.147E+00
   2.504  0.148E+00  0.148E+00
   2.514  0.149E+00  0.149E+00
   2.524  0.150E+00  0.150E+00
   2.534  0.150E+00  0.150E+00
   2.544  0.151E+00  0.151E+00
   2.554  0.152E+00  0.152E+00
   2.564  0.152E+00  0.152E+00
   2.574  0.153E+00  0.153E+00
   2.584  0.154E+00  0.154E+00
   2.594  0.154E+00  0.154E+00
   2.604  0.155E+00  0.155E+00
   2.614  0.156E+00  0.156E+00
   2.624  0.156E+00  0.156E+00
   2.634  0.157E+00  0.157E+00
   2.644  0.158E+00  0.158E+00
   2.654  0.158E+00  0.158E+00
   2.664  0.159E+00  0.159E+00
   2.674  0.159E+00  0.159E+00
   2.684  0.159E+00  0.159E+00
   2.694  0.160E+00  0.160E+00
   2.704  0.160E+00  0.160E+00
   2.714  0.160E+00  0.160E+00
   2.724  0.161E+00  0.161E+00
   2.734  0.161E+00  0.161E+00
   2.744  0.161E+00  0.161E+00
   2.754  0.161E+00  0.161E+00
   2.764  0.161E+00  0.161E+00
   2.774  0.161E+00  0.161E+00
   2.784  0.161E+00  0.161E+00
   2.794  0.161E+00  0.161E+00
   2.804  0.161E+00  0.161E+00
   2.814  0.161E+00  0.161E+00
   2.824  0.160E+00  0.160E+00
   2.834  0.160E+00  0.160E+00
   2.844  0.160E+00  0.160E+00
   2.854  0.159E+00  0.159E+00
   2.864  0.159E+00  0.159E+00
   2.874  0.158E+00  0.158E+00
   2.884  0.158E+00  0.158E+00
   2.894  0.157E+00  0.157E+00
   2.904  0.156E+00  0.156E+00
   2.914  0.155E+00  0.155E+00
   2.924  0.154E+00  0.154E+00
   2.934  0.153E+00  0.153E+00
   2.944  0.152E+00  0.152E+00
   2.954  0.151E+00  0.151E+00
   2.964  0.150E+00  0.150E+00
   2.974  0.149E+00  0.149E+00
   2.984  0.148E+00  0.148E+00
   2.994  0.146E+00  0.146E+00
   3.004  0.145E+00  0.145E+00
   3.014  0.143E+00  0.143E+00
   3.024  0.142E+00  0.142E+00
   3.034  0.140E+00  0.140E+00
   3.044  0.139E+00  0.139E+00
   3.054  0.137E+00  0.137E+00
   3.064  0.135E+00  0.135E+00
   3.074  0.134E+00  0.134E+00
   3.084  0.132E+00  0.132E+00
   3.094  0.130E+00  0.130E+00
   3.104  0.128E+00  0.128E+00
   3.114  0.126E+00  0.126E+00
   3.124  0.124E+00  0.124E+00
   3.134  0.122E+00  0.122E+00
   3.144  0.120E+00  0.120E+00
   3.154  0.118E+00  0.118E+00
   3.164  0.116E+00  0.116E+00
   3.174  0.114E+00  0.114E+00
   3.184  0.112E+00  0.112E+00
   3.194  0.109E+00  0.109E+00
   3.204  0.107E+00  0.107E+00
   3.214  0.105E+00  0.105E+00
   3.224  0.103E+00  0.103E+00
   3.234  0.100E+00  0.100E+00
   3.244  0.980E-01  0.980E-01
   3.254  0.957E-01  0.957E-01
   3.264  0.934E-01  0.934E-01
   3.274  0.911E-01  0.911E-01
   3.284  0.887E-01  0.887E-01
   3.294  0.864E-01  0.864E-01
   3.304  0.841E-01  0.841E-01
   3.314  0.817E-01  0.817E-01
   3.324  0.794E-01  0.794E-01
   3.334  0.771E-01  0.771E-01
   3.344  0.748E-01  0.748E-01
   3.354  0.725E-01  0.725E-01
   3.364  0.702E-01  0.702E-01
   3.374  0.679E-01  0.679E-01
   3.384  0.656E-01  0.656E-01
   3.394  0.634E-01  0.634E-01
   3.404  0.612E-01  0.612E-01
   3.414  0.589E-01  0.589E-01
   3.424  0.568E-01  0.568E-01
   3.434  0.546E-01  0.546E-01
   3.444  0.525E-01  0.525E-01
   3.454  0.504E-01  0.504E-01
   3.464  0.483E-01  0.483E-01
   3.474  0.463E-01  0.463E-01
   3.484  0.443E-01  0.443E-01
   3.494  0.423E-01  0.423E-01
   3.504  0.404E-01  0.404E-01
   3.514  0.385E-01  0.385E-01
   3.524  0.366E-01  0.366E-01
   3.534  0.348E-01  0.348E-01
   3.544  0.330E-01  0.330E-01
   3.554  0.312E-01  0.312E-01
   3.564  0.295E-01  0.295E-01
   3.574  0.278E-01  0.278E-01
   3.584  0.262E-01  0.262E-01
   3.594  0.246E-01  0.246E-01
   3.604  0.231E-01  0.231E-01
   3.614  0.216E-01  0.216E-01
   3.624  0.201E-01  0.201E-01
   3.634  0.187E-01  0.187E-01
   3.644  0.174E-01  0.174E-01
   3.654  0.160E-01  0.160E-01
   3.664  0.148E-01  0.148E-01
   3.674  0.135E-01  0.135E-01
   3.684  0.123E-01  0.123E-01
   3.694  0.112E-01  0.112E-01
   3.704  0.101E-01  0.101E-01
   3.714  0.899E-02  0.899E-02
   3.724  0.797E-02  0.797E-02
   3.734  0.699E-02  0.699E-02
   3.744  0.605E-02  0.605E-02
   3.754  0.515E-02  0.515E-02
   3.764  0.429E-02  0.429E-02
   3.774  0.347E-02  0.347E-02
   3.784  0.268E-02  0.268E-02
   3.794  0.194E-02  0.194E-02
   3.804  0.124E-02  0.124E-02
   3.814  0.569E-03  0.569E-03
   3.824 -0.623E-04 -0.623E-04
   3.834 -0.658E-03 -0.658E-03
   3.844 -0.122E-02 -0.122E-02
   3.854 -0.175E-02 -0.175E-02
   3.864 -0.224E-02 -0.224E-02
   3.874 -0.270E-02 -0.270E-02
   3.884 -0.313E-02 -0.313E-02
   3.894 -0.354E-02 -0.354E-02
   3.904 -0.391E-02 -0.391E-02
   3.914 -0.425E-02 -0.425E-02
   3.924 -0.457E-02 -0.457E-02
   3.934 -0.485E-02 -0.485E-02
   3.944 -0.512E-02 -0.512E-02
   3.954 -0.536E-02 -0.536E-02
   3.964 -0.557E-02 -0.557E-02
   3.974 -0.576E-02 -0.576E-02
   3.984 -0.593E-02 -0.593E-02
   3.994 -0.608E-02 -0.608E-02
   4.004 -0.621E-02 -0.621E-02
   4.014 -0.632E-02 -0.632E-02
   4.024 -0.641E-02 -0.641E-02
   4.034 -0.649E-02 -0.649E-02
   4.044 -0.654E-02 -0.654E-02
   4.054 -0.658E-02 -0.658E-02
   4.064 -0.661E-02 -0.661E-02
   4.074 -0.662E-02 -0.662E-02
   4.084 -0.662E-02 -0.662E-02
   4.094 -0.661E-02 -0.661E-02
   4.104 -0.659E-02 -0.659E-02
   4.114 -0.655E-02 -0.655E-02
   4.124 -0.651E-02 -0.651E-02
   4.134 -0.645E-02 -0.645E-02
   4.144 -0.639E-02 -0.639E-02
   4.154 -0.632E-02 -0.632E-02
   4.164 -0.624E-02 -0.624E-02
   4.174 -0.615E-02 -0.615E-02
   4.184 -0.606E-02 -0.606E-02
   4.194 -0.596E-02 -0.596E-02
   4.204 -0.586E-02 -0.586E-02
   4.214 -0.575E-02 -0.575E-02
   4.224 -0.564E-02 -0.564E-02
   4.234 -0.553E-02 -0.553E-02
   4.244 -0.541E-02 -0.541E-02
   4.254 -0.529E-02 -0.529E-02
   4.264 -0.517E-02 -0.517E-02
   4.274 -0.504E-02 -0.504E-02
   4.284 -0.492E-02 -0.492E-02
   4.294 -0.479E-02 -0.479E-02
   4.304 -0.466E-02 -0.466E-02
   4.314 -0.454E-02 -0.454E-02
   4.324 -0.441E-02 -0.441E-02
   4.334 -0.428E-02 -0.428E-02
   4.344 -0.415E-02 -0.415E-02
   4.354 -0.403E-02 -0.403E-02
   4.364 -0.390E-02 -0.390E-02
   4.374 -0.377E-02 -0.377E-02
   4.384 -0.365E-02 -0.365E-02
   4.394 -0.353E-02 -0.353E-02
   4.404 -0.341E-02 -0.341E-02
   4.414 -0.329E-02 -0.329E-02
   4.424 -0.317E-02 -0.317E-02
   4.434 -0.306E-02 -0.306E-02
   4.444 -0.295E-02 -0.295E-02
   4.454 -0.284E-02 -0.284E-02
   4.464 -0.273E-02 -0.273E-02
   4.474 -0.262E-02 -0.262E-02
   4.484 -0.252E-02 -0.252E-02
   4.494 -0.242E-02 -0.242E-02
   4.504 -0.232E-02 -0.232E-02
   4.514 -0.222E-02 -0.222E-02
   4.524 -0.213E-02 -0.213E-02
   4.534 -0.204E-02 -0.204E-02
   4.544 -0.195E-02 -0.195E-02
   4.554 -0.187E-02 -0.187E-02
   4.564 -0.179E-02 -0.179E-02
   4.574 -0.171E-02 -0.171E-02
   4.584 -0.163E-02 -0.163E-02
   4.594 -0.156E-02 -0.156E-02
   4.604 -0.148E-02 -0.148E-02
   4.614 -0.141E-02 -0.141E-02
   4.624 -0.135E-02 -0.135E-02
   4.634 -0.128E-02 -0.128E-02
   4.644 -0.122E-02 -0.122E-02
   4.654 -0.116E-02 -0.116E-02
   4.664 -0.110E-02 -0.110E-02
   4.674 -0.105E-02 -0.105E-02
   4.684 -0.995E-03 -0.995E-03
   4.694 -0.944E-03 -0.944E-03
   4.704 -0.895E-03 -0.895E-03
   4.714 -0.849E-03 -0.849E-03
   4.724 -0.804E-03 -0.804E-03
   4.734 -0.761E-03 -0.761E-03
   4.744 -0.721E-03 -0.721E-03
   4.754 -0.682E-03 -0.682E-03
   4.764 -0.644E-03 -0.644E-03
   4.774 -0.609E-03 -0.609E-03
   4.784 -0.575E-03 -0.575E-03
   4.794 -0.543E-03 -0.543E-03
   4.804 -0.512E-03 -0.512E-03
   4.814 -0.483E-03 -0.483E-03
   4.824 -0.455E-03 -0.455E-03
   4.834 -0.429E-03 -0.429E-03
   4.844 -0.403E-03 -0.403E-03
   4.854 -0.380E-03 -0.380E-03
   4.864 -0.357E-03 -0.357E-03
   4.874 -0.336E-03 -0.336E-03
   4.884 -0.315E-03 -0.315E-03
   4.894 -0.296E-03 -0.296E-03
   4.904 -0.278E-03 -0.278E-03
   4.914 -0.261E-03 -0.261E-03
   4.924 -0.244E-03 -0.244E-03
   4.934 -0.229E-03 -0.229E-03
   4.944 -0.215E-03 -0.215E-03
   4.954 -0.201E-03 -0.201E-03
   4.964 -0.188E-03 -0.188E-03
   4.974 -0.176E-03 -0.176E-03
   4.984 -0.164E-03 -0.164E-03
   4.994 -0.154E-03 -0.154E-03
   5.004 -0.144E-03 -0.144E-03
   5.014 -0.134E-03 -0.134E-03
   5.024 -0.125E-03 -0.125E-03
   5.034 -0.117E-03 -0.117E-03
   5.044 -0.109E-03 -0.109E-03
   5.054 -0.101E-03 -0.101E-03
   5.064 -0.943E-04 -0.943E-04
   5.074 -0.878E-04 -0.878E-04
   5.084 -0.816E-04 -0.816E-04
   5.094 -0.759E-04 -0.759E-04
   5.104 -0.706E-04 -0.706E-04
   5.114 -0.656E-04 -0.656E-04
   5.124 -0.609E-04 -0.609E-04
   5.134 -0.565E-04 -0.565E-04
   5.144 -0.524E-04 -0.524E-04
   5.154 -0.486E-04 -0.486E-04
   5.164 -0.450E-04 -0.450E-04
   5.174 -0.417E-04 -0.417E-04
   5.184 -0.386E-04 -0.386E-04
   5.194 -0.358E-04 -0.358E-04
   5.204 -0.331E-04 -0.331E-04
   5.214 -0.306E-04 -0.306E-04
   5.224 -0.283E-04 -0.283E-04
   5.234 -0.261E-04 -0.261E-04
   5.244 -0.241E-04 -0.241E-04
   5.254 -0.223E-04 -0.223E-04
   5.264 -0.205E-04 -0.205E-04
   5.274 -0.189E-04 -0.189E-04
   5.284 -0.174E-04 -0.174E-04
   5.294 -0.161E-04 -0.161E-04
