# E (eV)   ldos(E)   pdos(E)   
 -27.116 -0.761E-07 -0.761E-07
 -27.106 -0.821E-07 -0.821E-07
 -27.096 -0.886E-07 -0.886E-07
 -27.086 -0.955E-07 -0.955E-07
 -27.076 -0.103E-06 -0.103E-06
 -27.066 -0.111E-06 -0.111E-06
 -27.056 -0.119E-06 -0.119E-06
 -27.046 -0.129E-06 -0.129E-06
 -27.036 -0.138E-06 -0.138E-06
 -27.026 -0.149E-06 -0.149E-06
 -27.016 -0.160E-06 -0.160E-06
 -27.006 -0.171E-06 -0.171E-06
 -26.996 -0.184E-06 -0.184E-06
 -26.986 -0.197E-06 -0.197E-06
 -26.976 -0.212E-06 -0.212E-06
 -26.966 -0.227E-06 -0.227E-06
 -26.956 -0.243E-06 -0.243E-06
 -26.946 -0.260E-06 -0.260E-06
 -26.936 -0.278E-06 -0.278E-06
 -26.926 -0.297E-06 -0.297E-06
 -26.916 -0.318E-06 -0.318E-06
 -26.906 -0.340E-06 -0.340E-06
 -26.896 -0.362E-06 -0.362E-06
 -26.886 -0.387E-06 -0.387E-06
 -26.876 -0.412E-06 -0.412E-06
 -26.866 -0.440E-06 -0.440E-06
 -26.856 -0.468E-06 -0.468E-06
 -26.846 -0.498E-06 -0.498E-06
 -26.836 -0.530E-06 -0.530E-06
 -26.826 -0.564E-06 -0.564E-06
 -26.816 -0.599E-06 -0.599E-06
 -26.806 -0.637E-06 -0.637E-06
 -26.796 -0.676E-06 -0.676E-06
 -26.786 -0.717E-06 -0.717E-06
 -26.776 -0.760E-06 -0.760E-06
 -26.766 -0.806E-06 -0.806E-06
 -26.756 -0.854E-06 -0.854E-06
 -26.746 -0.903E-06 -0.903E-06
 -26.736 -0.956E-06 -0.956E-06
 -26.726 -0.101E-05 -0.101E-05
 -26.716 -0.107E-05 -0.107E-05
 -26.706 -0.113E-05 -0.113E-05
 -26.696 -0.119E-05 -0.119E-05
 -26.686 -0.126E-05 -0.126E-05
 -26.676 -0.132E-05 -0.132E-05
 -26.666 -0.139E-05 -0.139E-05
 -26.656 -0.147E-05 -0.147E-05
 -26.646 -0.154E-05 -0.154E-05
 -26.636 -0.162E-05 -0.162E-05
 -26.626 -0.171E-05 -0.171E-05
 -26.616 -0.179E-05 -0.179E-05
 -26.606 -0.188E-05 -0.188E-05
 -26.596 -0.197E-05 -0.197E-05
 -26.586 -0.207E-05 -0.207E-05
 -26.576 -0.216E-05 -0.216E-05
 -26.566 -0.227E-05 -0.227E-05
 -26.556 -0.237E-05 -0.237E-05
 -26.546 -0.248E-05 -0.248E-05
 -26.536 -0.259E-05 -0.259E-05
 -26.526 -0.270E-05 -0.270E-05
 -26.516 -0.282E-05 -0.282E-05
 -26.506 -0.294E-05 -0.294E-05
 -26.496 -0.306E-05 -0.306E-05
 -26.486 -0.318E-05 -0.318E-05
 -26.476 -0.331E-05 -0.331E-05
 -26.466 -0.344E-05 -0.344E-05
 -26.456 -0.357E-05 -0.357E-05
 -26.446 -0.371E-05 -0.371E-05
 -26.436 -0.384E-05 -0.384E-05
 -26.426 -0.398E-05 -0.398E-05
 -26.416 -0.412E-05 -0.412E-05
 -26.406 -0.426E-05 -0.426E-05
 -26.396 -0.440E-05 -0.440E-05
 -26.386 -0.455E-05 -0.455E-05
 -26.376 -0.469E-05 -0.469E-05
 -26.366 -0.483E-05 -0.483E-05
 -26.356 -0.498E-05 -0.498E-05
 -26.346 -0.512E-05 -0.512E-05
 -26.336 -0.526E-05 -0.526E-05
 -26.326 -0.540E-05 -0.540E-05
 -26.316 -0.554E-05 -0.554E-05
 -26.306 -0.568E-05 -0.568E-05
 -26.296 -0.581E-05 -0.581E-05
 -26.286 -0.594E-05 -0.594E-05
 -26.276 -0.607E-05 -0.607E-05
 -26.266 -0.619E-05 -0.619E-05
 -26.256 -0.631E-05 -0.631E-05
 -26.246 -0.642E-05 -0.642E-05
 -26.236 -0.652E-05 -0.652E-05
 -26.226 -0.662E-05 -0.662E-05
 -26.216 -0.670E-05 -0.670E-05
 -26.206 -0.678E-05 -0.678E-05
 -26.196 -0.685E-05 -0.685E-05
 -26.186 -0.691E-05 -0.691E-05
 -26.176 -0.696E-05 -0.696E-05
 -26.166 -0.700E-05 -0.700E-05
 -26.156 -0.702E-05 -0.702E-05
 -26.146 -0.703E-05 -0.703E-05
 -26.136 -0.702E-05 -0.702E-05
 -26.126 -0.700E-05 -0.700E-05
 -26.116 -0.696E-05 -0.696E-05
 -26.106 -0.690E-05 -0.690E-05
 -26.096 -0.682E-05 -0.682E-05
 -26.086 -0.672E-05 -0.672E-05
 -26.076 -0.660E-05 -0.660E-05
 -26.066 -0.646E-05 -0.646E-05
 -26.056 -0.630E-05 -0.630E-05
 -26.046 -0.611E-05 -0.611E-05
 -26.036 -0.589E-05 -0.589E-05
 -26.026 -0.565E-05 -0.565E-05
 -26.016 -0.537E-05 -0.537E-05
 -26.006 -0.507E-05 -0.507E-05
 -25.996 -0.474E-05 -0.474E-05
 -25.986 -0.438E-05 -0.438E-05
 -25.976 -0.398E-05 -0.398E-05
 -25.966 -0.355E-05 -0.355E-05
 -25.956 -0.309E-05 -0.309E-05
 -25.946 -0.259E-05 -0.259E-05
 -25.936 -0.205E-05 -0.205E-05
 -25.926 -0.148E-05 -0.148E-05
 -25.916 -0.860E-06 -0.860E-06
 -25.906 -0.205E-06 -0.205E-06
 -25.896  0.491E-06  0.491E-06
 -25.886  0.123E-05  0.123E-05
 -25.876  0.201E-05  0.201E-05
 -25.866  0.283E-05  0.283E-05
 -25.856  0.370E-05  0.370E-05
 -25.846  0.462E-05  0.462E-05
 -25.836  0.557E-05  0.557E-05
 -25.826  0.658E-05  0.658E-05
 -25.816  0.763E-05  0.763E-05
 -25.806  0.873E-05  0.873E-05
 -25.796  0.988E-05  0.988E-05
 -25.786  0.111E-04  0.111E-04
 -25.776  0.123E-04  0.123E-04
 -25.766  0.136E-04  0.136E-04
 -25.756  0.149E-04  0.149E-04
 -25.746  0.163E-04  0.163E-04
 -25.736  0.178E-04  0.178E-04
 -25.726  0.192E-04  0.192E-04
 -25.716  0.208E-04  0.208E-04
 -25.706  0.223E-04  0.223E-04
 -25.696  0.239E-04  0.239E-04
 -25.686  0.256E-04  0.256E-04
 -25.676  0.273E-04  0.273E-04
 -25.666  0.291E-04  0.291E-04
 -25.656  0.309E-04  0.309E-04
 -25.646  0.327E-04  0.327E-04
 -25.636  0.346E-04  0.346E-04
 -25.626  0.365E-04  0.365E-04
 -25.616  0.384E-04  0.384E-04
 -25.606  0.404E-04  0.404E-04
 -25.596  0.424E-04  0.424E-04
 -25.586  0.445E-04  0.445E-04
 -25.576  0.466E-04  0.466E-04
 -25.566  0.487E-04  0.487E-04
 -25.556  0.508E-04  0.508E-04
 -25.546  0.530E-04  0.530E-04
 -25.536  0.552E-04  0.552E-04
 -25.526  0.574E-04  0.574E-04
 -25.516  0.596E-04  0.596E-04
 -25.506  0.618E-04  0.618E-04
 -25.496  0.640E-04  0.640E-04
 -25.486  0.663E-04  0.663E-04
 -25.476  0.685E-04  0.685E-04
 -25.466  0.708E-04  0.708E-04
 -25.456  0.730E-04  0.730E-04
 -25.446  0.753E-04  0.753E-04
 -25.436  0.775E-04  0.775E-04
 -25.426  0.798E-04  0.798E-04
 -25.416  0.820E-04  0.820E-04
 -25.406  0.842E-04  0.842E-04
 -25.396  0.864E-04  0.864E-04
 -25.386  0.886E-04  0.886E-04
 -25.376  0.907E-04  0.907E-04
 -25.366  0.928E-04  0.928E-04
 -25.356  0.949E-04  0.949E-04
 -25.346  0.969E-04  0.969E-04
 -25.336  0.989E-04  0.989E-04
 -25.326  0.101E-03  0.101E-03
 -25.316  0.103E-03  0.103E-03
 -25.306  0.105E-03  0.105E-03
 -25.296  0.107E-03  0.107E-03
 -25.286  0.108E-03  0.108E-03
 -25.276  0.110E-03  0.110E-03
 -25.266  0.112E-03  0.112E-03
 -25.256  0.113E-03  0.113E-03
 -25.246  0.115E-03  0.115E-03
 -25.236  0.116E-03  0.116E-03
 -25.226  0.118E-03  0.118E-03
 -25.216  0.119E-03  0.119E-03
 -25.206  0.120E-03  0.120E-03
 -25.196  0.121E-03  0.121E-03
 -25.186  0.122E-03  0.122E-03
 -25.176  0.123E-03  0.123E-03
 -25.166  0.124E-03  0.124E-03
 -25.156  0.125E-03  0.125E-03
 -25.146  0.126E-03  0.126E-03
 -25.136  0.126E-03  0.126E-03
 -25.126  0.127E-03  0.127E-03
 -25.116  0.127E-03  0.127E-03
 -25.106  0.128E-03  0.128E-03
 -25.096  0.128E-03  0.128E-03
 -25.086  0.128E-03  0.128E-03
 -25.076  0.128E-03  0.128E-03
 -25.066  0.128E-03  0.128E-03
 -25.056  0.128E-03  0.128E-03
 -25.046  0.128E-03  0.128E-03
 -25.036  0.128E-03  0.128E-03
 -25.026  0.128E-03  0.128E-03
 -25.016  0.127E-03  0.127E-03
 -25.006  0.127E-03  0.127E-03
 -24.996  0.126E-03  0.126E-03
 -24.986  0.125E-03  0.125E-03
 -24.976  0.124E-03  0.124E-03
 -24.966  0.124E-03  0.124E-03
 -24.956  0.123E-03  0.123E-03
 -24.946  0.121E-03  0.121E-03
 -24.936  0.120E-03  0.120E-03
 -24.926  0.119E-03  0.119E-03
 -24.916  0.118E-03  0.118E-03
 -24.906  0.116E-03  0.116E-03
 -24.896  0.115E-03  0.115E-03
 -24.886  0.114E-03  0.114E-03
 -24.876  0.112E-03  0.112E-03
 -24.866  0.110E-03  0.110E-03
 -24.856  0.109E-03  0.109E-03
 -24.846  0.107E-03  0.107E-03
 -24.836  0.105E-03  0.105E-03
 -24.826  0.103E-03  0.103E-03
 -24.816  0.101E-03  0.101E-03
 -24.806  0.994E-04  0.994E-04
 -24.796  0.974E-04  0.974E-04
 -24.786  0.954E-04  0.954E-04
 -24.776  0.933E-04  0.933E-04
 -24.766  0.912E-04  0.912E-04
 -24.756  0.891E-04  0.891E-04
 -24.746  0.869E-04  0.869E-04
 -24.736  0.847E-04  0.847E-04
 -24.726  0.825E-04  0.825E-04
 -24.716  0.803E-04  0.803E-04
 -24.706  0.781E-04  0.781E-04
 -24.696  0.758E-04  0.758E-04
 -24.686  0.736E-04  0.736E-04
 -24.676  0.713E-04  0.713E-04
 -24.666  0.691E-04  0.691E-04
 -24.656  0.668E-04  0.668E-04
 -24.646  0.646E-04  0.646E-04
 -24.636  0.623E-04  0.623E-04
 -24.626  0.601E-04  0.601E-04
 -24.616  0.579E-04  0.579E-04
 -24.606  0.557E-04  0.557E-04
 -24.596  0.535E-04  0.535E-04
 -24.586  0.513E-04  0.513E-04
 -24.576  0.492E-04  0.492E-04
 -24.566  0.471E-04  0.471E-04
 -24.556  0.450E-04  0.450E-04
 -24.546  0.429E-04  0.429E-04
 -24.536  0.409E-04  0.409E-04
 -24.526  0.389E-04  0.389E-04
 -24.516  0.369E-04  0.369E-04
 -24.506  0.350E-04  0.350E-04
 -24.496  0.331E-04  0.331E-04
 -24.486  0.313E-04  0.313E-04
 -24.476  0.295E-04  0.295E-04
 -24.466  0.277E-04  0.277E-04
 -24.456  0.260E-04  0.260E-04
 -24.446  0.243E-04  0.243E-04
 -24.436  0.227E-04  0.227E-04
 -24.426  0.211E-04  0.211E-04
 -24.416  0.196E-04  0.196E-04
 -24.406  0.181E-04  0.181E-04
 -24.396  0.167E-04  0.167E-04
 -24.386  0.153E-04  0.153E-04
 -24.376  0.139E-04  0.139E-04
 -24.366  0.126E-04  0.126E-04
 -24.356  0.114E-04  0.114E-04
 -24.346  0.102E-04  0.102E-04
 -24.336  0.900E-05  0.900E-05
 -24.326  0.789E-05  0.789E-05
 -24.316  0.682E-05  0.682E-05
 -24.306  0.581E-05  0.581E-05
 -24.296  0.484E-05  0.484E-05
 -24.286  0.391E-05  0.391E-05
 -24.276  0.304E-05  0.304E-05
 -24.266  0.220E-05  0.220E-05
 -24.256  0.141E-05  0.141E-05
 -24.246  0.662E-06  0.662E-06
 -24.236 -0.440E-07 -0.440E-07
 -24.226 -0.709E-06 -0.709E-06
 -24.216 -0.133E-05 -0.133E-05
 -24.206 -0.192E-05 -0.192E-05
 -24.196 -0.246E-05 -0.246E-05
 -24.186 -0.297E-05 -0.297E-05
 -24.176 -0.345E-05 -0.345E-05
 -24.166 -0.389E-05 -0.389E-05
 -24.156 -0.429E-05 -0.429E-05
 -24.146 -0.466E-05 -0.466E-05
 -24.136 -0.500E-05 -0.500E-05
 -24.126 -0.531E-05 -0.531E-05
 -24.116 -0.558E-05 -0.558E-05
 -24.106 -0.583E-05 -0.583E-05
 -24.096 -0.606E-05 -0.606E-05
 -24.086 -0.625E-05 -0.625E-05
 -24.076 -0.643E-05 -0.643E-05
 -24.066 -0.657E-05 -0.657E-05
 -24.056 -0.670E-05 -0.670E-05
 -24.046 -0.680E-05 -0.680E-05
 -24.036 -0.688E-05 -0.688E-05
 -24.026 -0.695E-05 -0.695E-05
 -24.016 -0.699E-05 -0.699E-05
 -24.006 -0.702E-05 -0.702E-05
 -23.996 -0.703E-05 -0.703E-05
 -23.986 -0.702E-05 -0.702E-05
 -23.976 -0.700E-05 -0.700E-05
 -23.966 -0.697E-05 -0.697E-05
 -23.956 -0.693E-05 -0.693E-05
 -23.946 -0.687E-05 -0.687E-05
 -23.936 -0.680E-05 -0.680E-05
 -23.926 -0.672E-05 -0.672E-05
 -23.916 -0.664E-05 -0.664E-05
 -23.906 -0.654E-05 -0.654E-05
 -23.896 -0.644E-05 -0.644E-05
 -23.886 -0.633E-05 -0.633E-05
 -23.876 -0.622E-05 -0.622E-05
 -23.866 -0.610E-05 -0.610E-05
 -23.856 -0.597E-05 -0.597E-05
 -23.846 -0.584E-05 -0.584E-05
 -23.836 -0.571E-05 -0.571E-05
 -23.826 -0.557E-05 -0.557E-05
 -23.816 -0.544E-05 -0.544E-05
 -23.806 -0.530E-05 -0.530E-05
 -23.796 -0.515E-05 -0.515E-05
 -23.786 -0.501E-05 -0.501E-05
 -23.776 -0.487E-05 -0.487E-05
 -23.766 -0.472E-05 -0.472E-05
 -23.756 -0.458E-05 -0.458E-05
 -23.746 -0.444E-05 -0.444E-05
 -23.736 -0.430E-05 -0.430E-05
 -23.726 -0.415E-05 -0.415E-05
 -23.716 -0.401E-05 -0.401E-05
 -23.706 -0.388E-05 -0.388E-05
 -23.696 -0.374E-05 -0.374E-05
 -23.686 -0.360E-05 -0.360E-05
 -23.676 -0.347E-05 -0.347E-05
 -23.666 -0.334E-05 -0.334E-05
 -23.656 -0.321E-05 -0.321E-05
 -23.646 -0.309E-05 -0.309E-05
 -23.636 -0.296E-05 -0.296E-05
 -23.626 -0.284E-05 -0.284E-05
 -23.616 -0.273E-05 -0.273E-05
 -23.606 -0.261E-05 -0.261E-05
 -23.596 -0.250E-05 -0.250E-05
 -23.586 -0.239E-05 -0.239E-05
 -23.576 -0.229E-05 -0.229E-05
 -23.566 -0.219E-05 -0.219E-05
 -23.556 -0.209E-05 -0.209E-05
 -23.546 -0.199E-05 -0.199E-05
 -23.536 -0.190E-05 -0.190E-05
 -23.526 -0.181E-05 -0.181E-05
 -23.516 -0.173E-05 -0.173E-05
 -23.506 -0.164E-05 -0.164E-05
 -23.496 -0.156E-05 -0.156E-05
 -23.486 -0.149E-05 -0.149E-05
 -23.476 -0.141E-05 -0.141E-05
 -23.466 -0.134E-05 -0.134E-05
 -23.456 -0.127E-05 -0.127E-05
 -23.446 -0.121E-05 -0.121E-05
 -23.436 -0.114E-05 -0.114E-05
 -23.426 -0.108E-05 -0.108E-05
 -23.416 -0.102E-05 -0.102E-05
 -23.406 -0.969E-06 -0.969E-06
 -23.396 -0.916E-06 -0.916E-06
 -23.386 -0.865E-06 -0.865E-06
 -23.376 -0.817E-06 -0.817E-06
 -23.366 -0.771E-06 -0.771E-06
 -23.356 -0.727E-06 -0.727E-06
 -23.346 -0.685E-06 -0.685E-06
 -23.336 -0.646E-06 -0.646E-06
 -23.326 -0.608E-06 -0.608E-06
 -23.316 -0.572E-06 -0.572E-06
 -23.306 -0.538E-06 -0.538E-06
 -23.296 -0.506E-06 -0.506E-06
 -23.286 -0.475E-06 -0.475E-06
 -23.276 -0.446E-06 -0.446E-06
 -23.266 -0.419E-06 -0.419E-06
 -23.256 -0.393E-06 -0.393E-06
 -23.246 -0.368E-06 -0.368E-06
 -23.236 -0.345E-06 -0.345E-06
 -23.226 -0.323E-06 -0.323E-06
 -23.216 -0.302E-06 -0.302E-06
 -23.206 -0.283E-06 -0.283E-06
 -23.196 -0.264E-06 -0.264E-06
 -23.186 -0.247E-06 -0.247E-06
 -23.176 -0.231E-06 -0.231E-06
 -23.166 -0.215E-06 -0.215E-06
 -23.156 -0.201E-06 -0.201E-06
 -23.146 -0.187E-06 -0.187E-06
 -23.136 -0.174E-06 -0.174E-06
 -23.126 -0.162E-06 -0.162E-06
 -23.116 -0.151E-06 -0.151E-06
 -23.106 -0.141E-06 -0.141E-06
 -23.096 -0.131E-06 -0.131E-06
 -23.086 -0.122E-06 -0.122E-06
 -23.076 -0.113E-06 -0.113E-06
 -23.066 -0.105E-06 -0.105E-06
 -23.056 -0.974E-07 -0.974E-07
 -23.046 -0.904E-07 -0.904E-07
 -23.036 -0.838E-07 -0.838E-07
 -23.026 -0.777E-07 -0.777E-07
 -23.016 -0.720E-07 -0.720E-07
 -23.006 -0.667E-07 -0.667E-07
 -22.996 -0.617E-07 -0.617E-07
 -22.986 -0.572E-07 -0.572E-07
 -22.976 -0.529E-07 -0.529E-07
 -22.966 -0.489E-07 -0.489E-07
 -22.956 -0.453E-07 -0.453E-07
 -22.946 -0.419E-07 -0.419E-07
 -22.936 -0.387E-07 -0.387E-07
 -22.926 -0.358E-07 -0.358E-07
 -22.916 -0.331E-07 -0.331E-07
 -22.906 -0.307E-07 -0.307E-07
 -22.896 -0.284E-07 -0.284E-07
 -22.886 -0.263E-07 -0.263E-07
 -22.876 -0.244E-07 -0.244E-07
 -22.866 -0.226E-07 -0.226E-07
 -22.856 -0.210E-07 -0.210E-07
 -22.846 -0.196E-07 -0.196E-07
 -22.836 -0.183E-07 -0.183E-07
 -22.826 -0.171E-07 -0.171E-07
 -22.816 -0.160E-07 -0.160E-07
 -22.806 -0.151E-07 -0.151E-07
 -22.796 -0.143E-07 -0.143E-07
 -22.786 -0.136E-07 -0.136E-07
 -22.776 -0.130E-07 -0.130E-07
 -22.766 -0.125E-07 -0.125E-07
 -22.756 -0.121E-07 -0.121E-07
 -22.746 -0.118E-07 -0.118E-07
 -22.736 -0.116E-07 -0.116E-07
 -22.726 -0.115E-07 -0.115E-07
 -22.716 -0.115E-07 -0.115E-07
 -22.706 -0.115E-07 -0.115E-07
 -22.696 -0.117E-07 -0.117E-07
 -22.686 -0.120E-07 -0.120E-07
 -22.676 -0.124E-07 -0.124E-07
 -22.666 -0.129E-07 -0.129E-07
 -22.656 -0.134E-07 -0.134E-07
 -22.646 -0.141E-07 -0.141E-07
 -22.636 -0.150E-07 -0.150E-07
 -22.626 -0.159E-07 -0.159E-07
 -22.616 -0.169E-07 -0.169E-07
 -22.606 -0.181E-07 -0.181E-07
 -22.596 -0.195E-07 -0.195E-07
 -22.586 -0.210E-07 -0.210E-07
 -22.576 -0.226E-07 -0.226E-07
 -22.566 -0.244E-07 -0.244E-07
 -22.556 -0.264E-07 -0.264E-07
 -22.546 -0.286E-07 -0.286E-07
 -22.536 -0.310E-07 -0.310E-07
 -22.526 -0.337E-07 -0.337E-07
 -22.516 -0.365E-07 -0.365E-07
 -22.506 -0.396E-07 -0.396E-07
 -22.496 -0.430E-07 -0.430E-07
 -22.486 -0.467E-07 -0.467E-07
 -22.476 -0.507E-07 -0.507E-07
 -22.466 -0.550E-07 -0.550E-07
 -22.456 -0.597E-07 -0.597E-07
 -22.446 -0.648E-07 -0.648E-07
 -22.436 -0.703E-07 -0.703E-07
 -22.426 -0.762E-07 -0.762E-07
 -22.416 -0.826E-07 -0.826E-07
 -22.406 -0.895E-07 -0.895E-07
 -22.396 -0.969E-07 -0.969E-07
 -22.386 -0.105E-06 -0.105E-06
 -22.376 -0.114E-06 -0.114E-06
 -22.366 -0.123E-06 -0.123E-06
 -22.356 -0.133E-06 -0.133E-06
 -22.346 -0.143E-06 -0.143E-06
 -22.336 -0.155E-06 -0.155E-06
 -22.326 -0.167E-06 -0.167E-06
 -22.316 -0.181E-06 -0.181E-06
 -22.306 -0.195E-06 -0.195E-06
 -22.296 -0.210E-06 -0.210E-06
 -22.286 -0.226E-06 -0.226E-06
 -22.276 -0.244E-06 -0.244E-06
 -22.266 -0.262E-06 -0.262E-06
 -22.256 -0.282E-06 -0.282E-06
 -22.246 -0.303E-06 -0.303E-06
 -22.236 -0.326E-06 -0.326E-06
 -22.226 -0.350E-06 -0.350E-06
 -22.216 -0.376E-06 -0.376E-06
 -22.206 -0.403E-06 -0.403E-06
 -22.196 -0.432E-06 -0.432E-06
 -22.186 -0.463E-06 -0.463E-06
 -22.176 -0.496E-06 -0.496E-06
 -22.166 -0.532E-06 -0.532E-06
 -22.156 -0.569E-06 -0.569E-06
 -22.146 -0.608E-06 -0.608E-06
 -22.136 -0.650E-06 -0.650E-06
 -22.126 -0.695E-06 -0.695E-06
 -22.116 -0.742E-06 -0.742E-06
 -22.106 -0.792E-06 -0.792E-06
 -22.096 -0.845E-06 -0.845E-06
 -22.086 -0.901E-06 -0.901E-06
 -22.076 -0.960E-06 -0.960E-06
 -22.066 -0.102E-05 -0.102E-05
 -22.056 -0.109E-05 -0.109E-05
 -22.046 -0.116E-05 -0.116E-05
 -22.036 -0.123E-05 -0.123E-05
 -22.026 -0.131E-05 -0.131E-05
 -22.016 -0.139E-05 -0.139E-05
 -22.006 -0.147E-05 -0.147E-05
 -21.996 -0.156E-05 -0.156E-05
 -21.986 -0.166E-05 -0.166E-05
 -21.976 -0.175E-05 -0.175E-05
 -21.966 -0.186E-05 -0.186E-05
 -21.956 -0.197E-05 -0.197E-05
 -21.946 -0.208E-05 -0.208E-05
 -21.936 -0.220E-05 -0.220E-05
 -21.926 -0.232E-05 -0.232E-05
 -21.916 -0.245E-05 -0.245E-05
 -21.906 -0.259E-05 -0.259E-05
 -21.896 -0.273E-05 -0.273E-05
 -21.886 -0.288E-05 -0.288E-05
 -21.876 -0.303E-05 -0.303E-05
 -21.866 -0.319E-05 -0.319E-05
 -21.856 -0.335E-05 -0.335E-05
 -21.846 -0.352E-05 -0.352E-05
 -21.836 -0.370E-05 -0.370E-05
 -21.826 -0.389E-05 -0.389E-05
 -21.816 -0.408E-05 -0.408E-05
 -21.806 -0.428E-05 -0.428E-05
 -21.796 -0.448E-05 -0.448E-05
 -21.786 -0.469E-05 -0.469E-05
 -21.776 -0.491E-05 -0.491E-05
 -21.766 -0.514E-05 -0.514E-05
 -21.756 -0.537E-05 -0.537E-05
 -21.746 -0.561E-05 -0.561E-05
 -21.736 -0.585E-05 -0.585E-05
 -21.726 -0.610E-05 -0.610E-05
 -21.716 -0.636E-05 -0.636E-05
 -21.706 -0.663E-05 -0.663E-05
 -21.696 -0.690E-05 -0.690E-05
 -21.686 -0.717E-05 -0.717E-05
 -21.676 -0.745E-05 -0.745E-05
 -21.666 -0.774E-05 -0.774E-05
 -21.656 -0.803E-05 -0.803E-05
 -21.646 -0.833E-05 -0.833E-05
 -21.636 -0.863E-05 -0.863E-05
 -21.626 -0.893E-05 -0.893E-05
 -21.616 -0.924E-05 -0.924E-05
 -21.606 -0.955E-05 -0.955E-05
 -21.596 -0.987E-05 -0.987E-05
 -21.586 -0.102E-04 -0.102E-04
 -21.576 -0.105E-04 -0.105E-04
 -21.566 -0.108E-04 -0.108E-04
 -21.556 -0.111E-04 -0.111E-04
 -21.546 -0.114E-04 -0.114E-04
 -21.536 -0.118E-04 -0.118E-04
 -21.526 -0.121E-04 -0.121E-04
 -21.516 -0.124E-04 -0.124E-04
 -21.506 -0.127E-04 -0.127E-04
 -21.496 -0.130E-04 -0.130E-04
 -21.486 -0.133E-04 -0.133E-04
 -21.476 -0.136E-04 -0.136E-04
 -21.466 -0.138E-04 -0.138E-04
 -21.456 -0.141E-04 -0.141E-04
 -21.446 -0.144E-04 -0.144E-04
 -21.436 -0.146E-04 -0.146E-04
 -21.426 -0.148E-04 -0.148E-04
 -21.416 -0.151E-04 -0.151E-04
 -21.406 -0.153E-04 -0.153E-04
 -21.396 -0.154E-04 -0.154E-04
 -21.386 -0.156E-04 -0.156E-04
 -21.376 -0.158E-04 -0.158E-04
 -21.366 -0.159E-04 -0.159E-04
 -21.356 -0.160E-04 -0.160E-04
 -21.346 -0.161E-04 -0.161E-04
 -21.336 -0.161E-04 -0.161E-04
 -21.326 -0.161E-04 -0.161E-04
 -21.316 -0.161E-04 -0.161E-04
 -21.306 -0.161E-04 -0.161E-04
 -21.296 -0.160E-04 -0.160E-04
 -21.286 -0.160E-04 -0.160E-04
 -21.276 -0.158E-04 -0.158E-04
 -21.266 -0.157E-04 -0.157E-04
 -21.256 -0.155E-04 -0.155E-04
 -21.246 -0.152E-04 -0.152E-04
 -21.236 -0.150E-04 -0.150E-04
 -21.226 -0.147E-04 -0.147E-04
 -21.216 -0.143E-04 -0.143E-04
 -21.206 -0.140E-04 -0.140E-04
 -21.196 -0.135E-04 -0.135E-04
 -21.186 -0.131E-04 -0.131E-04
 -21.176 -0.126E-04 -0.126E-04
 -21.166 -0.120E-04 -0.120E-04
 -21.156 -0.115E-04 -0.115E-04
 -21.146 -0.108E-04 -0.108E-04
 -21.136 -0.102E-04 -0.102E-04
 -21.126 -0.951E-05 -0.951E-05
 -21.116 -0.878E-05 -0.878E-05
 -21.106 -0.802E-05 -0.802E-05
 -21.096 -0.724E-05 -0.724E-05
 -21.086 -0.642E-05 -0.642E-05
 -21.076 -0.557E-05 -0.557E-05
 -21.066 -0.470E-05 -0.470E-05
 -21.056 -0.381E-05 -0.381E-05
 -21.046 -0.291E-05 -0.291E-05
 -21.036 -0.199E-05 -0.199E-05
 -21.026 -0.106E-05 -0.106E-05
 -21.016 -0.125E-06 -0.125E-06
 -21.006  0.807E-06  0.807E-06
 -20.996  0.173E-05  0.173E-05
 -20.986  0.264E-05  0.264E-05
 -20.976  0.353E-05  0.353E-05
 -20.966  0.440E-05  0.440E-05
 -20.956  0.523E-05  0.523E-05
 -20.946  0.601E-05  0.601E-05
 -20.936  0.675E-05  0.675E-05
 -20.926  0.742E-05  0.742E-05
 -20.916  0.802E-05  0.802E-05
 -20.906  0.854E-05  0.854E-05
 -20.896  0.896E-05  0.896E-05
 -20.886  0.928E-05  0.928E-05
 -20.876  0.949E-05  0.949E-05
 -20.866  0.956E-05  0.956E-05
 -20.856  0.949E-05  0.949E-05
 -20.846  0.927E-05  0.927E-05
 -20.836  0.887E-05  0.887E-05
 -20.826  0.828E-05  0.828E-05
 -20.816  0.749E-05  0.749E-05
 -20.806  0.648E-05  0.648E-05
 -20.796  0.524E-05  0.524E-05
 -20.786  0.374E-05  0.374E-05
 -20.776  0.198E-05  0.198E-05
 -20.766 -0.817E-07 -0.817E-07
 -20.756 -0.245E-05 -0.245E-05
 -20.746 -0.514E-05 -0.514E-05
 -20.736 -0.818E-05 -0.818E-05
 -20.726 -0.116E-04 -0.116E-04
 -20.716 -0.154E-04 -0.154E-04
 -20.706 -0.196E-04 -0.196E-04
 -20.696 -0.242E-04 -0.242E-04
 -20.686 -0.293E-04 -0.293E-04
 -20.676 -0.348E-04 -0.348E-04
 -20.666 -0.409E-04 -0.409E-04
 -20.656 -0.474E-04 -0.474E-04
 -20.646 -0.545E-04 -0.545E-04
 -20.636 -0.621E-04 -0.621E-04
 -20.626 -0.703E-04 -0.703E-04
 -20.616 -0.791E-04 -0.791E-04
 -20.606 -0.885E-04 -0.885E-04
 -20.596 -0.985E-04 -0.985E-04
 -20.586 -0.109E-03 -0.109E-03
 -20.576 -0.121E-03 -0.121E-03
 -20.566 -0.133E-03 -0.133E-03
 -20.556 -0.145E-03 -0.145E-03
 -20.546 -0.159E-03 -0.159E-03
 -20.536 -0.173E-03 -0.173E-03
 -20.526 -0.188E-03 -0.188E-03
 -20.516 -0.203E-03 -0.203E-03
 -20.506 -0.220E-03 -0.220E-03
 -20.496 -0.237E-03 -0.237E-03
 -20.486 -0.255E-03 -0.255E-03
 -20.476 -0.273E-03 -0.273E-03
 -20.466 -0.293E-03 -0.293E-03
 -20.456 -0.313E-03 -0.313E-03
 -20.446 -0.334E-03 -0.334E-03
 -20.436 -0.355E-03 -0.355E-03
 -20.426 -0.378E-03 -0.378E-03
 -20.416 -0.401E-03 -0.401E-03
 -20.406 -0.425E-03 -0.425E-03
 -20.396 -0.449E-03 -0.449E-03
 -20.386 -0.474E-03 -0.474E-03
 -20.376 -0.500E-03 -0.500E-03
 -20.366 -0.526E-03 -0.526E-03
 -20.356 -0.553E-03 -0.553E-03
 -20.346 -0.580E-03 -0.580E-03
 -20.336 -0.608E-03 -0.608E-03
 -20.326 -0.636E-03 -0.636E-03
 -20.316 -0.665E-03 -0.665E-03
 -20.306 -0.694E-03 -0.694E-03
 -20.296 -0.723E-03 -0.723E-03
 -20.286 -0.752E-03 -0.752E-03
 -20.276 -0.781E-03 -0.781E-03
 -20.266 -0.811E-03 -0.811E-03
 -20.256 -0.840E-03 -0.840E-03
 -20.246 -0.869E-03 -0.869E-03
 -20.236 -0.897E-03 -0.897E-03
 -20.226 -0.926E-03 -0.926E-03
 -20.216 -0.953E-03 -0.953E-03
 -20.206 -0.980E-03 -0.980E-03
 -20.196 -0.101E-02 -0.101E-02
 -20.186 -0.103E-02 -0.103E-02
 -20.176 -0.106E-02 -0.106E-02
 -20.166 -0.108E-02 -0.108E-02
 -20.156 -0.110E-02 -0.110E-02
 -20.146 -0.112E-02 -0.112E-02
 -20.136 -0.114E-02 -0.114E-02
 -20.126 -0.116E-02 -0.116E-02
 -20.116 -0.117E-02 -0.117E-02
 -20.106 -0.118E-02 -0.118E-02
 -20.096 -0.119E-02 -0.119E-02
 -20.086 -0.120E-02 -0.120E-02
 -20.076 -0.121E-02 -0.121E-02
 -20.066 -0.121E-02 -0.121E-02
 -20.056 -0.120E-02 -0.120E-02
 -20.046 -0.120E-02 -0.120E-02
 -20.036 -0.119E-02 -0.119E-02
 -20.026 -0.118E-02 -0.118E-02
 -20.016 -0.116E-02 -0.116E-02
 -20.006 -0.114E-02 -0.114E-02
 -19.996 -0.112E-02 -0.112E-02
 -19.986 -0.108E-02 -0.108E-02
 -19.976 -0.105E-02 -0.105E-02
 -19.966 -0.101E-02 -0.101E-02
 -19.956 -0.962E-03 -0.962E-03
 -19.946 -0.910E-03 -0.910E-03
 -19.936 -0.852E-03 -0.852E-03
 -19.926 -0.788E-03 -0.788E-03
 -19.916 -0.717E-03 -0.717E-03
 -19.906 -0.640E-03 -0.640E-03
 -19.896 -0.555E-03 -0.555E-03
 -19.886 -0.463E-03 -0.463E-03
 -19.876 -0.364E-03 -0.364E-03
 -19.866 -0.258E-03 -0.258E-03
 -19.856 -0.143E-03 -0.143E-03
 -19.846 -0.205E-04 -0.205E-04
 -19.836  0.110E-03  0.110E-03
 -19.826  0.250E-03  0.250E-03
 -19.816  0.398E-03  0.398E-03
 -19.806  0.554E-03  0.554E-03
 -19.796  0.720E-03  0.720E-03
 -19.786  0.895E-03  0.895E-03
 -19.776  0.108E-02  0.108E-02
 -19.766  0.127E-02  0.127E-02
 -19.756  0.148E-02  0.148E-02
 -19.746  0.169E-02  0.169E-02
 -19.736  0.191E-02  0.191E-02
 -19.726  0.214E-02  0.214E-02
 -19.716  0.238E-02  0.238E-02
 -19.706  0.264E-02  0.264E-02
 -19.696  0.290E-02  0.290E-02
 -19.686  0.317E-02  0.317E-02
 -19.676  0.345E-02  0.345E-02
 -19.666  0.374E-02  0.374E-02
 -19.656  0.404E-02  0.404E-02
 -19.646  0.435E-02  0.435E-02
 -19.636  0.467E-02  0.467E-02
 -19.626  0.500E-02  0.500E-02
 -19.616  0.534E-02  0.534E-02
 -19.606  0.569E-02  0.569E-02
 -19.596  0.604E-02  0.604E-02
 -19.586  0.641E-02  0.641E-02
 -19.576  0.678E-02  0.678E-02
 -19.566  0.717E-02  0.717E-02
 -19.556  0.756E-02  0.756E-02
 -19.546  0.795E-02  0.795E-02
 -19.536  0.836E-02  0.836E-02
 -19.526  0.877E-02  0.877E-02
 -19.516  0.919E-02  0.919E-02
 -19.506  0.961E-02  0.961E-02
 -19.496  0.100E-01  0.100E-01
 -19.486  0.105E-01  0.105E-01
 -19.476  0.109E-01  0.109E-01
 -19.466  0.114E-01  0.114E-01
 -19.456  0.118E-01  0.118E-01
 -19.446  0.123E-01  0.123E-01
 -19.436  0.127E-01  0.127E-01
 -19.426  0.132E-01  0.132E-01
 -19.416  0.136E-01  0.136E-01
 -19.406  0.141E-01  0.141E-01
 -19.396  0.146E-01  0.146E-01
 -19.386  0.150E-01  0.150E-01
 -19.376  0.155E-01  0.155E-01
 -19.366  0.159E-01  0.159E-01
 -19.356  0.164E-01  0.164E-01
 -19.346  0.168E-01  0.168E-01
 -19.336  0.173E-01  0.173E-01
 -19.326  0.177E-01  0.177E-01
 -19.316  0.182E-01  0.182E-01
 -19.306  0.186E-01  0.186E-01
 -19.296  0.190E-01  0.190E-01
 -19.286  0.195E-01  0.195E-01
 -19.276  0.199E-01  0.199E-01
 -19.266  0.203E-01  0.203E-01
 -19.256  0.207E-01  0.207E-01
 -19.246  0.211E-01  0.211E-01
 -19.236  0.215E-01  0.215E-01
 -19.226  0.218E-01  0.218E-01
 -19.216  0.222E-01  0.222E-01
 -19.206  0.225E-01  0.225E-01
 -19.196  0.229E-01  0.229E-01
 -19.186  0.232E-01  0.232E-01
 -19.176  0.235E-01  0.235E-01
 -19.166  0.238E-01  0.238E-01
 -19.156  0.241E-01  0.241E-01
 -19.146  0.243E-01  0.243E-01
 -19.136  0.246E-01  0.246E-01
 -19.126  0.248E-01  0.248E-01
 -19.116  0.250E-01  0.250E-01
 -19.106  0.252E-01  0.252E-01
 -19.096  0.254E-01  0.254E-01
 -19.086  0.256E-01  0.256E-01
 -19.076  0.257E-01  0.257E-01
 -19.066  0.258E-01  0.258E-01
 -19.056  0.259E-01  0.259E-01
 -19.046  0.260E-01  0.260E-01
 -19.036  0.261E-01  0.261E-01
 -19.026  0.262E-01  0.262E-01
 -19.016  0.262E-01  0.262E-01
 -19.006  0.262E-01  0.262E-01
 -18.996  0.262E-01  0.262E-01
 -18.986  0.262E-01  0.262E-01
 -18.976  0.261E-01  0.261E-01
 -18.966  0.261E-01  0.261E-01
 -18.956  0.260E-01  0.260E-01
 -18.946  0.259E-01  0.259E-01
 -18.936  0.258E-01  0.258E-01
 -18.926  0.257E-01  0.257E-01
 -18.916  0.255E-01  0.255E-01
 -18.906  0.253E-01  0.253E-01
 -18.896  0.252E-01  0.252E-01
 -18.886  0.249E-01  0.249E-01
 -18.876  0.247E-01  0.247E-01
 -18.866  0.245E-01  0.245E-01
 -18.856  0.242E-01  0.242E-01
 -18.846  0.240E-01  0.240E-01
 -18.836  0.237E-01  0.237E-01
 -18.826  0.234E-01  0.234E-01
 -18.816  0.231E-01  0.231E-01
 -18.806  0.227E-01  0.227E-01
 -18.796  0.224E-01  0.224E-01
 -18.786  0.220E-01  0.220E-01
 -18.776  0.217E-01  0.217E-01
 -18.766  0.213E-01  0.213E-01
 -18.756  0.209E-01  0.209E-01
 -18.746  0.205E-01  0.205E-01
 -18.736  0.201E-01  0.201E-01
 -18.726  0.197E-01  0.197E-01
 -18.716  0.193E-01  0.193E-01
 -18.706  0.188E-01  0.188E-01
 -18.696  0.184E-01  0.184E-01
 -18.686  0.179E-01  0.179E-01
 -18.676  0.175E-01  0.175E-01
 -18.666  0.170E-01  0.170E-01
 -18.656  0.166E-01  0.166E-01
 -18.646  0.161E-01  0.161E-01
 -18.636  0.156E-01  0.156E-01
 -18.626  0.151E-01  0.151E-01
 -18.616  0.147E-01  0.147E-01
 -18.606  0.142E-01  0.142E-01
 -18.596  0.137E-01  0.137E-01
 -18.586  0.132E-01  0.132E-01
 -18.576  0.128E-01  0.128E-01
 -18.566  0.123E-01  0.123E-01
 -18.556  0.118E-01  0.118E-01
 -18.546  0.113E-01  0.113E-01
 -18.536  0.109E-01  0.109E-01
 -18.526  0.104E-01  0.104E-01
 -18.516  0.992E-02  0.992E-02
 -18.506  0.945E-02  0.945E-02
 -18.496  0.900E-02  0.900E-02
 -18.486  0.854E-02  0.854E-02
 -18.476  0.809E-02  0.809E-02
 -18.466  0.765E-02  0.765E-02
 -18.456  0.721E-02  0.721E-02
 -18.446  0.677E-02  0.677E-02
 -18.436  0.635E-02  0.635E-02
 -18.426  0.593E-02  0.593E-02
 -18.416  0.551E-02  0.551E-02
 -18.406  0.511E-02  0.511E-02
 -18.396  0.471E-02  0.471E-02
 -18.386  0.432E-02  0.432E-02
 -18.376  0.393E-02  0.393E-02
 -18.366  0.355E-02  0.355E-02
 -18.356  0.319E-02  0.319E-02
 -18.346  0.283E-02  0.283E-02
 -18.336  0.247E-02  0.247E-02
 -18.326  0.213E-02  0.213E-02
 -18.316  0.179E-02  0.179E-02
 -18.306  0.147E-02  0.147E-02
 -18.296  0.115E-02  0.115E-02
 -18.286  0.838E-03  0.838E-03
 -18.276  0.536E-03  0.536E-03
 -18.266  0.244E-03  0.244E-03
 -18.256 -0.407E-04 -0.407E-04
 -18.246 -0.316E-03 -0.316E-03
 -18.236 -0.583E-03 -0.583E-03
 -18.226 -0.842E-03 -0.842E-03
 -18.216 -0.109E-02 -0.109E-02
 -18.206 -0.133E-02 -0.133E-02
 -18.196 -0.157E-02 -0.157E-02
 -18.186 -0.179E-02 -0.179E-02
 -18.176 -0.201E-02 -0.201E-02
 -18.166 -0.221E-02 -0.221E-02
 -18.156 -0.241E-02 -0.241E-02
 -18.146 -0.260E-02 -0.260E-02
 -18.136 -0.278E-02 -0.278E-02
 -18.126 -0.296E-02 -0.296E-02
 -18.116 -0.312E-02 -0.312E-02
 -18.106 -0.328E-02 -0.328E-02
 -18.096 -0.343E-02 -0.343E-02
 -18.086 -0.357E-02 -0.357E-02
 -18.076 -0.370E-02 -0.370E-02
 -18.066 -0.382E-02 -0.382E-02
 -18.056 -0.394E-02 -0.394E-02
 -18.046 -0.404E-02 -0.404E-02
 -18.036 -0.414E-02 -0.414E-02
 -18.026 -0.423E-02 -0.423E-02
 -18.016 -0.431E-02 -0.431E-02
 -18.006 -0.438E-02 -0.438E-02
 -17.996 -0.444E-02 -0.444E-02
 -17.986 -0.449E-02 -0.449E-02
 -17.976 -0.453E-02 -0.453E-02
 -17.966 -0.457E-02 -0.457E-02
 -17.956 -0.459E-02 -0.459E-02
 -17.946 -0.460E-02 -0.460E-02
 -17.936 -0.461E-02 -0.461E-02
 -17.926 -0.460E-02 -0.460E-02
 -17.916 -0.458E-02 -0.458E-02
 -17.906 -0.455E-02 -0.455E-02
 -17.896 -0.451E-02 -0.451E-02
 -17.886 -0.446E-02 -0.446E-02
 -17.876 -0.440E-02 -0.440E-02
 -17.866 -0.433E-02 -0.433E-02
 -17.856 -0.424E-02 -0.424E-02
 -17.846 -0.414E-02 -0.414E-02
 -17.836 -0.402E-02 -0.402E-02
 -17.826 -0.390E-02 -0.390E-02
 -17.816 -0.376E-02 -0.376E-02
 -17.806 -0.360E-02 -0.360E-02
 -17.796 -0.343E-02 -0.343E-02
 -17.786 -0.325E-02 -0.325E-02
 -17.776 -0.305E-02 -0.305E-02
 -17.766 -0.284E-02 -0.284E-02
 -17.756 -0.260E-02 -0.260E-02
 -17.746 -0.236E-02 -0.236E-02
 -17.736 -0.209E-02 -0.209E-02
 -17.726 -0.181E-02 -0.181E-02
 -17.716 -0.152E-02 -0.152E-02
 -17.706 -0.120E-02 -0.120E-02
 -17.696 -0.865E-03 -0.865E-03
 -17.686 -0.513E-03 -0.513E-03
 -17.676 -0.143E-03 -0.143E-03
 -17.666  0.247E-03  0.247E-03
 -17.656  0.656E-03  0.656E-03
 -17.646  0.108E-02  0.108E-02
 -17.636  0.153E-02  0.153E-02
 -17.626  0.200E-02  0.200E-02
 -17.616  0.249E-02  0.249E-02
 -17.606  0.299E-02  0.299E-02
 -17.596  0.352E-02  0.352E-02
 -17.586  0.407E-02  0.407E-02
 -17.576  0.464E-02  0.464E-02
 -17.566  0.523E-02  0.523E-02
 -17.556  0.584E-02  0.584E-02
 -17.546  0.647E-02  0.647E-02
 -17.536  0.712E-02  0.712E-02
 -17.526  0.779E-02  0.779E-02
 -17.516  0.848E-02  0.848E-02
 -17.506  0.919E-02  0.919E-02
 -17.496  0.991E-02  0.991E-02
 -17.486  0.107E-01  0.107E-01
 -17.476  0.114E-01  0.114E-01
 -17.466  0.122E-01  0.122E-01
 -17.456  0.130E-01  0.130E-01
 -17.446  0.138E-01  0.138E-01
 -17.436  0.147E-01  0.147E-01
 -17.426  0.155E-01  0.155E-01
 -17.416  0.164E-01  0.164E-01
 -17.406  0.173E-01  0.173E-01
 -17.396  0.182E-01  0.182E-01
 -17.386  0.191E-01  0.191E-01
 -17.376  0.200E-01  0.200E-01
 -17.366  0.210E-01  0.210E-01
 -17.356  0.219E-01  0.219E-01
 -17.346  0.229E-01  0.229E-01
 -17.336  0.238E-01  0.238E-01
 -17.326  0.248E-01  0.248E-01
 -17.316  0.258E-01  0.258E-01
 -17.306  0.268E-01  0.268E-01
 -17.296  0.278E-01  0.278E-01
 -17.286  0.288E-01  0.288E-01
 -17.276  0.298E-01  0.298E-01
 -17.266  0.308E-01  0.308E-01
 -17.256  0.318E-01  0.318E-01
 -17.246  0.328E-01  0.328E-01
 -17.236  0.338E-01  0.338E-01
 -17.226  0.347E-01  0.347E-01
 -17.216  0.357E-01  0.357E-01
 -17.206  0.367E-01  0.367E-01
 -17.196  0.377E-01  0.377E-01
 -17.186  0.387E-01  0.387E-01
 -17.176  0.396E-01  0.396E-01
 -17.166  0.406E-01  0.406E-01
 -17.156  0.415E-01  0.415E-01
 -17.146  0.424E-01  0.424E-01
 -17.136  0.433E-01  0.433E-01
 -17.126  0.442E-01  0.442E-01
 -17.116  0.451E-01  0.451E-01
 -17.106  0.459E-01  0.459E-01
 -17.096  0.467E-01  0.467E-01
 -17.086  0.475E-01  0.475E-01
 -17.076  0.483E-01  0.483E-01
 -17.066  0.491E-01  0.491E-01
 -17.056  0.498E-01  0.498E-01
 -17.046  0.505E-01  0.505E-01
 -17.036  0.512E-01  0.512E-01
 -17.026  0.519E-01  0.519E-01
 -17.016  0.525E-01  0.525E-01
 -17.006  0.531E-01  0.531E-01
 -16.996  0.537E-01  0.537E-01
 -16.986  0.542E-01  0.542E-01
 -16.976  0.547E-01  0.547E-01
 -16.966  0.552E-01  0.552E-01
 -16.956  0.556E-01  0.556E-01
 -16.946  0.560E-01  0.560E-01
 -16.936  0.564E-01  0.564E-01
 -16.926  0.567E-01  0.567E-01
 -16.916  0.570E-01  0.570E-01
 -16.906  0.573E-01  0.573E-01
 -16.896  0.575E-01  0.575E-01
 -16.886  0.577E-01  0.577E-01
 -16.876  0.579E-01  0.579E-01
 -16.866  0.580E-01  0.580E-01
 -16.856  0.581E-01  0.581E-01
 -16.846  0.581E-01  0.581E-01
 -16.836  0.582E-01  0.582E-01
 -16.826  0.581E-01  0.581E-01
 -16.816  0.581E-01  0.581E-01
 -16.806  0.580E-01  0.580E-01
 -16.796  0.579E-01  0.579E-01
 -16.786  0.577E-01  0.577E-01
 -16.776  0.576E-01  0.576E-01
 -16.766  0.574E-01  0.574E-01
 -16.756  0.571E-01  0.571E-01
 -16.746  0.568E-01  0.568E-01
 -16.736  0.565E-01  0.565E-01
 -16.726  0.562E-01  0.562E-01
 -16.716  0.558E-01  0.558E-01
 -16.706  0.555E-01  0.555E-01
 -16.696  0.550E-01  0.550E-01
 -16.686  0.546E-01  0.546E-01
 -16.676  0.542E-01  0.542E-01
 -16.666  0.537E-01  0.537E-01
 -16.656  0.532E-01  0.532E-01
 -16.646  0.526E-01  0.526E-01
 -16.636  0.521E-01  0.521E-01
 -16.626  0.515E-01  0.515E-01
 -16.616  0.509E-01  0.509E-01
 -16.606  0.503E-01  0.503E-01
 -16.596  0.497E-01  0.497E-01
 -16.586  0.491E-01  0.491E-01
 -16.576  0.485E-01  0.485E-01
 -16.566  0.478E-01  0.478E-01
 -16.556  0.472E-01  0.472E-01
 -16.546  0.465E-01  0.465E-01
 -16.536  0.458E-01  0.458E-01
 -16.526  0.451E-01  0.451E-01
 -16.516  0.444E-01  0.444E-01
 -16.506  0.437E-01  0.437E-01
 -16.496  0.430E-01  0.430E-01
 -16.486  0.423E-01  0.423E-01
 -16.476  0.416E-01  0.416E-01
 -16.466  0.409E-01  0.409E-01
 -16.456  0.402E-01  0.402E-01
 -16.446  0.395E-01  0.395E-01
 -16.436  0.388E-01  0.388E-01
 -16.426  0.381E-01  0.381E-01
 -16.416  0.374E-01  0.374E-01
 -16.406  0.367E-01  0.367E-01
 -16.396  0.360E-01  0.360E-01
 -16.386  0.353E-01  0.353E-01
 -16.376  0.346E-01  0.346E-01
 -16.366  0.339E-01  0.339E-01
 -16.356  0.333E-01  0.333E-01
 -16.346  0.326E-01  0.326E-01
 -16.336  0.319E-01  0.319E-01
 -16.326  0.313E-01  0.313E-01
 -16.316  0.307E-01  0.307E-01
 -16.306  0.300E-01  0.300E-01
 -16.296  0.294E-01  0.294E-01
 -16.286  0.288E-01  0.288E-01
 -16.276  0.282E-01  0.282E-01
 -16.266  0.276E-01  0.276E-01
 -16.256  0.270E-01  0.270E-01
 -16.246  0.265E-01  0.265E-01
 -16.236  0.259E-01  0.259E-01
 -16.226  0.253E-01  0.253E-01
 -16.216  0.248E-01  0.248E-01
 -16.206  0.243E-01  0.243E-01
 -16.196  0.238E-01  0.238E-01
 -16.186  0.232E-01  0.232E-01
 -16.176  0.227E-01  0.227E-01
 -16.166  0.222E-01  0.222E-01
 -16.156  0.218E-01  0.218E-01
 -16.146  0.213E-01  0.213E-01
 -16.136  0.208E-01  0.208E-01
 -16.126  0.204E-01  0.204E-01
 -16.116  0.199E-01  0.199E-01
 -16.106  0.195E-01  0.195E-01
 -16.096  0.191E-01  0.191E-01
 -16.086  0.186E-01  0.186E-01
 -16.076  0.182E-01  0.182E-01
 -16.066  0.178E-01  0.178E-01
 -16.056  0.174E-01  0.174E-01
 -16.046  0.170E-01  0.170E-01
 -16.036  0.166E-01  0.166E-01
 -16.026  0.163E-01  0.163E-01
 -16.016  0.159E-01  0.159E-01
 -16.006  0.155E-01  0.155E-01
 -15.996  0.152E-01  0.152E-01
 -15.986  0.148E-01  0.148E-01
 -15.976  0.145E-01  0.145E-01
 -15.966  0.141E-01  0.141E-01
 -15.956  0.138E-01  0.138E-01
 -15.946  0.134E-01  0.134E-01
 -15.936  0.131E-01  0.131E-01
 -15.926  0.128E-01  0.128E-01
 -15.916  0.125E-01  0.125E-01
 -15.906  0.121E-01  0.121E-01
 -15.896  0.118E-01  0.118E-01
 -15.886  0.115E-01  0.115E-01
 -15.876  0.112E-01  0.112E-01
 -15.866  0.109E-01  0.109E-01
 -15.856  0.106E-01  0.106E-01
 -15.846  0.103E-01  0.103E-01
 -15.836  0.100E-01  0.100E-01
 -15.826  0.970E-02  0.970E-02
 -15.816  0.941E-02  0.941E-02
 -15.806  0.912E-02  0.912E-02
 -15.796  0.883E-02  0.883E-02
 -15.786  0.855E-02  0.855E-02
 -15.776  0.827E-02  0.827E-02
 -15.766  0.799E-02  0.799E-02
 -15.756  0.771E-02  0.771E-02
 -15.746  0.744E-02  0.744E-02
 -15.736  0.717E-02  0.717E-02
 -15.726  0.690E-02  0.690E-02
 -15.716  0.663E-02  0.663E-02
 -15.706  0.637E-02  0.637E-02
 -15.696  0.611E-02  0.611E-02
 -15.686  0.585E-02  0.585E-02
 -15.676  0.559E-02  0.559E-02
 -15.666  0.534E-02  0.534E-02
 -15.656  0.509E-02  0.509E-02
 -15.646  0.484E-02  0.484E-02
 -15.636  0.460E-02  0.460E-02
 -15.626  0.436E-02  0.436E-02
 -15.616  0.412E-02  0.412E-02
 -15.606  0.388E-02  0.388E-02
 -15.596  0.365E-02  0.365E-02
 -15.586  0.342E-02  0.342E-02
 -15.576  0.320E-02  0.320E-02
 -15.566  0.298E-02  0.298E-02
 -15.556  0.276E-02  0.276E-02
 -15.546  0.254E-02  0.254E-02
 -15.536  0.233E-02  0.233E-02
 -15.526  0.212E-02  0.212E-02
 -15.516  0.192E-02  0.192E-02
 -15.506  0.172E-02  0.172E-02
 -15.496  0.152E-02  0.152E-02
 -15.486  0.133E-02  0.133E-02
 -15.476  0.114E-02  0.114E-02
 -15.466  0.950E-03  0.950E-03
 -15.456  0.766E-03  0.766E-03
 -15.446  0.586E-03  0.586E-03
 -15.436  0.410E-03  0.410E-03
 -15.426  0.237E-03  0.237E-03
 -15.416  0.671E-04  0.671E-04
 -15.406 -0.993E-04 -0.993E-04
 -15.396 -0.262E-03 -0.262E-03
 -15.386 -0.422E-03 -0.422E-03
 -15.376 -0.579E-03 -0.579E-03
 -15.366 -0.732E-03 -0.732E-03
 -15.356 -0.882E-03 -0.882E-03
 -15.346 -0.103E-02 -0.103E-02
 -15.336 -0.117E-02 -0.117E-02
 -15.326 -0.132E-02 -0.132E-02
 -15.316 -0.145E-02 -0.145E-02
 -15.306 -0.159E-02 -0.159E-02
 -15.296 -0.172E-02 -0.172E-02
 -15.286 -0.185E-02 -0.185E-02
 -15.276 -0.198E-02 -0.198E-02
 -15.266 -0.211E-02 -0.211E-02
 -15.256 -0.223E-02 -0.223E-02
 -15.246 -0.235E-02 -0.235E-02
 -15.236 -0.247E-02 -0.247E-02
 -15.226 -0.259E-02 -0.259E-02
 -15.216 -0.271E-02 -0.271E-02
 -15.206 -0.282E-02 -0.282E-02
 -15.196 -0.293E-02 -0.293E-02
 -15.186 -0.304E-02 -0.304E-02
 -15.176 -0.315E-02 -0.315E-02
 -15.166 -0.325E-02 -0.325E-02
 -15.156 -0.336E-02 -0.336E-02
 -15.146 -0.346E-02 -0.346E-02
 -15.136 -0.356E-02 -0.356E-02
 -15.126 -0.366E-02 -0.366E-02
 -15.116 -0.375E-02 -0.375E-02
 -15.106 -0.385E-02 -0.385E-02
 -15.096 -0.394E-02 -0.394E-02
 -15.086 -0.403E-02 -0.403E-02
 -15.076 -0.412E-02 -0.412E-02
 -15.066 -0.421E-02 -0.421E-02
 -15.056 -0.429E-02 -0.429E-02
 -15.046 -0.437E-02 -0.437E-02
 -15.036 -0.445E-02 -0.445E-02
 -15.026 -0.453E-02 -0.453E-02
 -15.016 -0.460E-02 -0.460E-02
 -15.006 -0.467E-02 -0.467E-02
 -14.996 -0.473E-02 -0.473E-02
 -14.986 -0.480E-02 -0.480E-02
 -14.976 -0.485E-02 -0.485E-02
 -14.966 -0.491E-02 -0.491E-02
 -14.956 -0.495E-02 -0.495E-02
 -14.946 -0.500E-02 -0.500E-02
 -14.936 -0.504E-02 -0.504E-02
 -14.926 -0.507E-02 -0.507E-02
 -14.916 -0.510E-02 -0.510E-02
 -14.906 -0.512E-02 -0.512E-02
 -14.896 -0.513E-02 -0.513E-02
 -14.886 -0.513E-02 -0.513E-02
 -14.876 -0.513E-02 -0.513E-02
 -14.866 -0.512E-02 -0.512E-02
 -14.856 -0.510E-02 -0.510E-02
 -14.846 -0.507E-02 -0.507E-02
 -14.836 -0.503E-02 -0.503E-02
 -14.826 -0.498E-02 -0.498E-02
 -14.816 -0.492E-02 -0.492E-02
 -14.806 -0.484E-02 -0.484E-02
 -14.796 -0.476E-02 -0.476E-02
 -14.786 -0.466E-02 -0.466E-02
 -14.776 -0.455E-02 -0.455E-02
 -14.766 -0.442E-02 -0.442E-02
 -14.756 -0.428E-02 -0.428E-02
 -14.746 -0.412E-02 -0.412E-02
 -14.736 -0.395E-02 -0.395E-02
 -14.726 -0.376E-02 -0.376E-02
 -14.716 -0.355E-02 -0.355E-02
 -14.706 -0.332E-02 -0.332E-02
 -14.696 -0.308E-02 -0.308E-02
 -14.686 -0.282E-02 -0.282E-02
 -14.676 -0.253E-02 -0.253E-02
 -14.666 -0.223E-02 -0.223E-02
 -14.656 -0.190E-02 -0.190E-02
 -14.646 -0.155E-02 -0.155E-02
 -14.636 -0.118E-02 -0.118E-02
 -14.626 -0.790E-03 -0.790E-03
 -14.616 -0.373E-03 -0.373E-03
 -14.606  0.676E-04  0.676E-04
 -14.596  0.533E-03  0.533E-03
 -14.586  0.102E-02  0.102E-02
 -14.576  0.154E-02  0.154E-02
 -14.566  0.208E-02  0.208E-02
 -14.556  0.265E-02  0.265E-02
 -14.546  0.324E-02  0.324E-02
 -14.536  0.386E-02  0.386E-02
 -14.526  0.451E-02  0.451E-02
 -14.516  0.518E-02  0.518E-02
 -14.506  0.588E-02  0.588E-02
 -14.496  0.661E-02  0.661E-02
 -14.486  0.737E-02  0.737E-02
 -14.476  0.815E-02  0.815E-02
 -14.466  0.897E-02  0.897E-02
 -14.456  0.980E-02  0.980E-02
 -14.446  0.107E-01  0.107E-01
 -14.436  0.116E-01  0.116E-01
 -14.426  0.125E-01  0.125E-01
 -14.416  0.134E-01  0.134E-01
 -14.406  0.144E-01  0.144E-01
 -14.396  0.154E-01  0.154E-01
 -14.386  0.164E-01  0.164E-01
 -14.376  0.175E-01  0.175E-01
 -14.366  0.185E-01  0.185E-01
 -14.356  0.196E-01  0.196E-01
 -14.346  0.207E-01  0.207E-01
 -14.336  0.219E-01  0.219E-01
 -14.326  0.230E-01  0.230E-01
 -14.316  0.242E-01  0.242E-01
 -14.306  0.254E-01  0.254E-01
 -14.296  0.266E-01  0.266E-01
 -14.286  0.278E-01  0.278E-01
 -14.276  0.291E-01  0.291E-01
 -14.266  0.303E-01  0.303E-01
 -14.256  0.316E-01  0.316E-01
 -14.246  0.329E-01  0.329E-01
 -14.236  0.342E-01  0.342E-01
 -14.226  0.355E-01  0.355E-01
 -14.216  0.368E-01  0.368E-01
 -14.206  0.381E-01  0.381E-01
 -14.196  0.394E-01  0.394E-01
 -14.186  0.407E-01  0.407E-01
 -14.176  0.420E-01  0.420E-01
 -14.166  0.433E-01  0.433E-01
 -14.156  0.446E-01  0.446E-01
 -14.146  0.460E-01  0.460E-01
 -14.136  0.473E-01  0.473E-01
 -14.126  0.485E-01  0.485E-01
 -14.116  0.498E-01  0.498E-01
 -14.106  0.511E-01  0.511E-01
 -14.096  0.524E-01  0.524E-01
 -14.086  0.536E-01  0.536E-01
 -14.076  0.548E-01  0.548E-01
 -14.066  0.560E-01  0.560E-01
 -14.056  0.572E-01  0.572E-01
 -14.046  0.584E-01  0.584E-01
 -14.036  0.595E-01  0.595E-01
 -14.026  0.607E-01  0.607E-01
 -14.016  0.618E-01  0.618E-01
 -14.006  0.628E-01  0.628E-01
 -13.996  0.639E-01  0.639E-01
 -13.986  0.649E-01  0.649E-01
 -13.976  0.659E-01  0.659E-01
 -13.966  0.668E-01  0.668E-01
 -13.956  0.677E-01  0.677E-01
 -13.946  0.686E-01  0.686E-01
 -13.936  0.694E-01  0.694E-01
 -13.926  0.702E-01  0.702E-01
 -13.916  0.710E-01  0.710E-01
 -13.906  0.717E-01  0.717E-01
 -13.896  0.724E-01  0.724E-01
 -13.886  0.731E-01  0.731E-01
 -13.876  0.737E-01  0.737E-01
 -13.866  0.742E-01  0.742E-01
 -13.856  0.748E-01  0.748E-01
 -13.846  0.752E-01  0.752E-01
 -13.836  0.757E-01  0.757E-01
 -13.826  0.761E-01  0.761E-01
 -13.816  0.764E-01  0.764E-01
 -13.806  0.767E-01  0.767E-01
 -13.796  0.770E-01  0.770E-01
 -13.786  0.772E-01  0.772E-01
 -13.776  0.774E-01  0.774E-01
 -13.766  0.776E-01  0.776E-01
 -13.756  0.777E-01  0.777E-01
 -13.746  0.778E-01  0.778E-01
 -13.736  0.778E-01  0.778E-01
 -13.726  0.778E-01  0.778E-01
 -13.716  0.778E-01  0.778E-01
 -13.706  0.777E-01  0.777E-01
 -13.696  0.776E-01  0.776E-01
 -13.686  0.774E-01  0.774E-01
 -13.676  0.772E-01  0.772E-01
 -13.666  0.770E-01  0.770E-01
 -13.656  0.768E-01  0.768E-01
 -13.646  0.765E-01  0.765E-01
 -13.636  0.762E-01  0.762E-01
 -13.626  0.759E-01  0.759E-01
 -13.616  0.755E-01  0.755E-01
 -13.606  0.751E-01  0.751E-01
 -13.596  0.747E-01  0.747E-01
 -13.586  0.743E-01  0.743E-01
 -13.576  0.739E-01  0.739E-01
 -13.566  0.734E-01  0.734E-01
 -13.556  0.729E-01  0.729E-01
 -13.546  0.725E-01  0.725E-01
 -13.536  0.720E-01  0.720E-01
 -13.526  0.714E-01  0.714E-01
 -13.516  0.709E-01  0.709E-01
 -13.506  0.704E-01  0.704E-01
 -13.496  0.699E-01  0.699E-01
 -13.486  0.693E-01  0.693E-01
 -13.476  0.688E-01  0.688E-01
 -13.466  0.682E-01  0.682E-01
 -13.456  0.677E-01  0.677E-01
 -13.446  0.671E-01  0.671E-01
 -13.436  0.666E-01  0.666E-01
 -13.426  0.660E-01  0.660E-01
 -13.416  0.655E-01  0.655E-01
 -13.406  0.649E-01  0.649E-01
 -13.396  0.644E-01  0.644E-01
 -13.386  0.638E-01  0.638E-01
 -13.376  0.633E-01  0.633E-01
 -13.366  0.628E-01  0.628E-01
 -13.356  0.623E-01  0.623E-01
 -13.346  0.618E-01  0.618E-01
 -13.336  0.613E-01  0.613E-01
 -13.326  0.608E-01  0.608E-01
 -13.316  0.604E-01  0.604E-01
 -13.306  0.599E-01  0.599E-01
 -13.296  0.594E-01  0.594E-01
 -13.286  0.590E-01  0.590E-01
 -13.276  0.586E-01  0.586E-01
 -13.266  0.582E-01  0.582E-01
 -13.256  0.578E-01  0.578E-01
 -13.246  0.574E-01  0.574E-01
 -13.236  0.570E-01  0.570E-01
 -13.226  0.566E-01  0.566E-01
 -13.216  0.563E-01  0.563E-01
 -13.206  0.559E-01  0.559E-01
 -13.196  0.556E-01  0.556E-01
 -13.186  0.553E-01  0.553E-01
 -13.176  0.549E-01  0.549E-01
 -13.166  0.546E-01  0.546E-01
 -13.156  0.543E-01  0.543E-01
 -13.146  0.540E-01  0.540E-01
 -13.136  0.537E-01  0.537E-01
 -13.126  0.534E-01  0.534E-01
 -13.116  0.532E-01  0.532E-01
 -13.106  0.529E-01  0.529E-01
 -13.096  0.526E-01  0.526E-01
 -13.086  0.523E-01  0.523E-01
 -13.076  0.520E-01  0.520E-01
 -13.066  0.518E-01  0.518E-01
 -13.056  0.515E-01  0.515E-01
 -13.046  0.512E-01  0.512E-01
 -13.036  0.509E-01  0.509E-01
 -13.026  0.507E-01  0.507E-01
 -13.016  0.504E-01  0.504E-01
 -13.006  0.501E-01  0.501E-01
 -12.996  0.498E-01  0.498E-01
 -12.986  0.495E-01  0.495E-01
 -12.976  0.492E-01  0.492E-01
 -12.966  0.488E-01  0.488E-01
 -12.956  0.485E-01  0.485E-01
 -12.946  0.482E-01  0.482E-01
 -12.936  0.478E-01  0.478E-01
 -12.926  0.474E-01  0.474E-01
 -12.916  0.471E-01  0.471E-01
 -12.906  0.467E-01  0.467E-01
 -12.896  0.463E-01  0.463E-01
 -12.886  0.459E-01  0.459E-01
 -12.876  0.454E-01  0.454E-01
 -12.866  0.450E-01  0.450E-01
 -12.856  0.445E-01  0.445E-01
 -12.846  0.441E-01  0.441E-01
 -12.836  0.436E-01  0.436E-01
 -12.826  0.431E-01  0.431E-01
 -12.816  0.426E-01  0.426E-01
 -12.806  0.420E-01  0.420E-01
 -12.796  0.415E-01  0.415E-01
 -12.786  0.409E-01  0.409E-01
 -12.776  0.403E-01  0.403E-01
 -12.766  0.397E-01  0.397E-01
 -12.756  0.391E-01  0.391E-01
 -12.746  0.385E-01  0.385E-01
 -12.736  0.379E-01  0.379E-01
 -12.726  0.372E-01  0.372E-01
 -12.716  0.366E-01  0.366E-01
 -12.706  0.359E-01  0.359E-01
 -12.696  0.352E-01  0.352E-01
 -12.686  0.345E-01  0.345E-01
 -12.676  0.338E-01  0.338E-01
 -12.666  0.331E-01  0.331E-01
 -12.656  0.324E-01  0.324E-01
 -12.646  0.316E-01  0.316E-01
 -12.636  0.309E-01  0.309E-01
 -12.626  0.301E-01  0.301E-01
 -12.616  0.293E-01  0.293E-01
 -12.606  0.286E-01  0.286E-01
 -12.596  0.278E-01  0.278E-01
 -12.586  0.270E-01  0.270E-01
 -12.576  0.262E-01  0.262E-01
 -12.566  0.255E-01  0.255E-01
 -12.556  0.247E-01  0.247E-01
 -12.546  0.239E-01  0.239E-01
 -12.536  0.231E-01  0.231E-01
 -12.526  0.223E-01  0.223E-01
 -12.516  0.215E-01  0.215E-01
 -12.506  0.207E-01  0.207E-01
 -12.496  0.200E-01  0.200E-01
 -12.486  0.192E-01  0.192E-01
 -12.476  0.184E-01  0.184E-01
 -12.466  0.177E-01  0.177E-01
 -12.456  0.169E-01  0.169E-01
 -12.446  0.161E-01  0.161E-01
 -12.436  0.154E-01  0.154E-01
 -12.426  0.147E-01  0.147E-01
 -12.416  0.139E-01  0.139E-01
 -12.406  0.132E-01  0.132E-01
 -12.396  0.125E-01  0.125E-01
 -12.386  0.118E-01  0.118E-01
 -12.376  0.111E-01  0.111E-01
 -12.366  0.105E-01  0.105E-01
 -12.356  0.980E-02  0.980E-02
 -12.346  0.915E-02  0.915E-02
 -12.336  0.852E-02  0.852E-02
 -12.326  0.790E-02  0.790E-02
 -12.316  0.730E-02  0.730E-02
 -12.306  0.671E-02  0.671E-02
 -12.296  0.613E-02  0.613E-02
 -12.286  0.557E-02  0.557E-02
 -12.276  0.503E-02  0.503E-02
 -12.266  0.450E-02  0.450E-02
 -12.256  0.399E-02  0.399E-02
 -12.246  0.349E-02  0.349E-02
 -12.236  0.302E-02  0.302E-02
 -12.226  0.255E-02  0.255E-02
 -12.216  0.211E-02  0.211E-02
 -12.206  0.167E-02  0.167E-02
 -12.196  0.126E-02  0.126E-02
 -12.186  0.863E-03  0.863E-03
 -12.176  0.481E-03  0.481E-03
 -12.166  0.116E-03  0.116E-03
 -12.156 -0.233E-03 -0.233E-03
 -12.146 -0.566E-03 -0.566E-03
 -12.136 -0.883E-03 -0.883E-03
 -12.126 -0.119E-02 -0.119E-02
 -12.116 -0.147E-02 -0.147E-02
 -12.106 -0.174E-02 -0.174E-02
 -12.096 -0.200E-02 -0.200E-02
 -12.086 -0.224E-02 -0.224E-02
 -12.076 -0.247E-02 -0.247E-02
 -12.066 -0.268E-02 -0.268E-02
 -12.056 -0.288E-02 -0.288E-02
 -12.046 -0.306E-02 -0.306E-02
 -12.036 -0.324E-02 -0.324E-02
 -12.026 -0.339E-02 -0.339E-02
 -12.016 -0.354E-02 -0.354E-02
 -12.006 -0.368E-02 -0.368E-02
 -11.996 -0.380E-02 -0.380E-02
 -11.986 -0.391E-02 -0.391E-02
 -11.976 -0.401E-02 -0.401E-02
 -11.966 -0.410E-02 -0.410E-02
 -11.956 -0.417E-02 -0.417E-02
 -11.946 -0.424E-02 -0.424E-02
 -11.936 -0.430E-02 -0.430E-02
 -11.926 -0.435E-02 -0.435E-02
 -11.916 -0.439E-02 -0.439E-02
 -11.906 -0.442E-02 -0.442E-02
 -11.896 -0.444E-02 -0.444E-02
 -11.886 -0.445E-02 -0.445E-02
 -11.876 -0.446E-02 -0.446E-02
 -11.866 -0.446E-02 -0.446E-02
 -11.856 -0.445E-02 -0.445E-02
 -11.846 -0.443E-02 -0.443E-02
 -11.836 -0.441E-02 -0.441E-02
 -11.826 -0.438E-02 -0.438E-02
 -11.816 -0.434E-02 -0.434E-02
 -11.806 -0.430E-02 -0.430E-02
 -11.796 -0.425E-02 -0.425E-02
 -11.786 -0.420E-02 -0.420E-02
 -11.776 -0.414E-02 -0.414E-02
 -11.766 -0.407E-02 -0.407E-02
 -11.756 -0.400E-02 -0.400E-02
 -11.746 -0.393E-02 -0.393E-02
 -11.736 -0.385E-02 -0.385E-02
 -11.726 -0.376E-02 -0.376E-02
 -11.716 -0.367E-02 -0.367E-02
 -11.706 -0.357E-02 -0.357E-02
 -11.696 -0.347E-02 -0.347E-02
 -11.686 -0.336E-02 -0.336E-02
 -11.676 -0.325E-02 -0.325E-02
 -11.666 -0.313E-02 -0.313E-02
 -11.656 -0.301E-02 -0.301E-02
 -11.646 -0.288E-02 -0.288E-02
 -11.636 -0.274E-02 -0.274E-02
 -11.626 -0.260E-02 -0.260E-02
 -11.616 -0.246E-02 -0.246E-02
 -11.606 -0.230E-02 -0.230E-02
 -11.596 -0.214E-02 -0.214E-02
 -11.586 -0.197E-02 -0.197E-02
 -11.576 -0.179E-02 -0.179E-02
 -11.566 -0.161E-02 -0.161E-02
 -11.556 -0.142E-02 -0.142E-02
 -11.546 -0.121E-02 -0.121E-02
 -11.536 -0.100E-02 -0.100E-02
 -11.526 -0.779E-03 -0.779E-03
 -11.516 -0.546E-03 -0.546E-03
 -11.506 -0.302E-03 -0.302E-03
 -11.496 -0.459E-04 -0.459E-04
 -11.486  0.222E-03  0.222E-03
 -11.476  0.504E-03  0.504E-03
 -11.466  0.799E-03  0.799E-03
 -11.456  0.111E-02  0.111E-02
 -11.446  0.143E-02  0.143E-02
 -11.436  0.178E-02  0.178E-02
 -11.426  0.213E-02  0.213E-02
 -11.416  0.251E-02  0.251E-02
 -11.406  0.290E-02  0.290E-02
 -11.396  0.332E-02  0.332E-02
 -11.386  0.375E-02  0.375E-02
 -11.376  0.421E-02  0.421E-02
 -11.366  0.468E-02  0.468E-02
 -11.356  0.518E-02  0.518E-02
 -11.346  0.571E-02  0.571E-02
 -11.336  0.625E-02  0.625E-02
 -11.326  0.683E-02  0.683E-02
 -11.316  0.743E-02  0.743E-02
 -11.306  0.805E-02  0.805E-02
 -11.296  0.871E-02  0.871E-02
 -11.286  0.939E-02  0.939E-02
 -11.276  0.101E-01  0.101E-01
 -11.266  0.108E-01  0.108E-01
 -11.256  0.116E-01  0.116E-01
 -11.246  0.124E-01  0.124E-01
 -11.236  0.133E-01  0.133E-01
 -11.226  0.141E-01  0.141E-01
 -11.216  0.151E-01  0.151E-01
 -11.206  0.160E-01  0.160E-01
 -11.196  0.170E-01  0.170E-01
 -11.186  0.180E-01  0.180E-01
 -11.176  0.190E-01  0.190E-01
 -11.166  0.201E-01  0.201E-01
 -11.156  0.213E-01  0.213E-01
 -11.146  0.224E-01  0.224E-01
 -11.136  0.236E-01  0.236E-01
 -11.126  0.249E-01  0.249E-01
 -11.116  0.261E-01  0.261E-01
 -11.106  0.275E-01  0.275E-01
 -11.096  0.288E-01  0.288E-01
 -11.086  0.302E-01  0.302E-01
 -11.076  0.316E-01  0.316E-01
 -11.066  0.331E-01  0.331E-01
 -11.056  0.346E-01  0.346E-01
 -11.046  0.361E-01  0.361E-01
 -11.036  0.377E-01  0.377E-01
 -11.026  0.393E-01  0.393E-01
 -11.016  0.410E-01  0.410E-01
 -11.006  0.427E-01  0.427E-01
 -10.996  0.444E-01  0.444E-01
 -10.986  0.461E-01  0.461E-01
 -10.976  0.479E-01  0.479E-01
 -10.966  0.497E-01  0.497E-01
 -10.956  0.515E-01  0.515E-01
 -10.946  0.534E-01  0.534E-01
 -10.936  0.553E-01  0.553E-01
 -10.926  0.572E-01  0.572E-01
 -10.916  0.591E-01  0.591E-01
 -10.906  0.610E-01  0.610E-01
 -10.896  0.630E-01  0.630E-01
 -10.886  0.650E-01  0.650E-01
 -10.876  0.670E-01  0.670E-01
 -10.866  0.690E-01  0.690E-01
 -10.856  0.710E-01  0.710E-01
 -10.846  0.730E-01  0.730E-01
 -10.836  0.750E-01  0.750E-01
 -10.826  0.770E-01  0.770E-01
 -10.816  0.790E-01  0.790E-01
 -10.806  0.810E-01  0.810E-01
 -10.796  0.830E-01  0.830E-01
 -10.786  0.850E-01  0.850E-01
 -10.776  0.870E-01  0.870E-01
 -10.766  0.890E-01  0.890E-01
 -10.756  0.909E-01  0.909E-01
 -10.746  0.928E-01  0.928E-01
 -10.736  0.947E-01  0.947E-01
 -10.726  0.966E-01  0.966E-01
 -10.716  0.984E-01  0.984E-01
 -10.706  0.100E+00  0.100E+00
 -10.696  0.102E+00  0.102E+00
 -10.686  0.104E+00  0.104E+00
 -10.676  0.105E+00  0.105E+00
 -10.666  0.107E+00  0.107E+00
 -10.656  0.109E+00  0.109E+00
 -10.646  0.110E+00  0.110E+00
 -10.636  0.112E+00  0.112E+00
 -10.626  0.113E+00  0.113E+00
 -10.616  0.114E+00  0.114E+00
 -10.606  0.116E+00  0.116E+00
 -10.596  0.117E+00  0.117E+00
 -10.586  0.118E+00  0.118E+00
 -10.576  0.119E+00  0.119E+00
 -10.566  0.120E+00  0.120E+00
 -10.556  0.121E+00  0.121E+00
 -10.546  0.122E+00  0.122E+00
 -10.536  0.123E+00  0.123E+00
 -10.526  0.124E+00  0.124E+00
 -10.516  0.124E+00  0.124E+00
 -10.506  0.125E+00  0.125E+00
 -10.496  0.125E+00  0.125E+00
 -10.486  0.126E+00  0.126E+00
 -10.476  0.126E+00  0.126E+00
 -10.466  0.126E+00  0.126E+00
 -10.456  0.126E+00  0.126E+00
 -10.446  0.126E+00  0.126E+00
 -10.436  0.126E+00  0.126E+00
 -10.426  0.126E+00  0.126E+00
 -10.416  0.126E+00  0.126E+00
 -10.406  0.126E+00  0.126E+00
 -10.396  0.125E+00  0.125E+00
 -10.386  0.125E+00  0.125E+00
 -10.376  0.124E+00  0.124E+00
 -10.366  0.124E+00  0.124E+00
 -10.356  0.123E+00  0.123E+00
 -10.346  0.122E+00  0.122E+00
 -10.336  0.122E+00  0.122E+00
 -10.326  0.121E+00  0.121E+00
 -10.316  0.120E+00  0.120E+00
 -10.306  0.119E+00  0.119E+00
 -10.296  0.117E+00  0.117E+00
 -10.286  0.116E+00  0.116E+00
 -10.276  0.115E+00  0.115E+00
 -10.266  0.114E+00  0.114E+00
 -10.256  0.112E+00  0.112E+00
 -10.246  0.111E+00  0.111E+00
 -10.236  0.109E+00  0.109E+00
 -10.226  0.108E+00  0.108E+00
 -10.216  0.106E+00  0.106E+00
 -10.206  0.105E+00  0.105E+00
 -10.196  0.103E+00  0.103E+00
 -10.186  0.101E+00  0.101E+00
 -10.176  0.996E-01  0.996E-01
 -10.166  0.978E-01  0.978E-01
 -10.156  0.961E-01  0.961E-01
 -10.146  0.943E-01  0.943E-01
 -10.136  0.925E-01  0.925E-01
 -10.126  0.907E-01  0.907E-01
 -10.116  0.888E-01  0.888E-01
 -10.106  0.870E-01  0.870E-01
 -10.096  0.852E-01  0.852E-01
 -10.086  0.834E-01  0.834E-01
 -10.076  0.816E-01  0.816E-01
 -10.066  0.797E-01  0.797E-01
 -10.056  0.780E-01  0.780E-01
 -10.046  0.762E-01  0.762E-01
 -10.036  0.744E-01  0.744E-01
 -10.026  0.727E-01  0.727E-01
 -10.016  0.710E-01  0.710E-01
 -10.006  0.694E-01  0.694E-01
  -9.996  0.677E-01  0.677E-01
  -9.986  0.662E-01  0.662E-01
  -9.976  0.646E-01  0.646E-01
  -9.966  0.631E-01  0.631E-01
  -9.956  0.617E-01  0.617E-01
  -9.946  0.603E-01  0.603E-01
  -9.936  0.589E-01  0.589E-01
  -9.926  0.576E-01  0.576E-01
  -9.916  0.564E-01  0.564E-01
  -9.906  0.552E-01  0.552E-01
  -9.896  0.541E-01  0.541E-01
  -9.886  0.530E-01  0.530E-01
  -9.876  0.520E-01  0.520E-01
  -9.866  0.511E-01  0.511E-01
  -9.856  0.502E-01  0.502E-01
  -9.846  0.494E-01  0.494E-01
  -9.836  0.487E-01  0.487E-01
  -9.826  0.481E-01  0.481E-01
  -9.816  0.475E-01  0.475E-01
  -9.806  0.470E-01  0.470E-01
  -9.796  0.465E-01  0.465E-01
  -9.786  0.461E-01  0.461E-01
  -9.776  0.458E-01  0.458E-01
  -9.766  0.456E-01  0.456E-01
  -9.756  0.454E-01  0.454E-01
  -9.746  0.453E-01  0.453E-01
  -9.736  0.453E-01  0.453E-01
  -9.726  0.453E-01  0.453E-01
  -9.716  0.454E-01  0.454E-01
  -9.706  0.456E-01  0.456E-01
  -9.696  0.458E-01  0.458E-01
  -9.686  0.461E-01  0.461E-01
  -9.676  0.464E-01  0.464E-01
  -9.666  0.468E-01  0.468E-01
  -9.656  0.473E-01  0.473E-01
  -9.646  0.478E-01  0.478E-01
  -9.636  0.484E-01  0.484E-01
  -9.626  0.490E-01  0.490E-01
  -9.616  0.497E-01  0.497E-01
  -9.606  0.504E-01  0.504E-01
  -9.596  0.511E-01  0.511E-01
  -9.586  0.519E-01  0.519E-01
  -9.576  0.527E-01  0.527E-01
  -9.566  0.536E-01  0.536E-01
  -9.556  0.545E-01  0.545E-01
  -9.546  0.554E-01  0.554E-01
  -9.536  0.564E-01  0.564E-01
  -9.526  0.573E-01  0.573E-01
  -9.516  0.583E-01  0.583E-01
  -9.506  0.593E-01  0.593E-01
  -9.496  0.604E-01  0.604E-01
  -9.486  0.614E-01  0.614E-01
  -9.476  0.625E-01  0.625E-01
  -9.466  0.635E-01  0.635E-01
  -9.456  0.646E-01  0.646E-01
  -9.446  0.657E-01  0.657E-01
  -9.436  0.667E-01  0.667E-01
  -9.426  0.678E-01  0.678E-01
  -9.416  0.689E-01  0.689E-01
  -9.406  0.699E-01  0.699E-01
  -9.396  0.710E-01  0.710E-01
  -9.386  0.720E-01  0.720E-01
  -9.376  0.730E-01  0.730E-01
  -9.366  0.740E-01  0.740E-01
  -9.356  0.750E-01  0.750E-01
  -9.346  0.760E-01  0.760E-01
  -9.336  0.770E-01  0.770E-01
  -9.326  0.779E-01  0.779E-01
  -9.316  0.788E-01  0.788E-01
  -9.306  0.797E-01  0.797E-01
  -9.296  0.806E-01  0.806E-01
  -9.286  0.814E-01  0.814E-01
  -9.276  0.822E-01  0.822E-01
  -9.266  0.830E-01  0.830E-01
  -9.256  0.837E-01  0.837E-01
  -9.246  0.844E-01  0.844E-01
  -9.236  0.851E-01  0.851E-01
  -9.226  0.858E-01  0.858E-01
  -9.216  0.864E-01  0.864E-01
  -9.206  0.870E-01  0.870E-01
  -9.196  0.876E-01  0.876E-01
  -9.186  0.881E-01  0.881E-01
  -9.176  0.886E-01  0.886E-01
  -9.166  0.891E-01  0.891E-01
  -9.156  0.895E-01  0.895E-01
  -9.146  0.899E-01  0.899E-01
  -9.136  0.903E-01  0.903E-01
  -9.126  0.906E-01  0.906E-01
  -9.116  0.909E-01  0.909E-01
  -9.106  0.912E-01  0.912E-01
  -9.096  0.915E-01  0.915E-01
  -9.086  0.917E-01  0.917E-01
  -9.076  0.919E-01  0.919E-01
  -9.066  0.921E-01  0.921E-01
  -9.056  0.922E-01  0.922E-01
  -9.046  0.923E-01  0.923E-01
  -9.036  0.924E-01  0.924E-01
  -9.026  0.925E-01  0.925E-01
  -9.016  0.926E-01  0.926E-01
  -9.006  0.926E-01  0.926E-01
  -8.996  0.926E-01  0.926E-01
  -8.986  0.926E-01  0.926E-01
  -8.976  0.926E-01  0.926E-01
  -8.966  0.926E-01  0.926E-01
  -8.956  0.926E-01  0.926E-01
  -8.946  0.925E-01  0.925E-01
  -8.936  0.924E-01  0.924E-01
  -8.926  0.924E-01  0.924E-01
  -8.916  0.923E-01  0.923E-01
  -8.906  0.922E-01  0.922E-01
  -8.896  0.921E-01  0.921E-01
  -8.886  0.919E-01  0.919E-01
  -8.876  0.918E-01  0.918E-01
  -8.866  0.917E-01  0.917E-01
  -8.856  0.916E-01  0.916E-01
  -8.846  0.914E-01  0.914E-01
  -8.836  0.913E-01  0.913E-01
  -8.826  0.911E-01  0.911E-01
  -8.816  0.910E-01  0.910E-01
  -8.806  0.908E-01  0.908E-01
  -8.796  0.907E-01  0.907E-01
  -8.786  0.905E-01  0.905E-01
  -8.776  0.904E-01  0.904E-01
  -8.766  0.902E-01  0.902E-01
  -8.756  0.901E-01  0.901E-01
  -8.746  0.899E-01  0.899E-01
  -8.736  0.898E-01  0.898E-01
  -8.726  0.896E-01  0.896E-01
  -8.716  0.895E-01  0.895E-01
  -8.706  0.893E-01  0.893E-01
  -8.696  0.892E-01  0.892E-01
  -8.686  0.890E-01  0.890E-01
  -8.676  0.889E-01  0.889E-01
  -8.666  0.887E-01  0.887E-01
  -8.656  0.886E-01  0.886E-01
  -8.646  0.884E-01  0.884E-01
  -8.636  0.883E-01  0.883E-01
  -8.626  0.881E-01  0.881E-01
  -8.616  0.880E-01  0.880E-01
  -8.606  0.878E-01  0.878E-01
  -8.596  0.877E-01  0.877E-01
  -8.586  0.875E-01  0.875E-01
  -8.576  0.873E-01  0.873E-01
  -8.566  0.872E-01  0.872E-01
  -8.556  0.870E-01  0.870E-01
  -8.546  0.868E-01  0.868E-01
  -8.536  0.866E-01  0.866E-01
  -8.526  0.864E-01  0.864E-01
  -8.516  0.862E-01  0.862E-01
  -8.506  0.860E-01  0.860E-01
  -8.496  0.858E-01  0.858E-01
  -8.486  0.856E-01  0.856E-01
  -8.476  0.853E-01  0.853E-01
  -8.466  0.851E-01  0.851E-01
  -8.456  0.848E-01  0.848E-01
  -8.446  0.845E-01  0.845E-01
  -8.436  0.842E-01  0.842E-01
  -8.426  0.839E-01  0.839E-01
  -8.416  0.836E-01  0.836E-01
  -8.406  0.833E-01  0.833E-01
  -8.396  0.829E-01  0.829E-01
  -8.386  0.826E-01  0.826E-01
  -8.376  0.822E-01  0.822E-01
  -8.366  0.818E-01  0.818E-01
  -8.356  0.814E-01  0.814E-01
  -8.346  0.810E-01  0.810E-01
  -8.336  0.805E-01  0.805E-01
  -8.326  0.801E-01  0.801E-01
  -8.316  0.796E-01  0.796E-01
  -8.306  0.791E-01  0.791E-01
  -8.296  0.786E-01  0.786E-01
  -8.286  0.781E-01  0.781E-01
  -8.276  0.775E-01  0.775E-01
  -8.266  0.769E-01  0.769E-01
  -8.256  0.763E-01  0.763E-01
  -8.246  0.757E-01  0.757E-01
  -8.236  0.751E-01  0.751E-01
  -8.226  0.744E-01  0.744E-01
  -8.216  0.738E-01  0.738E-01
  -8.206  0.731E-01  0.731E-01
  -8.196  0.724E-01  0.724E-01
  -8.186  0.716E-01  0.716E-01
  -8.176  0.709E-01  0.709E-01
  -8.166  0.701E-01  0.701E-01
  -8.156  0.693E-01  0.693E-01
  -8.146  0.685E-01  0.685E-01
  -8.136  0.677E-01  0.677E-01
  -8.126  0.669E-01  0.669E-01
  -8.116  0.660E-01  0.660E-01
  -8.106  0.651E-01  0.651E-01
  -8.096  0.642E-01  0.642E-01
  -8.086  0.633E-01  0.633E-01
  -8.076  0.624E-01  0.624E-01
  -8.066  0.614E-01  0.614E-01
  -8.056  0.604E-01  0.604E-01
  -8.046  0.594E-01  0.594E-01
  -8.036  0.584E-01  0.584E-01
  -8.026  0.574E-01  0.574E-01
  -8.016  0.564E-01  0.564E-01
  -8.006  0.553E-01  0.553E-01
  -7.996  0.543E-01  0.543E-01
  -7.986  0.532E-01  0.532E-01
  -7.976  0.521E-01  0.521E-01
  -7.966  0.510E-01  0.510E-01
  -7.956  0.498E-01  0.498E-01
  -7.946  0.487E-01  0.487E-01
  -7.936  0.476E-01  0.476E-01
  -7.926  0.464E-01  0.464E-01
  -7.916  0.452E-01  0.452E-01
  -7.906  0.441E-01  0.441E-01
  -7.896  0.429E-01  0.429E-01
  -7.886  0.417E-01  0.417E-01
  -7.876  0.405E-01  0.405E-01
  -7.866  0.393E-01  0.393E-01
  -7.856  0.380E-01  0.380E-01
  -7.846  0.368E-01  0.368E-01
  -7.836  0.356E-01  0.356E-01
  -7.826  0.343E-01  0.343E-01
  -7.816  0.331E-01  0.331E-01
  -7.806  0.319E-01  0.319E-01
  -7.796  0.306E-01  0.306E-01
  -7.786  0.294E-01  0.294E-01
  -7.776  0.281E-01  0.281E-01
  -7.766  0.269E-01  0.269E-01
  -7.756  0.257E-01  0.257E-01
  -7.746  0.245E-01  0.245E-01
  -7.736  0.232E-01  0.232E-01
  -7.726  0.220E-01  0.220E-01
  -7.716  0.208E-01  0.208E-01
  -7.706  0.196E-01  0.196E-01
  -7.696  0.185E-01  0.185E-01
  -7.686  0.173E-01  0.173E-01
  -7.676  0.162E-01  0.162E-01
  -7.666  0.151E-01  0.151E-01
  -7.656  0.140E-01  0.140E-01
  -7.646  0.129E-01  0.129E-01
  -7.636  0.118E-01  0.118E-01
  -7.626  0.108E-01  0.108E-01
  -7.616  0.983E-02  0.983E-02
  -7.606  0.887E-02  0.887E-02
  -7.596  0.796E-02  0.796E-02
  -7.586  0.708E-02  0.708E-02
  -7.576  0.624E-02  0.624E-02
  -7.566  0.544E-02  0.544E-02
  -7.556  0.470E-02  0.470E-02
  -7.546  0.400E-02  0.400E-02
  -7.536  0.336E-02  0.336E-02
  -7.526  0.277E-02  0.277E-02
  -7.516  0.224E-02  0.224E-02
  -7.506  0.178E-02  0.178E-02
  -7.496  0.138E-02  0.138E-02
  -7.486  0.105E-02  0.105E-02
  -7.476  0.797E-03  0.797E-03
  -7.466  0.617E-03  0.617E-03
  -7.456  0.517E-03  0.517E-03
  -7.446  0.500E-03  0.500E-03
  -7.436  0.570E-03  0.570E-03
  -7.426  0.730E-03  0.730E-03
  -7.416  0.984E-03  0.984E-03
  -7.406  0.133E-02  0.133E-02
  -7.396  0.179E-02  0.179E-02
  -7.386  0.234E-02  0.234E-02
  -7.376  0.300E-02  0.300E-02
  -7.366  0.378E-02  0.378E-02
  -7.356  0.466E-02  0.466E-02
  -7.346  0.567E-02  0.567E-02
  -7.336  0.679E-02  0.679E-02
  -7.326  0.804E-02  0.804E-02
  -7.316  0.942E-02  0.942E-02
  -7.306  0.109E-01  0.109E-01
  -7.296  0.126E-01  0.126E-01
  -7.286  0.143E-01  0.143E-01
  -7.276  0.162E-01  0.162E-01
  -7.266  0.183E-01  0.183E-01
  -7.256  0.205E-01  0.205E-01
  -7.246  0.228E-01  0.228E-01
  -7.236  0.253E-01  0.253E-01
  -7.226  0.279E-01  0.279E-01
  -7.216  0.307E-01  0.307E-01
  -7.206  0.336E-01  0.336E-01
  -7.196  0.367E-01  0.367E-01
  -7.186  0.399E-01  0.399E-01
  -7.176  0.433E-01  0.433E-01
  -7.166  0.469E-01  0.469E-01
  -7.156  0.505E-01  0.505E-01
  -7.146  0.544E-01  0.544E-01
  -7.136  0.584E-01  0.584E-01
  -7.126  0.625E-01  0.625E-01
  -7.116  0.668E-01  0.668E-01
  -7.106  0.712E-01  0.712E-01
  -7.096  0.758E-01  0.758E-01
  -7.086  0.806E-01  0.806E-01
  -7.076  0.854E-01  0.854E-01
  -7.066  0.904E-01  0.904E-01
  -7.056  0.956E-01  0.956E-01
  -7.046  0.101E+00  0.101E+00
  -7.036  0.106E+00  0.106E+00
  -7.026  0.112E+00  0.112E+00
  -7.016  0.117E+00  0.117E+00
  -7.006  0.123E+00  0.123E+00
  -6.996  0.129E+00  0.129E+00
  -6.986  0.135E+00  0.135E+00
  -6.976  0.141E+00  0.141E+00
  -6.966  0.147E+00  0.147E+00
  -6.956  0.154E+00  0.154E+00
  -6.946  0.160E+00  0.160E+00
  -6.936  0.166E+00  0.166E+00
  -6.926  0.173E+00  0.173E+00
  -6.916  0.179E+00  0.179E+00
  -6.906  0.186E+00  0.186E+00
  -6.896  0.193E+00  0.193E+00
  -6.886  0.199E+00  0.199E+00
  -6.876  0.206E+00  0.206E+00
  -6.866  0.213E+00  0.213E+00
  -6.856  0.219E+00  0.219E+00
  -6.846  0.226E+00  0.226E+00
  -6.836  0.233E+00  0.233E+00
  -6.826  0.240E+00  0.240E+00
  -6.816  0.246E+00  0.246E+00
  -6.806  0.253E+00  0.253E+00
  -6.796  0.259E+00  0.259E+00
  -6.786  0.266E+00  0.266E+00
  -6.776  0.272E+00  0.272E+00
  -6.766  0.279E+00  0.279E+00
  -6.756  0.285E+00  0.285E+00
  -6.746  0.291E+00  0.291E+00
  -6.736  0.297E+00  0.297E+00
  -6.726  0.303E+00  0.303E+00
  -6.716  0.309E+00  0.309E+00
  -6.706  0.315E+00  0.315E+00
  -6.696  0.321E+00  0.321E+00
  -6.686  0.326E+00  0.326E+00
  -6.676  0.331E+00  0.331E+00
  -6.666  0.337E+00  0.337E+00
  -6.656  0.342E+00  0.342E+00
  -6.646  0.346E+00  0.346E+00
  -6.636  0.351E+00  0.351E+00
  -6.626  0.355E+00  0.355E+00
  -6.616  0.359E+00  0.359E+00
  -6.606  0.363E+00  0.363E+00
  -6.596  0.367E+00  0.367E+00
  -6.586  0.371E+00  0.371E+00
  -6.576  0.374E+00  0.374E+00
  -6.566  0.377E+00  0.377E+00
  -6.556  0.380E+00  0.380E+00
  -6.546  0.382E+00  0.382E+00
  -6.536  0.385E+00  0.385E+00
  -6.526  0.387E+00  0.387E+00
  -6.516  0.388E+00  0.388E+00
  -6.506  0.390E+00  0.390E+00
  -6.496  0.391E+00  0.391E+00
  -6.486  0.392E+00  0.392E+00
  -6.476  0.393E+00  0.393E+00
  -6.466  0.393E+00  0.393E+00
  -6.456  0.393E+00  0.393E+00
  -6.446  0.393E+00  0.393E+00
  -6.436  0.393E+00  0.393E+00
  -6.426  0.392E+00  0.392E+00
  -6.416  0.391E+00  0.391E+00
  -6.406  0.390E+00  0.390E+00
  -6.396  0.389E+00  0.389E+00
  -6.386  0.387E+00  0.387E+00
  -6.376  0.385E+00  0.385E+00
  -6.366  0.383E+00  0.383E+00
  -6.356  0.380E+00  0.380E+00
  -6.346  0.378E+00  0.378E+00
  -6.336  0.375E+00  0.375E+00
  -6.326  0.372E+00  0.372E+00
  -6.316  0.368E+00  0.368E+00
  -6.306  0.364E+00  0.364E+00
  -6.296  0.361E+00  0.361E+00
  -6.286  0.357E+00  0.357E+00
  -6.276  0.352E+00  0.352E+00
  -6.266  0.348E+00  0.348E+00
  -6.256  0.343E+00  0.343E+00
  -6.246  0.338E+00  0.338E+00
  -6.236  0.333E+00  0.333E+00
  -6.226  0.328E+00  0.328E+00
  -6.216  0.323E+00  0.323E+00
  -6.206  0.317E+00  0.317E+00
  -6.196  0.311E+00  0.311E+00
  -6.186  0.306E+00  0.306E+00
  -6.176  0.300E+00  0.300E+00
  -6.166  0.294E+00  0.294E+00
  -6.156  0.288E+00  0.288E+00
  -6.146  0.281E+00  0.281E+00
  -6.136  0.275E+00  0.275E+00
  -6.126  0.269E+00  0.269E+00
  -6.116  0.262E+00  0.262E+00
  -6.106  0.256E+00  0.256E+00
  -6.096  0.249E+00  0.249E+00
  -6.086  0.243E+00  0.243E+00
  -6.076  0.236E+00  0.236E+00
  -6.066  0.229E+00  0.229E+00
  -6.056  0.223E+00  0.223E+00
  -6.046  0.216E+00  0.216E+00
  -6.036  0.209E+00  0.209E+00
  -6.026  0.203E+00  0.203E+00
  -6.016  0.196E+00  0.196E+00
  -6.006  0.189E+00  0.189E+00
  -5.996  0.183E+00  0.183E+00
  -5.986  0.176E+00  0.176E+00
  -5.976  0.170E+00  0.170E+00
  -5.966  0.163E+00  0.163E+00
  -5.956  0.157E+00  0.157E+00
  -5.946  0.151E+00  0.151E+00
  -5.936  0.145E+00  0.145E+00
  -5.926  0.138E+00  0.138E+00
  -5.916  0.132E+00  0.132E+00
  -5.906  0.126E+00  0.126E+00
  -5.896  0.121E+00  0.121E+00
  -5.886  0.115E+00  0.115E+00
  -5.876  0.109E+00  0.109E+00
  -5.866  0.104E+00  0.104E+00
  -5.856  0.982E-01  0.982E-01
  -5.846  0.929E-01  0.929E-01
  -5.836  0.877E-01  0.877E-01
  -5.826  0.826E-01  0.826E-01
  -5.816  0.777E-01  0.777E-01
  -5.806  0.729E-01  0.729E-01
  -5.796  0.682E-01  0.682E-01
  -5.786  0.637E-01  0.637E-01
  -5.776  0.593E-01  0.593E-01
  -5.766  0.550E-01  0.550E-01
  -5.756  0.509E-01  0.509E-01
  -5.746  0.469E-01  0.469E-01
  -5.736  0.430E-01  0.430E-01
  -5.726  0.393E-01  0.393E-01
  -5.716  0.357E-01  0.357E-01
  -5.706  0.322E-01  0.322E-01
  -5.696  0.289E-01  0.289E-01
  -5.686  0.257E-01  0.257E-01
  -5.676  0.227E-01  0.227E-01
  -5.666  0.197E-01  0.197E-01
  -5.656  0.170E-01  0.170E-01
  -5.646  0.143E-01  0.143E-01
  -5.636  0.118E-01  0.118E-01
  -5.626  0.934E-02  0.934E-02
  -5.616  0.706E-02  0.706E-02
  -5.606  0.489E-02  0.489E-02
  -5.596  0.284E-02  0.284E-02
  -5.586  0.907E-03  0.907E-03
  -5.576 -0.913E-03 -0.913E-03
  -5.566 -0.262E-02 -0.262E-02
  -5.556 -0.423E-02 -0.423E-02
  -5.546 -0.572E-02 -0.572E-02
  -5.536 -0.712E-02 -0.712E-02
  -5.526 -0.842E-02 -0.842E-02
  -5.516 -0.962E-02 -0.962E-02
  -5.506 -0.107E-01 -0.107E-01
  -5.496 -0.118E-01 -0.118E-01
  -5.486 -0.127E-01 -0.127E-01
  -5.476 -0.135E-01 -0.135E-01
  -5.466 -0.143E-01 -0.143E-01
  -5.456 -0.150E-01 -0.150E-01
  -5.446 -0.156E-01 -0.156E-01
  -5.436 -0.162E-01 -0.162E-01
  -5.426 -0.167E-01 -0.167E-01
  -5.416 -0.171E-01 -0.171E-01
  -5.406 -0.174E-01 -0.174E-01
  -5.396 -0.177E-01 -0.177E-01
  -5.386 -0.180E-01 -0.180E-01
  -5.376 -0.182E-01 -0.182E-01
  -5.366 -0.183E-01 -0.183E-01
  -5.356 -0.184E-01 -0.184E-01
  -5.346 -0.184E-01 -0.184E-01
  -5.336 -0.184E-01 -0.184E-01
  -5.326 -0.184E-01 -0.184E-01
  -5.316 -0.183E-01 -0.183E-01
  -5.306 -0.182E-01 -0.182E-01
  -5.296 -0.181E-01 -0.181E-01
  -5.286 -0.179E-01 -0.179E-01
  -5.276 -0.178E-01 -0.178E-01
  -5.266 -0.175E-01 -0.175E-01
  -5.256 -0.173E-01 -0.173E-01
  -5.246 -0.171E-01 -0.171E-01
  -5.236 -0.168E-01 -0.168E-01
  -5.226 -0.165E-01 -0.165E-01
  -5.216 -0.162E-01 -0.162E-01
  -5.206 -0.159E-01 -0.159E-01
  -5.196 -0.155E-01 -0.155E-01
  -5.186 -0.152E-01 -0.152E-01
  -5.176 -0.148E-01 -0.148E-01
  -5.166 -0.145E-01 -0.145E-01
  -5.156 -0.141E-01 -0.141E-01
  -5.146 -0.137E-01 -0.137E-01
  -5.136 -0.134E-01 -0.134E-01
  -5.126 -0.130E-01 -0.130E-01
  -5.116 -0.126E-01 -0.126E-01
  -5.106 -0.122E-01 -0.122E-01
  -5.096 -0.119E-01 -0.119E-01
  -5.086 -0.115E-01 -0.115E-01
  -5.076 -0.111E-01 -0.111E-01
  -5.066 -0.107E-01 -0.107E-01
  -5.056 -0.104E-01 -0.104E-01
  -5.046 -0.100E-01 -0.100E-01
  -5.036 -0.965E-02 -0.965E-02
  -5.026 -0.930E-02 -0.930E-02
  -5.016 -0.895E-02 -0.895E-02
  -5.006 -0.861E-02 -0.861E-02
  -4.996 -0.828E-02 -0.828E-02
  -4.986 -0.795E-02 -0.795E-02
  -4.976 -0.763E-02 -0.763E-02
  -4.966 -0.731E-02 -0.731E-02
  -4.956 -0.701E-02 -0.701E-02
  -4.946 -0.671E-02 -0.671E-02
  -4.936 -0.642E-02 -0.642E-02
  -4.926 -0.614E-02 -0.614E-02
  -4.916 -0.586E-02 -0.586E-02
  -4.906 -0.559E-02 -0.559E-02
  -4.896 -0.533E-02 -0.533E-02
  -4.886 -0.508E-02 -0.508E-02
  -4.876 -0.484E-02 -0.484E-02
  -4.866 -0.460E-02 -0.460E-02
  -4.856 -0.438E-02 -0.438E-02
  -4.846 -0.416E-02 -0.416E-02
  -4.836 -0.395E-02 -0.395E-02
  -4.826 -0.374E-02 -0.374E-02
  -4.816 -0.355E-02 -0.355E-02
  -4.806 -0.336E-02 -0.336E-02
  -4.796 -0.318E-02 -0.318E-02
  -4.786 -0.300E-02 -0.300E-02
  -4.776 -0.283E-02 -0.283E-02
  -4.766 -0.267E-02 -0.267E-02
  -4.756 -0.252E-02 -0.252E-02
  -4.746 -0.237E-02 -0.237E-02
  -4.736 -0.223E-02 -0.223E-02
  -4.726 -0.210E-02 -0.210E-02
  -4.716 -0.197E-02 -0.197E-02
  -4.706 -0.184E-02 -0.184E-02
  -4.696 -0.173E-02 -0.173E-02
  -4.686 -0.162E-02 -0.162E-02
  -4.676 -0.151E-02 -0.151E-02
  -4.666 -0.141E-02 -0.141E-02
  -4.656 -0.131E-02 -0.131E-02
  -4.646 -0.122E-02 -0.122E-02
  -4.636 -0.113E-02 -0.113E-02
  -4.626 -0.105E-02 -0.105E-02
  -4.616 -0.971E-03 -0.971E-03
  -4.606 -0.896E-03 -0.896E-03
  -4.596 -0.826E-03 -0.826E-03
  -4.586 -0.759E-03 -0.759E-03
  -4.576 -0.696E-03 -0.696E-03
  -4.566 -0.637E-03 -0.637E-03
  -4.556 -0.580E-03 -0.580E-03
  -4.546 -0.527E-03 -0.527E-03
  -4.536 -0.477E-03 -0.477E-03
  -4.526 -0.430E-03 -0.430E-03
  -4.516 -0.386E-03 -0.386E-03
  -4.506 -0.344E-03 -0.344E-03
  -4.496 -0.305E-03 -0.305E-03
  -4.486 -0.268E-03 -0.268E-03
  -4.476 -0.233E-03 -0.233E-03
  -4.466 -0.201E-03 -0.201E-03
  -4.456 -0.170E-03 -0.170E-03
  -4.446 -0.142E-03 -0.142E-03
  -4.436 -0.116E-03 -0.116E-03
  -4.426 -0.909E-04 -0.909E-04
  -4.416 -0.678E-04 -0.678E-04
  -4.406 -0.464E-04 -0.464E-04
  -4.396 -0.265E-04 -0.265E-04
  -4.386 -0.803E-05 -0.803E-05
  -4.376  0.908E-05  0.908E-05
  -4.366  0.249E-04  0.249E-04
  -4.356  0.395E-04  0.395E-04
  -4.346  0.530E-04  0.530E-04
  -4.336  0.653E-04  0.653E-04
  -4.326  0.766E-04  0.766E-04
  -4.316  0.870E-04  0.870E-04
  -4.306  0.964E-04  0.964E-04
  -4.296  0.105E-03  0.105E-03
  -4.286  0.113E-03  0.113E-03
  -4.276  0.120E-03  0.120E-03
  -4.266  0.126E-03  0.126E-03
  -4.256  0.131E-03  0.131E-03
  -4.246  0.136E-03  0.136E-03
  -4.236  0.141E-03  0.141E-03
  -4.226  0.144E-03  0.144E-03
  -4.216  0.148E-03  0.148E-03
  -4.206  0.150E-03  0.150E-03
  -4.196  0.152E-03  0.152E-03
  -4.186  0.154E-03  0.154E-03
  -4.176  0.156E-03  0.156E-03
  -4.166  0.157E-03  0.157E-03
  -4.156  0.157E-03  0.157E-03
  -4.146  0.157E-03  0.157E-03
  -4.136  0.157E-03  0.157E-03
  -4.126  0.157E-03  0.157E-03
  -4.116  0.156E-03  0.156E-03
  -4.106  0.156E-03  0.156E-03
  -4.096  0.155E-03  0.155E-03
  -4.086  0.153E-03  0.153E-03
  -4.076  0.152E-03  0.152E-03
  -4.066  0.150E-03  0.150E-03
  -4.056  0.148E-03  0.148E-03
  -4.046  0.146E-03  0.146E-03
  -4.036  0.144E-03  0.144E-03
  -4.026  0.142E-03  0.142E-03
  -4.016  0.139E-03  0.139E-03
  -4.006  0.137E-03  0.137E-03
  -3.996  0.134E-03  0.134E-03
  -3.986  0.132E-03  0.132E-03
  -3.976  0.129E-03  0.129E-03
  -3.966  0.126E-03  0.126E-03
  -3.956  0.124E-03  0.124E-03
  -3.946  0.121E-03  0.121E-03
  -3.936  0.118E-03  0.118E-03
  -3.926  0.115E-03  0.115E-03
  -3.916  0.112E-03  0.112E-03
  -3.906  0.109E-03  0.109E-03
  -3.896  0.106E-03  0.106E-03
  -3.886  0.104E-03  0.104E-03
  -3.876  0.101E-03  0.101E-03
  -3.866  0.979E-04  0.979E-04
  -3.856  0.950E-04  0.950E-04
  -3.846  0.923E-04  0.923E-04
  -3.836  0.895E-04  0.895E-04
  -3.826  0.868E-04  0.868E-04
  -3.816  0.841E-04  0.841E-04
  -3.806  0.815E-04  0.815E-04
  -3.796  0.789E-04  0.789E-04
  -3.786  0.764E-04  0.764E-04
  -3.776  0.739E-04  0.739E-04
  -3.766  0.715E-04  0.715E-04
  -3.756  0.692E-04  0.692E-04
  -3.746  0.669E-04  0.669E-04
  -3.736  0.647E-04  0.647E-04
  -3.726  0.625E-04  0.625E-04
  -3.716  0.605E-04  0.605E-04
  -3.706  0.584E-04  0.584E-04
  -3.696  0.565E-04  0.565E-04
  -3.686  0.546E-04  0.546E-04
  -3.676  0.528E-04  0.528E-04
  -3.666  0.511E-04  0.511E-04
  -3.656  0.494E-04  0.494E-04
  -3.646  0.478E-04  0.478E-04
  -3.636  0.463E-04  0.463E-04
  -3.626  0.448E-04  0.448E-04
  -3.616  0.434E-04  0.434E-04
  -3.606  0.421E-04  0.421E-04
  -3.596  0.408E-04  0.408E-04
  -3.586  0.397E-04  0.397E-04
  -3.576  0.385E-04  0.385E-04
  -3.566  0.375E-04  0.375E-04
  -3.556  0.365E-04  0.365E-04
  -3.546  0.355E-04  0.355E-04
  -3.536  0.347E-04  0.347E-04
  -3.526  0.338E-04  0.338E-04
  -3.516  0.331E-04  0.331E-04
  -3.506  0.324E-04  0.324E-04
  -3.496  0.317E-04  0.317E-04
  -3.486  0.311E-04  0.311E-04
  -3.476  0.306E-04  0.306E-04
  -3.466  0.301E-04  0.301E-04
  -3.456  0.296E-04  0.296E-04
  -3.446  0.292E-04  0.292E-04
  -3.436  0.288E-04  0.288E-04
  -3.426  0.285E-04  0.285E-04
  -3.416  0.282E-04  0.282E-04
  -3.406  0.279E-04  0.279E-04
  -3.396  0.277E-04  0.277E-04
  -3.386  0.275E-04  0.275E-04
  -3.376  0.273E-04  0.273E-04
  -3.366  0.271E-04  0.271E-04
  -3.356  0.270E-04  0.270E-04
  -3.346  0.269E-04  0.269E-04
  -3.336  0.269E-04  0.269E-04
  -3.326  0.268E-04  0.268E-04
  -3.316  0.268E-04  0.268E-04
  -3.306  0.268E-04  0.268E-04
  -3.296  0.268E-04  0.268E-04
  -3.286  0.268E-04  0.268E-04
  -3.276  0.268E-04  0.268E-04
  -3.266  0.268E-04  0.268E-04
  -3.256  0.269E-04  0.269E-04
  -3.246  0.269E-04  0.269E-04
  -3.236  0.270E-04  0.270E-04
  -3.226  0.271E-04  0.271E-04
  -3.216  0.271E-04  0.271E-04
  -3.206  0.272E-04  0.272E-04
  -3.196  0.273E-04  0.273E-04
  -3.186  0.273E-04  0.273E-04
  -3.176  0.274E-04  0.274E-04
  -3.166  0.275E-04  0.275E-04
  -3.156  0.276E-04  0.276E-04
  -3.146  0.276E-04  0.276E-04
  -3.136  0.277E-04  0.277E-04
  -3.126  0.277E-04  0.277E-04
  -3.116  0.278E-04  0.278E-04
  -3.106  0.278E-04  0.278E-04
  -3.096  0.279E-04  0.279E-04
  -3.086  0.279E-04  0.279E-04
  -3.076  0.279E-04  0.279E-04
  -3.066  0.280E-04  0.280E-04
  -3.056  0.280E-04  0.280E-04
  -3.046  0.280E-04  0.280E-04
  -3.036  0.280E-04  0.280E-04
  -3.026  0.280E-04  0.280E-04
  -3.016  0.279E-04  0.279E-04
  -3.006  0.279E-04  0.279E-04
  -2.996  0.279E-04  0.279E-04
  -2.986  0.278E-04  0.278E-04
  -2.976  0.277E-04  0.277E-04
  -2.966  0.277E-04  0.277E-04
  -2.956  0.276E-04  0.276E-04
  -2.946  0.275E-04  0.275E-04
  -2.936  0.274E-04  0.274E-04
  -2.926  0.273E-04  0.273E-04
  -2.916  0.272E-04  0.272E-04
  -2.906  0.271E-04  0.271E-04
  -2.896  0.269E-04  0.269E-04
  -2.886  0.268E-04  0.268E-04
  -2.876  0.267E-04  0.267E-04
  -2.866  0.265E-04  0.265E-04
  -2.856  0.264E-04  0.264E-04
  -2.846  0.262E-04  0.262E-04
  -2.836  0.260E-04  0.260E-04
  -2.826  0.258E-04  0.258E-04
  -2.816  0.257E-04  0.257E-04
  -2.806  0.255E-04  0.255E-04
  -2.796  0.253E-04  0.253E-04
  -2.786  0.251E-04  0.251E-04
  -2.776  0.249E-04  0.249E-04
  -2.766  0.247E-04  0.247E-04
  -2.756  0.245E-04  0.245E-04
  -2.746  0.243E-04  0.243E-04
  -2.736  0.241E-04  0.241E-04
  -2.726  0.239E-04  0.239E-04
  -2.716  0.237E-04  0.237E-04
  -2.706  0.235E-04  0.235E-04
  -2.696  0.233E-04  0.233E-04
  -2.686  0.231E-04  0.231E-04
  -2.676  0.229E-04  0.229E-04
  -2.666  0.227E-04  0.227E-04
  -2.656  0.225E-04  0.225E-04
  -2.646  0.223E-04  0.223E-04
  -2.636  0.221E-04  0.221E-04
  -2.626  0.219E-04  0.219E-04
  -2.616  0.218E-04  0.218E-04
  -2.606  0.216E-04  0.216E-04
  -2.596  0.214E-04  0.214E-04
  -2.586  0.213E-04  0.213E-04
  -2.576  0.211E-04  0.211E-04
  -2.566  0.210E-04  0.210E-04
  -2.556  0.208E-04  0.208E-04
  -2.546  0.207E-04  0.207E-04
  -2.536  0.206E-04  0.206E-04
  -2.526  0.205E-04  0.205E-04
  -2.516  0.204E-04  0.204E-04
  -2.506  0.203E-04  0.203E-04
  -2.496  0.202E-04  0.202E-04
  -2.486  0.201E-04  0.201E-04
  -2.476  0.201E-04  0.201E-04
  -2.466  0.200E-04  0.200E-04
  -2.456  0.200E-04  0.200E-04
  -2.446  0.200E-04  0.200E-04
  -2.436  0.199E-04  0.199E-04
  -2.426  0.199E-04  0.199E-04
  -2.416  0.200E-04  0.200E-04
  -2.406  0.200E-04  0.200E-04
  -2.396  0.200E-04  0.200E-04
  -2.386  0.201E-04  0.201E-04
  -2.376  0.201E-04  0.201E-04
  -2.366  0.202E-04  0.202E-04
  -2.356  0.203E-04  0.203E-04
  -2.346  0.204E-04  0.204E-04
  -2.336  0.205E-04  0.205E-04
  -2.326  0.206E-04  0.206E-04
  -2.316  0.208E-04  0.208E-04
  -2.306  0.209E-04  0.209E-04
  -2.296  0.211E-04  0.211E-04
  -2.286  0.213E-04  0.213E-04
  -2.276  0.215E-04  0.215E-04
  -2.266  0.217E-04  0.217E-04
  -2.256  0.219E-04  0.219E-04
  -2.246  0.222E-04  0.222E-04
  -2.236  0.224E-04  0.224E-04
  -2.226  0.227E-04  0.227E-04
  -2.216  0.229E-04  0.229E-04
  -2.206  0.232E-04  0.232E-04
  -2.196  0.235E-04  0.235E-04
  -2.186  0.238E-04  0.238E-04
  -2.176  0.241E-04  0.241E-04
  -2.166  0.244E-04  0.244E-04
  -2.156  0.248E-04  0.248E-04
  -2.146  0.251E-04  0.251E-04
  -2.136  0.255E-04  0.255E-04
  -2.126  0.258E-04  0.258E-04
  -2.116  0.262E-04  0.262E-04
  -2.106  0.266E-04  0.266E-04
  -2.096  0.270E-04  0.270E-04
  -2.086  0.274E-04  0.274E-04
  -2.076  0.278E-04  0.278E-04
  -2.066  0.282E-04  0.282E-04
  -2.056  0.286E-04  0.286E-04
  -2.046  0.290E-04  0.290E-04
  -2.036  0.294E-04  0.294E-04
  -2.026  0.298E-04  0.298E-04
  -2.016  0.302E-04  0.302E-04
  -2.006  0.306E-04  0.306E-04
  -1.996  0.311E-04  0.311E-04
  -1.986  0.315E-04  0.315E-04
  -1.976  0.319E-04  0.319E-04
  -1.966  0.323E-04  0.323E-04
  -1.956  0.327E-04  0.327E-04
  -1.946  0.332E-04  0.332E-04
  -1.936  0.336E-04  0.336E-04
  -1.926  0.340E-04  0.340E-04
  -1.916  0.344E-04  0.344E-04
  -1.906  0.348E-04  0.348E-04
  -1.896  0.352E-04  0.352E-04
  -1.886  0.356E-04  0.356E-04
  -1.876  0.360E-04  0.360E-04
  -1.866  0.364E-04  0.364E-04
  -1.856  0.367E-04  0.367E-04
  -1.846  0.371E-04  0.371E-04
  -1.836  0.374E-04  0.374E-04
  -1.826  0.378E-04  0.378E-04
  -1.816  0.381E-04  0.381E-04
  -1.806  0.384E-04  0.384E-04
  -1.796  0.388E-04  0.388E-04
  -1.786  0.391E-04  0.391E-04
  -1.776  0.394E-04  0.394E-04
  -1.766  0.396E-04  0.396E-04
  -1.756  0.399E-04  0.399E-04
  -1.746  0.402E-04  0.402E-04
  -1.736  0.404E-04  0.404E-04
  -1.726  0.406E-04  0.406E-04
  -1.716  0.408E-04  0.408E-04
  -1.706  0.410E-04  0.410E-04
  -1.696  0.412E-04  0.412E-04
  -1.686  0.414E-04  0.414E-04
  -1.676  0.415E-04  0.415E-04
  -1.666  0.417E-04  0.417E-04
  -1.656  0.418E-04  0.418E-04
  -1.646  0.419E-04  0.419E-04
  -1.636  0.420E-04  0.420E-04
  -1.626  0.420E-04  0.420E-04
  -1.616  0.421E-04  0.421E-04
  -1.606  0.421E-04  0.421E-04
  -1.596  0.422E-04  0.422E-04
  -1.586  0.422E-04  0.422E-04
  -1.576  0.422E-04  0.422E-04
  -1.566  0.421E-04  0.421E-04
  -1.556  0.421E-04  0.421E-04
  -1.546  0.420E-04  0.420E-04
  -1.536  0.419E-04  0.419E-04
  -1.526  0.418E-04  0.418E-04
  -1.516  0.417E-04  0.417E-04
  -1.506  0.416E-04  0.416E-04
  -1.496  0.415E-04  0.415E-04
  -1.486  0.413E-04  0.413E-04
  -1.476  0.411E-04  0.411E-04
  -1.466  0.410E-04  0.410E-04
  -1.456  0.408E-04  0.408E-04
  -1.446  0.405E-04  0.405E-04
  -1.436  0.403E-04  0.403E-04
  -1.426  0.401E-04  0.401E-04
  -1.416  0.398E-04  0.398E-04
  -1.406  0.395E-04  0.395E-04
  -1.396  0.393E-04  0.393E-04
  -1.386  0.390E-04  0.390E-04
  -1.376  0.386E-04  0.386E-04
  -1.366  0.383E-04  0.383E-04
  -1.356  0.380E-04  0.380E-04
  -1.346  0.376E-04  0.376E-04
  -1.336  0.373E-04  0.373E-04
  -1.326  0.369E-04  0.369E-04
  -1.316  0.366E-04  0.366E-04
  -1.306  0.362E-04  0.362E-04
  -1.296  0.358E-04  0.358E-04
  -1.286  0.354E-04  0.354E-04
  -1.276  0.350E-04  0.350E-04
  -1.266  0.345E-04  0.345E-04
  -1.256  0.341E-04  0.341E-04
  -1.246  0.337E-04  0.337E-04
  -1.236  0.332E-04  0.332E-04
  -1.226  0.328E-04  0.328E-04
  -1.216  0.323E-04  0.323E-04
  -1.206  0.319E-04  0.319E-04
  -1.196  0.314E-04  0.314E-04
  -1.186  0.310E-04  0.310E-04
  -1.176  0.305E-04  0.305E-04
  -1.166  0.300E-04  0.300E-04
  -1.156  0.296E-04  0.296E-04
  -1.146  0.291E-04  0.291E-04
  -1.136  0.286E-04  0.286E-04
  -1.126  0.281E-04  0.281E-04
  -1.116  0.276E-04  0.276E-04
  -1.106  0.272E-04  0.272E-04
  -1.096  0.267E-04  0.267E-04
  -1.086  0.262E-04  0.262E-04
  -1.076  0.257E-04  0.257E-04
  -1.066  0.252E-04  0.252E-04
  -1.056  0.247E-04  0.247E-04
  -1.046  0.243E-04  0.243E-04
  -1.036  0.238E-04  0.238E-04
  -1.026  0.233E-04  0.233E-04
  -1.016  0.228E-04  0.228E-04
  -1.006  0.224E-04  0.224E-04
  -0.996  0.219E-04  0.219E-04
  -0.986  0.214E-04  0.214E-04
  -0.976  0.210E-04  0.210E-04
  -0.966  0.205E-04  0.205E-04
  -0.956  0.201E-04  0.201E-04
  -0.946  0.196E-04  0.196E-04
  -0.936  0.192E-04  0.192E-04
  -0.926  0.187E-04  0.187E-04
  -0.916  0.183E-04  0.183E-04
  -0.906  0.179E-04  0.179E-04
  -0.896  0.175E-04  0.175E-04
  -0.886  0.170E-04  0.170E-04
  -0.876  0.166E-04  0.166E-04
  -0.866  0.162E-04  0.162E-04
  -0.856  0.159E-04  0.159E-04
  -0.846  0.155E-04  0.155E-04
  -0.836  0.151E-04  0.151E-04
  -0.826  0.147E-04  0.147E-04
  -0.816  0.144E-04  0.144E-04
  -0.806  0.140E-04  0.140E-04
  -0.796  0.137E-04  0.137E-04
  -0.786  0.134E-04  0.134E-04
  -0.776  0.131E-04  0.131E-04
  -0.766  0.128E-04  0.128E-04
  -0.756  0.125E-04  0.125E-04
  -0.746  0.122E-04  0.122E-04
  -0.736  0.119E-04  0.119E-04
  -0.726  0.116E-04  0.116E-04
  -0.716  0.114E-04  0.114E-04
  -0.706  0.112E-04  0.112E-04
  -0.696  0.109E-04  0.109E-04
  -0.686  0.107E-04  0.107E-04
  -0.676  0.105E-04  0.105E-04
  -0.666  0.103E-04  0.103E-04
  -0.656  0.102E-04  0.102E-04
  -0.646  0.100E-04  0.100E-04
  -0.636  0.987E-05  0.987E-05
  -0.626  0.974E-05  0.974E-05
  -0.616  0.963E-05  0.963E-05
  -0.606  0.953E-05  0.953E-05
  -0.596  0.945E-05  0.945E-05
  -0.586  0.938E-05  0.938E-05
  -0.576  0.933E-05  0.933E-05
  -0.566  0.929E-05  0.929E-05
  -0.556  0.927E-05  0.927E-05
  -0.546  0.927E-05  0.927E-05
  -0.536  0.928E-05  0.928E-05
  -0.526  0.931E-05  0.931E-05
  -0.516  0.935E-05  0.935E-05
  -0.506  0.941E-05  0.941E-05
  -0.496  0.949E-05  0.949E-05
  -0.486  0.958E-05  0.958E-05
  -0.476  0.969E-05  0.969E-05
  -0.466  0.982E-05  0.982E-05
  -0.456  0.996E-05  0.996E-05
  -0.446  0.101E-04  0.101E-04
  -0.436  0.103E-04  0.103E-04
  -0.426  0.105E-04  0.105E-04
  -0.416  0.107E-04  0.107E-04
  -0.406  0.109E-04  0.109E-04
  -0.396  0.112E-04  0.112E-04
  -0.386  0.114E-04  0.114E-04
  -0.376  0.117E-04  0.117E-04
  -0.366  0.120E-04  0.120E-04
  -0.356  0.122E-04  0.122E-04
  -0.346  0.126E-04  0.126E-04
  -0.336  0.129E-04  0.129E-04
  -0.326  0.132E-04  0.132E-04
  -0.316  0.135E-04  0.135E-04
  -0.306  0.139E-04  0.139E-04
  -0.296  0.143E-04  0.143E-04
  -0.286  0.146E-04  0.146E-04
  -0.276  0.150E-04  0.150E-04
  -0.266  0.154E-04  0.154E-04
  -0.256  0.158E-04  0.158E-04
  -0.246  0.162E-04  0.162E-04
  -0.236  0.166E-04  0.166E-04
  -0.226  0.170E-04  0.170E-04
  -0.216  0.174E-04  0.174E-04
  -0.206  0.178E-04  0.178E-04
  -0.196  0.182E-04  0.182E-04
  -0.186  0.186E-04  0.186E-04
  -0.176  0.190E-04  0.190E-04
  -0.166  0.194E-04  0.194E-04
  -0.156  0.197E-04  0.197E-04
  -0.146  0.201E-04  0.201E-04
  -0.136  0.205E-04  0.205E-04
  -0.126  0.208E-04  0.208E-04
  -0.116  0.211E-04  0.211E-04
  -0.106  0.214E-04  0.214E-04
  -0.096  0.217E-04  0.217E-04
  -0.086  0.220E-04  0.220E-04
  -0.076  0.222E-04  0.222E-04
  -0.066  0.224E-04  0.224E-04
  -0.056  0.225E-04  0.225E-04
  -0.046  0.227E-04  0.227E-04
  -0.036  0.228E-04  0.228E-04
  -0.026  0.228E-04  0.228E-04
  -0.016  0.228E-04  0.228E-04
  -0.006  0.228E-04  0.228E-04
   0.004  0.226E-04  0.226E-04
   0.014  0.225E-04  0.225E-04
   0.024  0.222E-04  0.222E-04
   0.034  0.219E-04  0.219E-04
   0.044  0.216E-04  0.216E-04
   0.054  0.211E-04  0.211E-04
   0.064  0.206E-04  0.206E-04
   0.074  0.199E-04  0.199E-04
   0.084  0.192E-04  0.192E-04
   0.094  0.184E-04  0.184E-04
   0.104  0.174E-04  0.174E-04
   0.114  0.163E-04  0.163E-04
   0.124  0.151E-04  0.151E-04
   0.134  0.138E-04  0.138E-04
   0.144  0.123E-04  0.123E-04
   0.154  0.107E-04  0.107E-04
   0.164  0.885E-05  0.885E-05
   0.174  0.686E-05  0.686E-05
   0.184  0.468E-05  0.468E-05
   0.194  0.229E-05  0.229E-05
   0.204 -0.302E-06 -0.302E-06
   0.214 -0.313E-05 -0.313E-05
   0.224 -0.620E-05 -0.620E-05
   0.234 -0.953E-05 -0.953E-05
   0.244 -0.131E-04 -0.131E-04
   0.254 -0.170E-04 -0.170E-04
   0.264 -0.213E-04 -0.213E-04
   0.274 -0.258E-04 -0.258E-04
   0.284 -0.307E-04 -0.307E-04
   0.294 -0.360E-04 -0.360E-04
   0.304 -0.417E-04 -0.417E-04
   0.314 -0.478E-04 -0.478E-04
   0.324 -0.543E-04 -0.543E-04
   0.334 -0.613E-04 -0.613E-04
   0.344 -0.689E-04 -0.689E-04
   0.354 -0.769E-04 -0.769E-04
   0.364 -0.856E-04 -0.856E-04
   0.374 -0.948E-04 -0.948E-04
   0.384 -0.105E-03 -0.105E-03
   0.394 -0.115E-03 -0.115E-03
   0.404 -0.127E-03 -0.127E-03
   0.414 -0.139E-03 -0.139E-03
   0.424 -0.151E-03 -0.151E-03
   0.434 -0.165E-03 -0.165E-03
   0.444 -0.180E-03 -0.180E-03
   0.454 -0.195E-03 -0.195E-03
   0.464 -0.212E-03 -0.212E-03
   0.474 -0.230E-03 -0.230E-03
   0.484 -0.248E-03 -0.248E-03
   0.494 -0.268E-03 -0.268E-03
   0.504 -0.289E-03 -0.289E-03
   0.514 -0.312E-03 -0.312E-03
   0.524 -0.336E-03 -0.336E-03
   0.534 -0.361E-03 -0.361E-03
   0.544 -0.388E-03 -0.388E-03
   0.554 -0.417E-03 -0.417E-03
   0.564 -0.447E-03 -0.447E-03
   0.574 -0.479E-03 -0.479E-03
   0.584 -0.513E-03 -0.513E-03
   0.594 -0.548E-03 -0.548E-03
   0.604 -0.586E-03 -0.586E-03
   0.614 -0.626E-03 -0.626E-03
   0.624 -0.668E-03 -0.668E-03
   0.634 -0.713E-03 -0.713E-03
   0.644 -0.760E-03 -0.760E-03
   0.654 -0.810E-03 -0.810E-03
   0.664 -0.862E-03 -0.862E-03
   0.674 -0.917E-03 -0.917E-03
   0.684 -0.975E-03 -0.975E-03
   0.694 -0.104E-02 -0.104E-02
   0.704 -0.110E-02 -0.110E-02
   0.714 -0.117E-02 -0.117E-02
   0.724 -0.124E-02 -0.124E-02
   0.734 -0.131E-02 -0.131E-02
   0.744 -0.139E-02 -0.139E-02
   0.754 -0.147E-02 -0.147E-02
   0.764 -0.156E-02 -0.156E-02
   0.774 -0.165E-02 -0.165E-02
   0.784 -0.174E-02 -0.174E-02
   0.794 -0.184E-02 -0.184E-02
   0.804 -0.194E-02 -0.194E-02
   0.814 -0.205E-02 -0.205E-02
   0.824 -0.216E-02 -0.216E-02
   0.834 -0.228E-02 -0.228E-02
   0.844 -0.240E-02 -0.240E-02
   0.854 -0.252E-02 -0.252E-02
   0.864 -0.266E-02 -0.266E-02
   0.874 -0.279E-02 -0.279E-02
   0.884 -0.293E-02 -0.293E-02
   0.894 -0.308E-02 -0.308E-02
   0.904 -0.323E-02 -0.323E-02
   0.914 -0.339E-02 -0.339E-02
   0.924 -0.356E-02 -0.356E-02
   0.934 -0.372E-02 -0.372E-02
   0.944 -0.390E-02 -0.390E-02
   0.954 -0.408E-02 -0.408E-02
   0.964 -0.427E-02 -0.427E-02
   0.974 -0.446E-02 -0.446E-02
   0.984 -0.466E-02 -0.466E-02
   0.994 -0.486E-02 -0.486E-02
   1.004 -0.507E-02 -0.507E-02
   1.014 -0.528E-02 -0.528E-02
   1.024 -0.550E-02 -0.550E-02
   1.034 -0.573E-02 -0.573E-02
   1.044 -0.596E-02 -0.596E-02
   1.054 -0.619E-02 -0.619E-02
   1.064 -0.643E-02 -0.643E-02
   1.074 -0.668E-02 -0.668E-02
   1.084 -0.692E-02 -0.692E-02
   1.094 -0.718E-02 -0.718E-02
   1.104 -0.743E-02 -0.743E-02
   1.114 -0.769E-02 -0.769E-02
   1.124 -0.795E-02 -0.795E-02
   1.134 -0.822E-02 -0.822E-02
   1.144 -0.848E-02 -0.848E-02
   1.154 -0.875E-02 -0.875E-02
   1.164 -0.902E-02 -0.902E-02
   1.174 -0.929E-02 -0.929E-02
   1.184 -0.956E-02 -0.956E-02
   1.194 -0.982E-02 -0.982E-02
   1.204 -0.101E-01 -0.101E-01
   1.214 -0.103E-01 -0.103E-01
   1.224 -0.106E-01 -0.106E-01
   1.234 -0.109E-01 -0.109E-01
   1.244 -0.111E-01 -0.111E-01
   1.254 -0.114E-01 -0.114E-01
   1.264 -0.116E-01 -0.116E-01
   1.274 -0.118E-01 -0.118E-01
   1.284 -0.120E-01 -0.120E-01
   1.294 -0.122E-01 -0.122E-01
   1.304 -0.124E-01 -0.124E-01
   1.314 -0.126E-01 -0.126E-01
   1.324 -0.128E-01 -0.128E-01
   1.334 -0.129E-01 -0.129E-01
   1.344 -0.130E-01 -0.130E-01
   1.354 -0.132E-01 -0.132E-01
   1.364 -0.132E-01 -0.132E-01
   1.374 -0.133E-01 -0.133E-01
   1.384 -0.134E-01 -0.134E-01
   1.394 -0.134E-01 -0.134E-01
   1.404 -0.134E-01 -0.134E-01
   1.414 -0.133E-01 -0.133E-01
   1.424 -0.132E-01 -0.132E-01
   1.434 -0.131E-01 -0.131E-01
   1.444 -0.130E-01 -0.130E-01
   1.454 -0.128E-01 -0.128E-01
   1.464 -0.126E-01 -0.126E-01
   1.474 -0.123E-01 -0.123E-01
   1.484 -0.120E-01 -0.120E-01
   1.494 -0.117E-01 -0.117E-01
   1.504 -0.113E-01 -0.113E-01
   1.514 -0.108E-01 -0.108E-01
   1.524 -0.103E-01 -0.103E-01
   1.534 -0.975E-02 -0.975E-02
   1.544 -0.914E-02 -0.914E-02
   1.554 -0.846E-02 -0.846E-02
   1.564 -0.772E-02 -0.772E-02
   1.574 -0.692E-02 -0.692E-02
   1.584 -0.606E-02 -0.606E-02
   1.594 -0.512E-02 -0.512E-02
   1.604 -0.412E-02 -0.412E-02
   1.614 -0.304E-02 -0.304E-02
   1.624 -0.190E-02 -0.190E-02
   1.634 -0.670E-03 -0.670E-03
   1.644  0.633E-03  0.633E-03
   1.654  0.202E-02  0.202E-02
   1.664  0.348E-02  0.348E-02
   1.674  0.503E-02  0.503E-02
   1.684  0.666E-02  0.666E-02
   1.694  0.838E-02  0.838E-02
   1.704  0.102E-01  0.102E-01
   1.714  0.121E-01  0.121E-01
   1.724  0.141E-01  0.141E-01
   1.734  0.161E-01  0.161E-01
   1.744  0.183E-01  0.183E-01
   1.754  0.206E-01  0.206E-01
   1.764  0.229E-01  0.229E-01
   1.774  0.254E-01  0.254E-01
   1.784  0.279E-01  0.279E-01
   1.794  0.305E-01  0.305E-01
   1.804  0.333E-01  0.333E-01
   1.814  0.361E-01  0.361E-01
   1.824  0.390E-01  0.390E-01
   1.834  0.420E-01  0.420E-01
   1.844  0.451E-01  0.451E-01
   1.854  0.483E-01  0.483E-01
   1.864  0.516E-01  0.516E-01
   1.874  0.550E-01  0.550E-01
   1.884  0.584E-01  0.584E-01
   1.894  0.620E-01  0.620E-01
   1.904  0.656E-01  0.656E-01
   1.914  0.693E-01  0.693E-01
   1.924  0.731E-01  0.731E-01
   1.934  0.770E-01  0.770E-01
   1.944  0.810E-01  0.810E-01
   1.954  0.850E-01  0.850E-01
   1.964  0.891E-01  0.891E-01
   1.974  0.932E-01  0.932E-01
   1.984  0.975E-01  0.975E-01
   1.994  0.102E+00  0.102E+00
   2.004  0.106E+00  0.106E+00
   2.014  0.110E+00  0.110E+00
   2.024  0.115E+00  0.115E+00
   2.034  0.119E+00  0.119E+00
   2.044  0.124E+00  0.124E+00
   2.054  0.128E+00  0.128E+00
   2.064  0.133E+00  0.133E+00
   2.074  0.138E+00  0.138E+00
   2.084  0.142E+00  0.142E+00
   2.094  0.147E+00  0.147E+00
   2.104  0.151E+00  0.151E+00
   2.114  0.156E+00  0.156E+00
   2.124  0.161E+00  0.161E+00
   2.134  0.165E+00  0.165E+00
   2.144  0.170E+00  0.170E+00
   2.154  0.175E+00  0.175E+00
   2.164  0.179E+00  0.179E+00
   2.174  0.184E+00  0.184E+00
   2.184  0.188E+00  0.188E+00
   2.194  0.193E+00  0.193E+00
   2.204  0.197E+00  0.197E+00
   2.214  0.201E+00  0.201E+00
   2.224  0.206E+00  0.206E+00
   2.234  0.210E+00  0.210E+00
   2.244  0.214E+00  0.214E+00
   2.254  0.218E+00  0.218E+00
   2.264  0.222E+00  0.222E+00
   2.274  0.226E+00  0.226E+00
   2.284  0.230E+00  0.230E+00
   2.294  0.233E+00  0.233E+00
   2.304  0.237E+00  0.237E+00
   2.314  0.240E+00  0.240E+00
   2.324  0.244E+00  0.244E+00
   2.334  0.247E+00  0.247E+00
   2.344  0.250E+00  0.250E+00
   2.354  0.253E+00  0.253E+00
   2.364  0.256E+00  0.256E+00
   2.374  0.259E+00  0.259E+00
   2.384  0.261E+00  0.261E+00
   2.394  0.264E+00  0.264E+00
   2.404  0.266E+00  0.266E+00
   2.414  0.268E+00  0.268E+00
   2.424  0.270E+00  0.270E+00
   2.434  0.272E+00  0.272E+00
   2.444  0.273E+00  0.273E+00
   2.454  0.275E+00  0.275E+00
   2.464  0.276E+00  0.276E+00
   2.474  0.277E+00  0.277E+00
   2.484  0.278E+00  0.278E+00
   2.494  0.279E+00  0.279E+00
   2.504  0.279E+00  0.279E+00
   2.514  0.280E+00  0.280E+00
   2.524  0.280E+00  0.280E+00
   2.534  0.280E+00  0.280E+00
   2.544  0.280E+00  0.280E+00
   2.554  0.280E+00  0.280E+00
   2.564  0.280E+00  0.280E+00
   2.574  0.279E+00  0.279E+00
   2.584  0.278E+00  0.278E+00
   2.594  0.277E+00  0.277E+00
   2.604  0.276E+00  0.276E+00
   2.614  0.275E+00  0.275E+00
   2.624  0.274E+00  0.274E+00
   2.634  0.272E+00  0.272E+00
   2.644  0.271E+00  0.271E+00
   2.654  0.269E+00  0.269E+00
   2.664  0.267E+00  0.267E+00
   2.674  0.265E+00  0.265E+00
   2.684  0.262E+00  0.262E+00
   2.694  0.260E+00  0.260E+00
   2.704  0.257E+00  0.257E+00
   2.714  0.255E+00  0.255E+00
   2.724  0.252E+00  0.252E+00
   2.734  0.249E+00  0.249E+00
   2.744  0.246E+00  0.246E+00
   2.754  0.243E+00  0.243E+00
   2.764  0.240E+00  0.240E+00
   2.774  0.237E+00  0.237E+00
   2.784  0.233E+00  0.233E+00
   2.794  0.230E+00  0.230E+00
   2.804  0.226E+00  0.226E+00
   2.814  0.223E+00  0.223E+00
   2.824  0.219E+00  0.219E+00
   2.834  0.215E+00  0.215E+00
   2.844  0.211E+00  0.211E+00
   2.854  0.207E+00  0.207E+00
   2.864  0.203E+00  0.203E+00
   2.874  0.199E+00  0.199E+00
   2.884  0.195E+00  0.195E+00
   2.894  0.191E+00  0.191E+00
   2.904  0.187E+00  0.187E+00
   2.914  0.183E+00  0.183E+00
   2.924  0.179E+00  0.179E+00
   2.934  0.175E+00  0.175E+00
   2.944  0.171E+00  0.171E+00
   2.954  0.167E+00  0.167E+00
   2.964  0.163E+00  0.163E+00
   2.974  0.158E+00  0.158E+00
   2.984  0.154E+00  0.154E+00
   2.994  0.150E+00  0.150E+00
   3.004  0.146E+00  0.146E+00
   3.014  0.142E+00  0.142E+00
   3.024  0.138E+00  0.138E+00
   3.034  0.134E+00  0.134E+00
   3.044  0.130E+00  0.130E+00
   3.054  0.126E+00  0.126E+00
   3.064  0.122E+00  0.122E+00
   3.074  0.118E+00  0.118E+00
   3.084  0.114E+00  0.114E+00
   3.094  0.111E+00  0.111E+00
   3.104  0.107E+00  0.107E+00
   3.114  0.103E+00  0.103E+00
   3.124  0.995E-01  0.995E-01
   3.134  0.959E-01  0.959E-01
   3.144  0.924E-01  0.924E-01
   3.154  0.890E-01  0.890E-01
   3.164  0.856E-01  0.856E-01
   3.174  0.822E-01  0.822E-01
   3.184  0.790E-01  0.790E-01
   3.194  0.758E-01  0.758E-01
   3.204  0.726E-01  0.726E-01
   3.214  0.696E-01  0.696E-01
   3.224  0.666E-01  0.666E-01
   3.234  0.637E-01  0.637E-01
   3.244  0.608E-01  0.608E-01
   3.254  0.580E-01  0.580E-01
   3.264  0.553E-01  0.553E-01
   3.274  0.527E-01  0.527E-01
   3.284  0.501E-01  0.501E-01
   3.294  0.476E-01  0.476E-01
   3.304  0.452E-01  0.452E-01
   3.314  0.428E-01  0.428E-01
   3.324  0.405E-01  0.405E-01
   3.334  0.383E-01  0.383E-01
   3.344  0.362E-01  0.362E-01
   3.354  0.341E-01  0.341E-01
   3.364  0.321E-01  0.321E-01
   3.374  0.301E-01  0.301E-01
   3.384  0.282E-01  0.282E-01
   3.394  0.264E-01  0.264E-01
   3.404  0.247E-01  0.247E-01
   3.414  0.230E-01  0.230E-01
   3.424  0.214E-01  0.214E-01
   3.434  0.198E-01  0.198E-01
   3.444  0.183E-01  0.183E-01
   3.454  0.168E-01  0.168E-01
   3.464  0.154E-01  0.154E-01
   3.474  0.141E-01  0.141E-01
   3.484  0.128E-01  0.128E-01
   3.494  0.116E-01  0.116E-01
   3.504  0.105E-01  0.105E-01
   3.514  0.934E-02  0.934E-02
   3.524  0.828E-02  0.828E-02
   3.534  0.726E-02  0.726E-02
   3.544  0.629E-02  0.629E-02
   3.554  0.537E-02  0.537E-02
   3.564  0.450E-02  0.450E-02
   3.574  0.366E-02  0.366E-02
   3.584  0.288E-02  0.288E-02
   3.594  0.213E-02  0.213E-02
   3.604  0.142E-02  0.142E-02
   3.614  0.753E-03  0.753E-03
   3.624  0.122E-03  0.122E-03
   3.634 -0.471E-03 -0.471E-03
   3.644 -0.103E-02 -0.103E-02
   3.654 -0.155E-02 -0.155E-02
   3.664 -0.205E-02 -0.205E-02
   3.674 -0.250E-02 -0.250E-02
   3.684 -0.293E-02 -0.293E-02
   3.694 -0.333E-02 -0.333E-02
   3.704 -0.370E-02 -0.370E-02
   3.714 -0.405E-02 -0.405E-02
   3.724 -0.437E-02 -0.437E-02
   3.734 -0.466E-02 -0.466E-02
   3.744 -0.493E-02 -0.493E-02
   3.754 -0.517E-02 -0.517E-02
   3.764 -0.539E-02 -0.539E-02
   3.774 -0.559E-02 -0.559E-02
   3.784 -0.578E-02 -0.578E-02
   3.794 -0.594E-02 -0.594E-02
   3.804 -0.608E-02 -0.608E-02
   3.814 -0.621E-02 -0.621E-02
   3.824 -0.632E-02 -0.632E-02
   3.834 -0.641E-02 -0.641E-02
   3.844 -0.649E-02 -0.649E-02
   3.854 -0.655E-02 -0.655E-02
   3.864 -0.660E-02 -0.660E-02
   3.874 -0.663E-02 -0.663E-02
   3.884 -0.666E-02 -0.666E-02
   3.894 -0.667E-02 -0.667E-02
   3.904 -0.667E-02 -0.667E-02
   3.914 -0.666E-02 -0.666E-02
   3.924 -0.664E-02 -0.664E-02
   3.934 -0.662E-02 -0.662E-02
   3.944 -0.658E-02 -0.658E-02
   3.954 -0.654E-02 -0.654E-02
   3.964 -0.648E-02 -0.648E-02
   3.974 -0.643E-02 -0.643E-02
   3.984 -0.636E-02 -0.636E-02
   3.994 -0.629E-02 -0.629E-02
   4.004 -0.621E-02 -0.621E-02
   4.014 -0.613E-02 -0.613E-02
   4.024 -0.605E-02 -0.605E-02
   4.034 -0.596E-02 -0.596E-02
   4.044 -0.586E-02 -0.586E-02
   4.054 -0.576E-02 -0.576E-02
   4.064 -0.566E-02 -0.566E-02
   4.074 -0.556E-02 -0.556E-02
   4.084 -0.545E-02 -0.545E-02
   4.094 -0.534E-02 -0.534E-02
   4.104 -0.524E-02 -0.524E-02
   4.114 -0.512E-02 -0.512E-02
   4.124 -0.501E-02 -0.501E-02
   4.134 -0.490E-02 -0.490E-02
   4.144 -0.478E-02 -0.478E-02
   4.154 -0.467E-02 -0.467E-02
   4.164 -0.455E-02 -0.455E-02
   4.174 -0.444E-02 -0.444E-02
   4.184 -0.432E-02 -0.432E-02
   4.194 -0.421E-02 -0.421E-02
   4.204 -0.409E-02 -0.409E-02
   4.214 -0.398E-02 -0.398E-02
   4.224 -0.387E-02 -0.387E-02
   4.234 -0.375E-02 -0.375E-02
   4.244 -0.364E-02 -0.364E-02
   4.254 -0.353E-02 -0.353E-02
   4.264 -0.342E-02 -0.342E-02
   4.274 -0.332E-02 -0.332E-02
   4.284 -0.321E-02 -0.321E-02
   4.294 -0.311E-02 -0.311E-02
   4.304 -0.301E-02 -0.301E-02
   4.314 -0.290E-02 -0.290E-02
   4.324 -0.281E-02 -0.281E-02
   4.334 -0.271E-02 -0.271E-02
   4.344 -0.261E-02 -0.261E-02
   4.354 -0.252E-02 -0.252E-02
   4.364 -0.243E-02 -0.243E-02
   4.374 -0.234E-02 -0.234E-02
   4.384 -0.225E-02 -0.225E-02
   4.394 -0.217E-02 -0.217E-02
   4.404 -0.209E-02 -0.209E-02
   4.414 -0.200E-02 -0.200E-02
   4.424 -0.193E-02 -0.193E-02
   4.434 -0.185E-02 -0.185E-02
   4.444 -0.177E-02 -0.177E-02
   4.454 -0.170E-02 -0.170E-02
   4.464 -0.163E-02 -0.163E-02
   4.474 -0.156E-02 -0.156E-02
   4.484 -0.150E-02 -0.150E-02
   4.494 -0.143E-02 -0.143E-02
   4.504 -0.137E-02 -0.137E-02
   4.514 -0.131E-02 -0.131E-02
   4.524 -0.125E-02 -0.125E-02
   4.534 -0.120E-02 -0.120E-02
   4.544 -0.114E-02 -0.114E-02
   4.554 -0.109E-02 -0.109E-02
   4.564 -0.104E-02 -0.104E-02
   4.574 -0.993E-03 -0.993E-03
   4.584 -0.946E-03 -0.946E-03
   4.594 -0.901E-03 -0.901E-03
   4.604 -0.858E-03 -0.858E-03
   4.614 -0.816E-03 -0.816E-03
   4.624 -0.776E-03 -0.776E-03
   4.634 -0.738E-03 -0.738E-03
   4.644 -0.701E-03 -0.701E-03
   4.654 -0.665E-03 -0.665E-03
   4.664 -0.631E-03 -0.631E-03
   4.674 -0.599E-03 -0.599E-03
   4.684 -0.568E-03 -0.568E-03
   4.694 -0.538E-03 -0.538E-03
   4.704 -0.510E-03 -0.510E-03
   4.714 -0.483E-03 -0.483E-03
   4.724 -0.457E-03 -0.457E-03
   4.734 -0.432E-03 -0.432E-03
   4.744 -0.408E-03 -0.408E-03
   4.754 -0.386E-03 -0.386E-03
   4.764 -0.365E-03 -0.365E-03
   4.774 -0.344E-03 -0.344E-03
   4.784 -0.325E-03 -0.325E-03
   4.794 -0.306E-03 -0.306E-03
   4.804 -0.289E-03 -0.289E-03
   4.814 -0.272E-03 -0.272E-03
   4.824 -0.256E-03 -0.256E-03
   4.834 -0.241E-03 -0.241E-03
   4.844 -0.227E-03 -0.227E-03
   4.854 -0.213E-03 -0.213E-03
   4.864 -0.200E-03 -0.200E-03
   4.874 -0.188E-03 -0.188E-03
   4.884 -0.177E-03 -0.177E-03
   4.894 -0.166E-03 -0.166E-03
   4.904 -0.156E-03 -0.156E-03
   4.914 -0.146E-03 -0.146E-03
   4.924 -0.137E-03 -0.137E-03
   4.934 -0.128E-03 -0.128E-03
   4.944 -0.120E-03 -0.120E-03
   4.954 -0.112E-03 -0.112E-03
   4.964 -0.105E-03 -0.105E-03
   4.974 -0.982E-04 -0.982E-04
   4.984 -0.917E-04 -0.917E-04
   4.994 -0.857E-04 -0.857E-04
   5.004 -0.800E-04 -0.800E-04
   5.014 -0.747E-04 -0.747E-04
   5.024 -0.696E-04 -0.696E-04
   5.034 -0.649E-04 -0.649E-04
   5.044 -0.605E-04 -0.605E-04
   5.054 -0.563E-04 -0.563E-04
   5.064 -0.525E-04 -0.525E-04
   5.074 -0.488E-04 -0.488E-04
   5.084 -0.454E-04 -0.454E-04
   5.094 -0.422E-04 -0.422E-04
   5.104 -0.392E-04 -0.392E-04
   5.114 -0.364E-04 -0.364E-04
   5.124 -0.338E-04 -0.338E-04
   5.134 -0.314E-04 -0.314E-04
   5.144 -0.291E-04 -0.291E-04
   5.154 -0.270E-04 -0.270E-04
   5.164 -0.250E-04 -0.250E-04
   5.174 -0.231E-04 -0.231E-04
   5.184 -0.214E-04 -0.214E-04
   5.194 -0.198E-04 -0.198E-04
   5.204 -0.183E-04 -0.183E-04
   5.214 -0.169E-04 -0.169E-04
   5.224 -0.157E-04 -0.157E-04
   5.234 -0.145E-04 -0.145E-04
   5.244 -0.133E-04 -0.133E-04
   5.254 -0.123E-04 -0.123E-04
   5.264 -0.114E-04 -0.114E-04
   5.274 -0.105E-04 -0.105E-04
   5.284 -0.965E-05 -0.965E-05
   5.294 -0.888E-05 -0.888E-05
