# E (eV)   ldos(E)   pdos(E)   
 -27.116 -0.486E-07 -0.486E-07
 -27.106 -0.524E-07 -0.524E-07
 -27.096 -0.566E-07 -0.566E-07
 -27.086 -0.610E-07 -0.610E-07
 -27.076 -0.657E-07 -0.657E-07
 -27.066 -0.708E-07 -0.708E-07
 -27.056 -0.762E-07 -0.762E-07
 -27.046 -0.820E-07 -0.820E-07
 -27.036 -0.882E-07 -0.882E-07
 -27.026 -0.949E-07 -0.949E-07
 -27.016 -0.102E-06 -0.102E-06
 -27.006 -0.109E-06 -0.109E-06
 -26.996 -0.117E-06 -0.117E-06
 -26.986 -0.126E-06 -0.126E-06
 -26.976 -0.135E-06 -0.135E-06
 -26.966 -0.145E-06 -0.145E-06
 -26.956 -0.155E-06 -0.155E-06
 -26.946 -0.166E-06 -0.166E-06
 -26.936 -0.178E-06 -0.178E-06
 -26.926 -0.190E-06 -0.190E-06
 -26.916 -0.203E-06 -0.203E-06
 -26.906 -0.217E-06 -0.217E-06
 -26.896 -0.231E-06 -0.231E-06
 -26.886 -0.247E-06 -0.247E-06
 -26.876 -0.263E-06 -0.263E-06
 -26.866 -0.281E-06 -0.281E-06
 -26.856 -0.299E-06 -0.299E-06
 -26.846 -0.318E-06 -0.318E-06
 -26.836 -0.339E-06 -0.339E-06
 -26.826 -0.360E-06 -0.360E-06
 -26.816 -0.383E-06 -0.383E-06
 -26.806 -0.406E-06 -0.406E-06
 -26.796 -0.431E-06 -0.431E-06
 -26.786 -0.458E-06 -0.458E-06
 -26.776 -0.485E-06 -0.485E-06
 -26.766 -0.514E-06 -0.514E-06
 -26.756 -0.545E-06 -0.545E-06
 -26.746 -0.577E-06 -0.577E-06
 -26.736 -0.610E-06 -0.610E-06
 -26.726 -0.645E-06 -0.645E-06
 -26.716 -0.682E-06 -0.682E-06
 -26.706 -0.720E-06 -0.720E-06
 -26.696 -0.760E-06 -0.760E-06
 -26.686 -0.801E-06 -0.801E-06
 -26.676 -0.845E-06 -0.845E-06
 -26.666 -0.890E-06 -0.890E-06
 -26.656 -0.937E-06 -0.937E-06
 -26.646 -0.986E-06 -0.986E-06
 -26.636 -0.104E-05 -0.104E-05
 -26.626 -0.109E-05 -0.109E-05
 -26.616 -0.114E-05 -0.114E-05
 -26.606 -0.120E-05 -0.120E-05
 -26.596 -0.126E-05 -0.126E-05
 -26.586 -0.132E-05 -0.132E-05
 -26.576 -0.138E-05 -0.138E-05
 -26.566 -0.145E-05 -0.145E-05
 -26.556 -0.151E-05 -0.151E-05
 -26.546 -0.158E-05 -0.158E-05
 -26.536 -0.165E-05 -0.165E-05
 -26.526 -0.172E-05 -0.172E-05
 -26.516 -0.180E-05 -0.180E-05
 -26.506 -0.187E-05 -0.187E-05
 -26.496 -0.195E-05 -0.195E-05
 -26.486 -0.203E-05 -0.203E-05
 -26.476 -0.211E-05 -0.211E-05
 -26.466 -0.220E-05 -0.220E-05
 -26.456 -0.228E-05 -0.228E-05
 -26.446 -0.237E-05 -0.237E-05
 -26.436 -0.245E-05 -0.245E-05
 -26.426 -0.254E-05 -0.254E-05
 -26.416 -0.263E-05 -0.263E-05
 -26.406 -0.272E-05 -0.272E-05
 -26.396 -0.281E-05 -0.281E-05
 -26.386 -0.290E-05 -0.290E-05
 -26.376 -0.299E-05 -0.299E-05
 -26.366 -0.309E-05 -0.309E-05
 -26.356 -0.318E-05 -0.318E-05
 -26.346 -0.327E-05 -0.327E-05
 -26.336 -0.336E-05 -0.336E-05
 -26.326 -0.345E-05 -0.345E-05
 -26.316 -0.354E-05 -0.354E-05
 -26.306 -0.362E-05 -0.362E-05
 -26.296 -0.371E-05 -0.371E-05
 -26.286 -0.379E-05 -0.379E-05
 -26.276 -0.387E-05 -0.387E-05
 -26.266 -0.395E-05 -0.395E-05
 -26.256 -0.402E-05 -0.402E-05
 -26.246 -0.410E-05 -0.410E-05
 -26.236 -0.416E-05 -0.416E-05
 -26.226 -0.422E-05 -0.422E-05
 -26.216 -0.428E-05 -0.428E-05
 -26.206 -0.433E-05 -0.433E-05
 -26.196 -0.437E-05 -0.437E-05
 -26.186 -0.441E-05 -0.441E-05
 -26.176 -0.444E-05 -0.444E-05
 -26.166 -0.447E-05 -0.447E-05
 -26.156 -0.448E-05 -0.448E-05
 -26.146 -0.448E-05 -0.448E-05
 -26.136 -0.448E-05 -0.448E-05
 -26.126 -0.447E-05 -0.447E-05
 -26.116 -0.444E-05 -0.444E-05
 -26.106 -0.440E-05 -0.440E-05
 -26.096 -0.435E-05 -0.435E-05
 -26.086 -0.429E-05 -0.429E-05
 -26.076 -0.421E-05 -0.421E-05
 -26.066 -0.412E-05 -0.412E-05
 -26.056 -0.402E-05 -0.402E-05
 -26.046 -0.390E-05 -0.390E-05
 -26.036 -0.376E-05 -0.376E-05
 -26.026 -0.360E-05 -0.360E-05
 -26.016 -0.343E-05 -0.343E-05
 -26.006 -0.324E-05 -0.324E-05
 -25.996 -0.303E-05 -0.303E-05
 -25.986 -0.279E-05 -0.279E-05
 -25.976 -0.254E-05 -0.254E-05
 -25.966 -0.227E-05 -0.227E-05
 -25.956 -0.197E-05 -0.197E-05
 -25.946 -0.165E-05 -0.165E-05
 -25.936 -0.131E-05 -0.131E-05
 -25.926 -0.940E-06 -0.940E-06
 -25.916 -0.547E-06 -0.547E-06
 -25.906 -0.129E-06 -0.129E-06
 -25.896  0.315E-06  0.315E-06
 -25.886  0.786E-06  0.786E-06
 -25.876  0.128E-05  0.128E-05
 -25.866  0.181E-05  0.181E-05
 -25.856  0.237E-05  0.237E-05
 -25.846  0.295E-05  0.295E-05
 -25.836  0.356E-05  0.356E-05
 -25.826  0.420E-05  0.420E-05
 -25.816  0.487E-05  0.487E-05
 -25.806  0.557E-05  0.557E-05
 -25.796  0.631E-05  0.631E-05
 -25.786  0.707E-05  0.707E-05
 -25.776  0.786E-05  0.786E-05
 -25.766  0.868E-05  0.868E-05
 -25.756  0.954E-05  0.954E-05
 -25.746  0.104E-04  0.104E-04
 -25.736  0.113E-04  0.113E-04
 -25.726  0.123E-04  0.123E-04
 -25.716  0.133E-04  0.133E-04
 -25.706  0.143E-04  0.143E-04
 -25.696  0.153E-04  0.153E-04
 -25.686  0.164E-04  0.164E-04
 -25.676  0.174E-04  0.174E-04
 -25.666  0.186E-04  0.186E-04
 -25.656  0.197E-04  0.197E-04
 -25.646  0.209E-04  0.209E-04
 -25.636  0.221E-04  0.221E-04
 -25.626  0.233E-04  0.233E-04
 -25.616  0.245E-04  0.245E-04
 -25.606  0.258E-04  0.258E-04
 -25.596  0.271E-04  0.271E-04
 -25.586  0.284E-04  0.284E-04
 -25.576  0.297E-04  0.297E-04
 -25.566  0.311E-04  0.311E-04
 -25.556  0.324E-04  0.324E-04
 -25.546  0.338E-04  0.338E-04
 -25.536  0.352E-04  0.352E-04
 -25.526  0.366E-04  0.366E-04
 -25.516  0.380E-04  0.380E-04
 -25.506  0.394E-04  0.394E-04
 -25.496  0.409E-04  0.409E-04
 -25.486  0.423E-04  0.423E-04
 -25.476  0.437E-04  0.437E-04
 -25.466  0.452E-04  0.452E-04
 -25.456  0.466E-04  0.466E-04
 -25.446  0.481E-04  0.481E-04
 -25.436  0.495E-04  0.495E-04
 -25.426  0.509E-04  0.509E-04
 -25.416  0.523E-04  0.523E-04
 -25.406  0.538E-04  0.538E-04
 -25.396  0.551E-04  0.551E-04
 -25.386  0.565E-04  0.565E-04
 -25.376  0.579E-04  0.579E-04
 -25.366  0.592E-04  0.592E-04
 -25.356  0.606E-04  0.606E-04
 -25.346  0.619E-04  0.619E-04
 -25.336  0.632E-04  0.632E-04
 -25.326  0.644E-04  0.644E-04
 -25.316  0.656E-04  0.656E-04
 -25.306  0.668E-04  0.668E-04
 -25.296  0.680E-04  0.680E-04
 -25.286  0.691E-04  0.691E-04
 -25.276  0.702E-04  0.702E-04
 -25.266  0.712E-04  0.712E-04
 -25.256  0.722E-04  0.722E-04
 -25.246  0.732E-04  0.732E-04
 -25.236  0.741E-04  0.741E-04
 -25.226  0.750E-04  0.750E-04
 -25.216  0.759E-04  0.759E-04
 -25.206  0.766E-04  0.766E-04
 -25.196  0.774E-04  0.774E-04
 -25.186  0.781E-04  0.781E-04
 -25.176  0.787E-04  0.787E-04
 -25.166  0.793E-04  0.793E-04
 -25.156  0.798E-04  0.798E-04
 -25.146  0.803E-04  0.803E-04
 -25.136  0.807E-04  0.807E-04
 -25.126  0.810E-04  0.810E-04
 -25.116  0.813E-04  0.813E-04
 -25.106  0.816E-04  0.816E-04
 -25.096  0.818E-04  0.818E-04
 -25.086  0.819E-04  0.819E-04
 -25.076  0.819E-04  0.819E-04
 -25.066  0.820E-04  0.820E-04
 -25.056  0.819E-04  0.819E-04
 -25.046  0.818E-04  0.818E-04
 -25.036  0.816E-04  0.816E-04
 -25.026  0.814E-04  0.814E-04
 -25.016  0.811E-04  0.811E-04
 -25.006  0.808E-04  0.808E-04
 -24.996  0.804E-04  0.804E-04
 -24.986  0.799E-04  0.799E-04
 -24.976  0.794E-04  0.794E-04
 -24.966  0.788E-04  0.788E-04
 -24.956  0.782E-04  0.782E-04
 -24.946  0.775E-04  0.775E-04
 -24.936  0.768E-04  0.768E-04
 -24.926  0.760E-04  0.760E-04
 -24.916  0.752E-04  0.752E-04
 -24.906  0.743E-04  0.743E-04
 -24.896  0.734E-04  0.734E-04
 -24.886  0.725E-04  0.725E-04
 -24.876  0.715E-04  0.715E-04
 -24.866  0.704E-04  0.704E-04
 -24.856  0.694E-04  0.694E-04
 -24.846  0.682E-04  0.682E-04
 -24.836  0.671E-04  0.671E-04
 -24.826  0.659E-04  0.659E-04
 -24.816  0.647E-04  0.647E-04
 -24.806  0.634E-04  0.634E-04
 -24.796  0.622E-04  0.622E-04
 -24.786  0.609E-04  0.609E-04
 -24.776  0.595E-04  0.595E-04
 -24.766  0.582E-04  0.582E-04
 -24.756  0.568E-04  0.568E-04
 -24.746  0.555E-04  0.555E-04
 -24.736  0.541E-04  0.541E-04
 -24.726  0.527E-04  0.527E-04
 -24.716  0.513E-04  0.513E-04
 -24.706  0.498E-04  0.498E-04
 -24.696  0.484E-04  0.484E-04
 -24.686  0.470E-04  0.470E-04
 -24.676  0.455E-04  0.455E-04
 -24.666  0.441E-04  0.441E-04
 -24.656  0.426E-04  0.426E-04
 -24.646  0.412E-04  0.412E-04
 -24.636  0.398E-04  0.398E-04
 -24.626  0.383E-04  0.383E-04
 -24.616  0.369E-04  0.369E-04
 -24.606  0.355E-04  0.355E-04
 -24.596  0.341E-04  0.341E-04
 -24.586  0.328E-04  0.328E-04
 -24.576  0.314E-04  0.314E-04
 -24.566  0.300E-04  0.300E-04
 -24.556  0.287E-04  0.287E-04
 -24.546  0.274E-04  0.274E-04
 -24.536  0.261E-04  0.261E-04
 -24.526  0.248E-04  0.248E-04
 -24.516  0.236E-04  0.236E-04
 -24.506  0.223E-04  0.223E-04
 -24.496  0.211E-04  0.211E-04
 -24.486  0.200E-04  0.200E-04
 -24.476  0.188E-04  0.188E-04
 -24.466  0.177E-04  0.177E-04
 -24.456  0.166E-04  0.166E-04
 -24.446  0.155E-04  0.155E-04
 -24.436  0.145E-04  0.145E-04
 -24.426  0.135E-04  0.135E-04
 -24.416  0.125E-04  0.125E-04
 -24.406  0.115E-04  0.115E-04
 -24.396  0.106E-04  0.106E-04
 -24.386  0.974E-05  0.974E-05
 -24.376  0.888E-05  0.888E-05
 -24.366  0.805E-05  0.805E-05
 -24.356  0.725E-05  0.725E-05
 -24.346  0.648E-05  0.648E-05
 -24.336  0.574E-05  0.574E-05
 -24.326  0.503E-05  0.503E-05
 -24.316  0.435E-05  0.435E-05
 -24.306  0.370E-05  0.370E-05
 -24.296  0.309E-05  0.309E-05
 -24.286  0.250E-05  0.250E-05
 -24.276  0.194E-05  0.194E-05
 -24.266  0.140E-05  0.140E-05
 -24.256  0.898E-06  0.898E-06
 -24.246  0.421E-06  0.421E-06
 -24.236 -0.297E-07 -0.297E-07
 -24.226 -0.454E-06 -0.454E-06
 -24.216 -0.852E-06 -0.852E-06
 -24.206 -0.123E-05 -0.123E-05
 -24.196 -0.157E-05 -0.157E-05
 -24.186 -0.190E-05 -0.190E-05
 -24.176 -0.220E-05 -0.220E-05
 -24.166 -0.248E-05 -0.248E-05
 -24.156 -0.274E-05 -0.274E-05
 -24.146 -0.297E-05 -0.297E-05
 -24.136 -0.319E-05 -0.319E-05
 -24.126 -0.339E-05 -0.339E-05
 -24.116 -0.356E-05 -0.356E-05
 -24.106 -0.372E-05 -0.372E-05
 -24.096 -0.387E-05 -0.387E-05
 -24.086 -0.399E-05 -0.399E-05
 -24.076 -0.410E-05 -0.410E-05
 -24.066 -0.420E-05 -0.420E-05
 -24.056 -0.427E-05 -0.427E-05
 -24.046 -0.434E-05 -0.434E-05
 -24.036 -0.439E-05 -0.439E-05
 -24.026 -0.443E-05 -0.443E-05
 -24.016 -0.446E-05 -0.446E-05
 -24.006 -0.448E-05 -0.448E-05
 -23.996 -0.448E-05 -0.448E-05
 -23.986 -0.448E-05 -0.448E-05
 -23.976 -0.447E-05 -0.447E-05
 -23.966 -0.445E-05 -0.445E-05
 -23.956 -0.442E-05 -0.442E-05
 -23.946 -0.438E-05 -0.438E-05
 -23.936 -0.434E-05 -0.434E-05
 -23.926 -0.429E-05 -0.429E-05
 -23.916 -0.424E-05 -0.424E-05
 -23.906 -0.418E-05 -0.418E-05
 -23.896 -0.411E-05 -0.411E-05
 -23.886 -0.404E-05 -0.404E-05
 -23.876 -0.397E-05 -0.397E-05
 -23.866 -0.389E-05 -0.389E-05
 -23.856 -0.381E-05 -0.381E-05
 -23.846 -0.373E-05 -0.373E-05
 -23.836 -0.364E-05 -0.364E-05
 -23.826 -0.356E-05 -0.356E-05
 -23.816 -0.347E-05 -0.347E-05
 -23.806 -0.338E-05 -0.338E-05
 -23.796 -0.329E-05 -0.329E-05
 -23.786 -0.320E-05 -0.320E-05
 -23.776 -0.311E-05 -0.311E-05
 -23.766 -0.301E-05 -0.301E-05
 -23.756 -0.292E-05 -0.292E-05
 -23.746 -0.283E-05 -0.283E-05
 -23.736 -0.274E-05 -0.274E-05
 -23.726 -0.265E-05 -0.265E-05
 -23.716 -0.256E-05 -0.256E-05
 -23.706 -0.247E-05 -0.247E-05
 -23.696 -0.239E-05 -0.239E-05
 -23.686 -0.230E-05 -0.230E-05
 -23.676 -0.221E-05 -0.221E-05
 -23.666 -0.213E-05 -0.213E-05
 -23.656 -0.205E-05 -0.205E-05
 -23.646 -0.197E-05 -0.197E-05
 -23.636 -0.189E-05 -0.189E-05
 -23.626 -0.182E-05 -0.182E-05
 -23.616 -0.174E-05 -0.174E-05
 -23.606 -0.167E-05 -0.167E-05
 -23.596 -0.160E-05 -0.160E-05
 -23.586 -0.153E-05 -0.153E-05
 -23.576 -0.146E-05 -0.146E-05
 -23.566 -0.140E-05 -0.140E-05
 -23.556 -0.133E-05 -0.133E-05
 -23.546 -0.127E-05 -0.127E-05
 -23.536 -0.121E-05 -0.121E-05
 -23.526 -0.116E-05 -0.116E-05
 -23.516 -0.110E-05 -0.110E-05
 -23.506 -0.105E-05 -0.105E-05
 -23.496 -0.997E-06 -0.997E-06
 -23.486 -0.948E-06 -0.948E-06
 -23.476 -0.900E-06 -0.900E-06
 -23.466 -0.855E-06 -0.855E-06
 -23.456 -0.811E-06 -0.811E-06
 -23.446 -0.769E-06 -0.769E-06
 -23.436 -0.729E-06 -0.729E-06
 -23.426 -0.690E-06 -0.690E-06
 -23.416 -0.653E-06 -0.653E-06
 -23.406 -0.618E-06 -0.618E-06
 -23.396 -0.584E-06 -0.584E-06
 -23.386 -0.552E-06 -0.552E-06
 -23.376 -0.521E-06 -0.521E-06
 -23.366 -0.492E-06 -0.492E-06
 -23.356 -0.464E-06 -0.464E-06
 -23.346 -0.437E-06 -0.437E-06
 -23.336 -0.412E-06 -0.412E-06
 -23.326 -0.388E-06 -0.388E-06
 -23.316 -0.365E-06 -0.365E-06
 -23.306 -0.343E-06 -0.343E-06
 -23.296 -0.323E-06 -0.323E-06
 -23.286 -0.303E-06 -0.303E-06
 -23.276 -0.285E-06 -0.285E-06
 -23.266 -0.267E-06 -0.267E-06
 -23.256 -0.251E-06 -0.251E-06
 -23.246 -0.235E-06 -0.235E-06
 -23.236 -0.220E-06 -0.220E-06
 -23.226 -0.206E-06 -0.206E-06
 -23.216 -0.193E-06 -0.193E-06
 -23.206 -0.180E-06 -0.180E-06
 -23.196 -0.169E-06 -0.169E-06
 -23.186 -0.157E-06 -0.157E-06
 -23.176 -0.147E-06 -0.147E-06
 -23.166 -0.137E-06 -0.137E-06
 -23.156 -0.128E-06 -0.128E-06
 -23.146 -0.119E-06 -0.119E-06
 -23.136 -0.111E-06 -0.111E-06
 -23.126 -0.104E-06 -0.104E-06
 -23.116 -0.964E-07 -0.964E-07
 -23.106 -0.897E-07 -0.897E-07
 -23.096 -0.834E-07 -0.834E-07
 -23.086 -0.775E-07 -0.775E-07
 -23.076 -0.720E-07 -0.720E-07
 -23.066 -0.669E-07 -0.669E-07
 -23.056 -0.620E-07 -0.620E-07
 -23.046 -0.575E-07 -0.575E-07
 -23.036 -0.533E-07 -0.533E-07
 -23.026 -0.494E-07 -0.494E-07
 -23.016 -0.458E-07 -0.458E-07
 -23.006 -0.424E-07 -0.424E-07
 -22.996 -0.392E-07 -0.392E-07
 -22.986 -0.362E-07 -0.362E-07
 -22.976 -0.335E-07 -0.335E-07
 -22.966 -0.309E-07 -0.309E-07
 -22.956 -0.286E-07 -0.286E-07
 -22.946 -0.264E-07 -0.264E-07
 -22.936 -0.243E-07 -0.243E-07
 -22.926 -0.224E-07 -0.224E-07
 -22.916 -0.206E-07 -0.206E-07
 -22.906 -0.190E-07 -0.190E-07
 -22.896 -0.175E-07 -0.175E-07
 -22.886 -0.161E-07 -0.161E-07
 -22.876 -0.148E-07 -0.148E-07
 -22.866 -0.136E-07 -0.136E-07
 -22.856 -0.125E-07 -0.125E-07
 -22.846 -0.115E-07 -0.115E-07
 -22.836 -0.105E-07 -0.105E-07
 -22.826 -0.968E-08 -0.968E-08
 -22.816 -0.887E-08 -0.887E-08
 -22.806 -0.814E-08 -0.814E-08
 -22.796 -0.746E-08 -0.746E-08
 -22.786 -0.683E-08 -0.683E-08
 -22.776 -0.626E-08 -0.626E-08
 -22.766 -0.573E-08 -0.573E-08
 -22.756 -0.524E-08 -0.524E-08
 -22.746 -0.480E-08 -0.480E-08
 -22.736 -0.439E-08 -0.439E-08
 -22.726 -0.402E-08 -0.402E-08
 -22.716 -0.367E-08 -0.367E-08
 -22.706 -0.336E-08 -0.336E-08
 -22.696 -0.308E-08 -0.308E-08
 -22.686 -0.282E-08 -0.282E-08
 -22.676 -0.258E-08 -0.258E-08
 -22.666 -0.236E-08 -0.236E-08
 -22.656 -0.217E-08 -0.217E-08
 -22.646 -0.199E-08 -0.199E-08
 -22.636 -0.183E-08 -0.183E-08
 -22.626 -0.169E-08 -0.169E-08
 -22.616 -0.156E-08 -0.156E-08
 -22.606 -0.144E-08 -0.144E-08
 -22.596 -0.134E-08 -0.134E-08
 -22.586 -0.125E-08 -0.125E-08
 -22.576 -0.117E-08 -0.117E-08
 -22.566 -0.110E-08 -0.110E-08
 -22.556 -0.104E-08 -0.104E-08
 -22.546 -0.988E-09 -0.988E-09
 -22.536 -0.946E-09 -0.946E-09
 -22.526 -0.913E-09 -0.913E-09
 -22.516 -0.887E-09 -0.887E-09
 -22.506 -0.870E-09 -0.870E-09
 -22.496 -0.859E-09 -0.859E-09
 -22.486 -0.856E-09 -0.856E-09
 -22.476 -0.860E-09 -0.860E-09
 -22.466 -0.871E-09 -0.871E-09
 -22.456 -0.889E-09 -0.889E-09
 -22.446 -0.913E-09 -0.913E-09
 -22.436 -0.945E-09 -0.945E-09
 -22.426 -0.983E-09 -0.983E-09
 -22.416 -0.103E-08 -0.103E-08
 -22.406 -0.108E-08 -0.108E-08
 -22.396 -0.114E-08 -0.114E-08
 -22.386 -0.121E-08 -0.121E-08
 -22.376 -0.128E-08 -0.128E-08
 -22.366 -0.137E-08 -0.137E-08
 -22.356 -0.146E-08 -0.146E-08
 -22.346 -0.156E-08 -0.156E-08
 -22.336 -0.167E-08 -0.167E-08
 -22.326 -0.178E-08 -0.178E-08
 -22.316 -0.191E-08 -0.191E-08
 -22.306 -0.205E-08 -0.205E-08
 -22.296 -0.220E-08 -0.220E-08
 -22.286 -0.236E-08 -0.236E-08
 -22.276 -0.254E-08 -0.254E-08
 -22.266 -0.272E-08 -0.272E-08
 -22.256 -0.292E-08 -0.292E-08
 -22.246 -0.314E-08 -0.314E-08
 -22.236 -0.336E-08 -0.336E-08
 -22.226 -0.361E-08 -0.361E-08
 -22.216 -0.387E-08 -0.387E-08
 -22.206 -0.415E-08 -0.415E-08
 -22.196 -0.445E-08 -0.445E-08
 -22.186 -0.476E-08 -0.476E-08
 -22.176 -0.510E-08 -0.510E-08
 -22.166 -0.546E-08 -0.546E-08
 -22.156 -0.584E-08 -0.584E-08
 -22.146 -0.624E-08 -0.624E-08
 -22.136 -0.667E-08 -0.667E-08
 -22.126 -0.713E-08 -0.713E-08
 -22.116 -0.761E-08 -0.761E-08
 -22.106 -0.812E-08 -0.812E-08
 -22.096 -0.866E-08 -0.866E-08
 -22.086 -0.923E-08 -0.923E-08
 -22.076 -0.984E-08 -0.984E-08
 -22.066 -0.105E-07 -0.105E-07
 -22.056 -0.111E-07 -0.111E-07
 -22.046 -0.119E-07 -0.119E-07
 -22.036 -0.126E-07 -0.126E-07
 -22.026 -0.134E-07 -0.134E-07
 -22.016 -0.142E-07 -0.142E-07
 -22.006 -0.151E-07 -0.151E-07
 -21.996 -0.160E-07 -0.160E-07
 -21.986 -0.170E-07 -0.170E-07
 -21.976 -0.180E-07 -0.180E-07
 -21.966 -0.190E-07 -0.190E-07
 -21.956 -0.201E-07 -0.201E-07
 -21.946 -0.213E-07 -0.213E-07
 -21.936 -0.225E-07 -0.225E-07
 -21.926 -0.238E-07 -0.238E-07
 -21.916 -0.251E-07 -0.251E-07
 -21.906 -0.265E-07 -0.265E-07
 -21.896 -0.279E-07 -0.279E-07
 -21.886 -0.294E-07 -0.294E-07
 -21.876 -0.310E-07 -0.310E-07
 -21.866 -0.326E-07 -0.326E-07
 -21.856 -0.343E-07 -0.343E-07
 -21.846 -0.361E-07 -0.361E-07
 -21.836 -0.379E-07 -0.379E-07
 -21.826 -0.398E-07 -0.398E-07
 -21.816 -0.417E-07 -0.417E-07
 -21.806 -0.437E-07 -0.437E-07
 -21.796 -0.458E-07 -0.458E-07
 -21.786 -0.480E-07 -0.480E-07
 -21.776 -0.502E-07 -0.502E-07
 -21.766 -0.525E-07 -0.525E-07
 -21.756 -0.549E-07 -0.549E-07
 -21.746 -0.573E-07 -0.573E-07
 -21.736 -0.598E-07 -0.598E-07
 -21.726 -0.623E-07 -0.623E-07
 -21.716 -0.649E-07 -0.649E-07
 -21.706 -0.676E-07 -0.676E-07
 -21.696 -0.703E-07 -0.703E-07
 -21.686 -0.731E-07 -0.731E-07
 -21.676 -0.760E-07 -0.760E-07
 -21.666 -0.789E-07 -0.789E-07
 -21.656 -0.818E-07 -0.818E-07
 -21.646 -0.848E-07 -0.848E-07
 -21.636 -0.878E-07 -0.878E-07
 -21.626 -0.908E-07 -0.908E-07
 -21.616 -0.939E-07 -0.939E-07
 -21.606 -0.970E-07 -0.970E-07
 -21.596 -0.100E-06 -0.100E-06
 -21.586 -0.103E-06 -0.103E-06
 -21.576 -0.106E-06 -0.106E-06
 -21.566 -0.109E-06 -0.109E-06
 -21.556 -0.113E-06 -0.113E-06
 -21.546 -0.116E-06 -0.116E-06
 -21.536 -0.119E-06 -0.119E-06
 -21.526 -0.122E-06 -0.122E-06
 -21.516 -0.125E-06 -0.125E-06
 -21.506 -0.128E-06 -0.128E-06
 -21.496 -0.130E-06 -0.130E-06
 -21.486 -0.133E-06 -0.133E-06
 -21.476 -0.136E-06 -0.136E-06
 -21.466 -0.138E-06 -0.138E-06
 -21.456 -0.140E-06 -0.140E-06
 -21.446 -0.143E-06 -0.143E-06
 -21.436 -0.145E-06 -0.145E-06
 -21.426 -0.147E-06 -0.147E-06
 -21.416 -0.148E-06 -0.148E-06
 -21.406 -0.150E-06 -0.150E-06
 -21.396 -0.151E-06 -0.151E-06
 -21.386 -0.152E-06 -0.152E-06
 -21.376 -0.153E-06 -0.153E-06
 -21.366 -0.153E-06 -0.153E-06
 -21.356 -0.153E-06 -0.153E-06
 -21.346 -0.153E-06 -0.153E-06
 -21.336 -0.152E-06 -0.152E-06
 -21.326 -0.152E-06 -0.152E-06
 -21.316 -0.150E-06 -0.150E-06
 -21.306 -0.148E-06 -0.148E-06
 -21.296 -0.146E-06 -0.146E-06
 -21.286 -0.144E-06 -0.144E-06
 -21.276 -0.141E-06 -0.141E-06
 -21.266 -0.137E-06 -0.137E-06
 -21.256 -0.133E-06 -0.133E-06
 -21.246 -0.128E-06 -0.128E-06
 -21.236 -0.123E-06 -0.123E-06
 -21.226 -0.117E-06 -0.117E-06
 -21.216 -0.110E-06 -0.110E-06
 -21.206 -0.103E-06 -0.103E-06
 -21.196 -0.955E-07 -0.955E-07
 -21.186 -0.870E-07 -0.870E-07
 -21.176 -0.778E-07 -0.778E-07
 -21.166 -0.679E-07 -0.679E-07
 -21.156 -0.573E-07 -0.573E-07
 -21.146 -0.458E-07 -0.458E-07
 -21.136 -0.336E-07 -0.336E-07
 -21.126 -0.206E-07 -0.206E-07
 -21.116 -0.673E-08 -0.673E-08
 -21.106  0.795E-08  0.795E-08
 -21.096  0.235E-07  0.235E-07
 -21.086  0.399E-07  0.399E-07
 -21.076  0.571E-07  0.571E-07
 -21.066  0.753E-07  0.753E-07
 -21.056  0.944E-07  0.944E-07
 -21.046  0.114E-06  0.114E-06
 -21.036  0.135E-06  0.135E-06
 -21.026  0.157E-06  0.157E-06
 -21.016  0.180E-06  0.180E-06
 -21.006  0.203E-06  0.203E-06
 -20.996  0.228E-06  0.228E-06
 -20.986  0.253E-06  0.253E-06
 -20.976  0.279E-06  0.279E-06
 -20.966  0.307E-06  0.307E-06
 -20.956  0.335E-06  0.335E-06
 -20.946  0.364E-06  0.364E-06
 -20.936  0.393E-06  0.393E-06
 -20.926  0.424E-06  0.424E-06
 -20.916  0.455E-06  0.455E-06
 -20.906  0.488E-06  0.488E-06
 -20.896  0.521E-06  0.521E-06
 -20.886  0.554E-06  0.554E-06
 -20.876  0.589E-06  0.589E-06
 -20.866  0.624E-06  0.624E-06
 -20.856  0.659E-06  0.659E-06
 -20.846  0.696E-06  0.696E-06
 -20.836  0.732E-06  0.732E-06
 -20.826  0.770E-06  0.770E-06
 -20.816  0.807E-06  0.807E-06
 -20.806  0.845E-06  0.845E-06
 -20.796  0.884E-06  0.884E-06
 -20.786  0.922E-06  0.922E-06
 -20.776  0.961E-06  0.961E-06
 -20.766  0.100E-05  0.100E-05
 -20.756  0.104E-05  0.104E-05
 -20.746  0.108E-05  0.108E-05
 -20.736  0.112E-05  0.112E-05
 -20.726  0.116E-05  0.116E-05
 -20.716  0.120E-05  0.120E-05
 -20.706  0.123E-05  0.123E-05
 -20.696  0.127E-05  0.127E-05
 -20.686  0.131E-05  0.131E-05
 -20.676  0.135E-05  0.135E-05
 -20.666  0.138E-05  0.138E-05
 -20.656  0.142E-05  0.142E-05
 -20.646  0.145E-05  0.145E-05
 -20.636  0.149E-05  0.149E-05
 -20.626  0.152E-05  0.152E-05
 -20.616  0.155E-05  0.155E-05
 -20.606  0.159E-05  0.159E-05
 -20.596  0.162E-05  0.162E-05
 -20.586  0.164E-05  0.164E-05
 -20.576  0.167E-05  0.167E-05
 -20.566  0.170E-05  0.170E-05
 -20.556  0.172E-05  0.172E-05
 -20.546  0.175E-05  0.175E-05
 -20.536  0.177E-05  0.177E-05
 -20.526  0.179E-05  0.179E-05
 -20.516  0.180E-05  0.180E-05
 -20.506  0.182E-05  0.182E-05
 -20.496  0.183E-05  0.183E-05
 -20.486  0.185E-05  0.185E-05
 -20.476  0.186E-05  0.186E-05
 -20.466  0.186E-05  0.186E-05
 -20.456  0.187E-05  0.187E-05
 -20.446  0.187E-05  0.187E-05
 -20.436  0.188E-05  0.188E-05
 -20.426  0.187E-05  0.187E-05
 -20.416  0.187E-05  0.187E-05
 -20.406  0.187E-05  0.187E-05
 -20.396  0.186E-05  0.186E-05
 -20.386  0.185E-05  0.185E-05
 -20.376  0.184E-05  0.184E-05
 -20.366  0.182E-05  0.182E-05
 -20.356  0.180E-05  0.180E-05
 -20.346  0.179E-05  0.179E-05
 -20.336  0.176E-05  0.176E-05
 -20.326  0.174E-05  0.174E-05
 -20.316  0.171E-05  0.171E-05
 -20.306  0.169E-05  0.169E-05
 -20.296  0.166E-05  0.166E-05
 -20.286  0.162E-05  0.162E-05
 -20.276  0.159E-05  0.159E-05
 -20.266  0.156E-05  0.156E-05
 -20.256  0.152E-05  0.152E-05
 -20.246  0.148E-05  0.148E-05
 -20.236  0.144E-05  0.144E-05
 -20.226  0.140E-05  0.140E-05
 -20.216  0.136E-05  0.136E-05
 -20.206  0.131E-05  0.131E-05
 -20.196  0.127E-05  0.127E-05
 -20.186  0.122E-05  0.122E-05
 -20.176  0.118E-05  0.118E-05
 -20.166  0.113E-05  0.113E-05
 -20.156  0.109E-05  0.109E-05
 -20.146  0.104E-05  0.104E-05
 -20.136  0.997E-06  0.997E-06
 -20.126  0.952E-06  0.952E-06
 -20.116  0.909E-06  0.909E-06
 -20.106  0.867E-06  0.867E-06
 -20.096  0.826E-06  0.826E-06
 -20.086  0.787E-06  0.787E-06
 -20.076  0.750E-06  0.750E-06
 -20.066  0.715E-06  0.715E-06
 -20.056  0.682E-06  0.682E-06
 -20.046  0.653E-06  0.653E-06
 -20.036  0.626E-06  0.626E-06
 -20.026  0.603E-06  0.603E-06
 -20.016  0.584E-06  0.584E-06
 -20.006  0.569E-06  0.569E-06
 -19.996  0.559E-06  0.559E-06
 -19.986  0.553E-06  0.553E-06
 -19.976  0.552E-06  0.552E-06
 -19.966  0.556E-06  0.556E-06
 -19.956  0.567E-06  0.567E-06
 -19.946  0.583E-06  0.583E-06
 -19.936  0.606E-06  0.606E-06
 -19.926  0.636E-06  0.636E-06
 -19.916  0.672E-06  0.672E-06
 -19.906  0.716E-06  0.716E-06
 -19.896  0.768E-06  0.768E-06
 -19.886  0.828E-06  0.828E-06
 -19.876  0.896E-06  0.896E-06
 -19.866  0.973E-06  0.973E-06
 -19.856  0.106E-05  0.106E-05
 -19.846  0.115E-05  0.115E-05
 -19.836  0.126E-05  0.126E-05
 -19.826  0.137E-05  0.137E-05
 -19.816  0.150E-05  0.150E-05
 -19.806  0.163E-05  0.163E-05
 -19.796  0.178E-05  0.178E-05
 -19.786  0.193E-05  0.193E-05
 -19.776  0.210E-05  0.210E-05
 -19.766  0.228E-05  0.228E-05
 -19.756  0.247E-05  0.247E-05
 -19.746  0.267E-05  0.267E-05
 -19.736  0.288E-05  0.288E-05
 -19.726  0.310E-05  0.310E-05
 -19.716  0.334E-05  0.334E-05
 -19.706  0.359E-05  0.359E-05
 -19.696  0.385E-05  0.385E-05
 -19.686  0.412E-05  0.412E-05
 -19.676  0.440E-05  0.440E-05
 -19.666  0.470E-05  0.470E-05
 -19.656  0.500E-05  0.500E-05
 -19.646  0.532E-05  0.532E-05
 -19.636  0.565E-05  0.565E-05
 -19.626  0.600E-05  0.600E-05
 -19.616  0.635E-05  0.635E-05
 -19.606  0.671E-05  0.671E-05
 -19.596  0.709E-05  0.709E-05
 -19.586  0.747E-05  0.747E-05
 -19.576  0.787E-05  0.787E-05
 -19.566  0.828E-05  0.828E-05
 -19.556  0.869E-05  0.869E-05
 -19.546  0.912E-05  0.912E-05
 -19.536  0.956E-05  0.956E-05
 -19.526  0.100E-04  0.100E-04
 -19.516  0.105E-04  0.105E-04
 -19.506  0.109E-04  0.109E-04
 -19.496  0.114E-04  0.114E-04
 -19.486  0.119E-04  0.119E-04
 -19.476  0.123E-04  0.123E-04
 -19.466  0.128E-04  0.128E-04
 -19.456  0.133E-04  0.133E-04
 -19.446  0.138E-04  0.138E-04
 -19.436  0.143E-04  0.143E-04
 -19.426  0.148E-04  0.148E-04
 -19.416  0.153E-04  0.153E-04
 -19.406  0.158E-04  0.158E-04
 -19.396  0.163E-04  0.163E-04
 -19.386  0.168E-04  0.168E-04
 -19.376  0.173E-04  0.173E-04
 -19.366  0.179E-04  0.179E-04
 -19.356  0.184E-04  0.184E-04
 -19.346  0.189E-04  0.189E-04
 -19.336  0.194E-04  0.194E-04
 -19.326  0.199E-04  0.199E-04
 -19.316  0.204E-04  0.204E-04
 -19.306  0.208E-04  0.208E-04
 -19.296  0.213E-04  0.213E-04
 -19.286  0.218E-04  0.218E-04
 -19.276  0.223E-04  0.223E-04
 -19.266  0.227E-04  0.227E-04
 -19.256  0.232E-04  0.232E-04
 -19.246  0.236E-04  0.236E-04
 -19.236  0.240E-04  0.240E-04
 -19.226  0.244E-04  0.244E-04
 -19.216  0.248E-04  0.248E-04
 -19.206  0.252E-04  0.252E-04
 -19.196  0.256E-04  0.256E-04
 -19.186  0.260E-04  0.260E-04
 -19.176  0.263E-04  0.263E-04
 -19.166  0.266E-04  0.266E-04
 -19.156  0.270E-04  0.270E-04
 -19.146  0.273E-04  0.273E-04
 -19.136  0.275E-04  0.275E-04
 -19.126  0.278E-04  0.278E-04
 -19.116  0.280E-04  0.280E-04
 -19.106  0.283E-04  0.283E-04
 -19.096  0.285E-04  0.285E-04
 -19.086  0.287E-04  0.287E-04
 -19.076  0.288E-04  0.288E-04
 -19.066  0.290E-04  0.290E-04
 -19.056  0.291E-04  0.291E-04
 -19.046  0.292E-04  0.292E-04
 -19.036  0.293E-04  0.293E-04
 -19.026  0.294E-04  0.294E-04
 -19.016  0.294E-04  0.294E-04
 -19.006  0.294E-04  0.294E-04
 -18.996  0.294E-04  0.294E-04
 -18.986  0.294E-04  0.294E-04
 -18.976  0.294E-04  0.294E-04
 -18.966  0.293E-04  0.293E-04
 -18.956  0.292E-04  0.292E-04
 -18.946  0.291E-04  0.291E-04
 -18.936  0.290E-04  0.290E-04
 -18.926  0.288E-04  0.288E-04
 -18.916  0.287E-04  0.287E-04
 -18.906  0.285E-04  0.285E-04
 -18.896  0.283E-04  0.283E-04
 -18.886  0.280E-04  0.280E-04
 -18.876  0.278E-04  0.278E-04
 -18.866  0.275E-04  0.275E-04
 -18.856  0.272E-04  0.272E-04
 -18.846  0.269E-04  0.269E-04
 -18.836  0.266E-04  0.266E-04
 -18.826  0.263E-04  0.263E-04
 -18.816  0.259E-04  0.259E-04
 -18.806  0.255E-04  0.255E-04
 -18.796  0.252E-04  0.252E-04
 -18.786  0.248E-04  0.248E-04
 -18.776  0.243E-04  0.243E-04
 -18.766  0.239E-04  0.239E-04
 -18.756  0.235E-04  0.235E-04
 -18.746  0.230E-04  0.230E-04
 -18.736  0.226E-04  0.226E-04
 -18.726  0.221E-04  0.221E-04
 -18.716  0.216E-04  0.216E-04
 -18.706  0.211E-04  0.211E-04
 -18.696  0.206E-04  0.206E-04
 -18.686  0.201E-04  0.201E-04
 -18.676  0.196E-04  0.196E-04
 -18.666  0.191E-04  0.191E-04
 -18.656  0.186E-04  0.186E-04
 -18.646  0.180E-04  0.180E-04
 -18.636  0.175E-04  0.175E-04
 -18.626  0.170E-04  0.170E-04
 -18.616  0.164E-04  0.164E-04
 -18.606  0.159E-04  0.159E-04
 -18.596  0.154E-04  0.154E-04
 -18.586  0.148E-04  0.148E-04
 -18.576  0.143E-04  0.143E-04
 -18.566  0.137E-04  0.137E-04
 -18.556  0.132E-04  0.132E-04
 -18.546  0.126E-04  0.126E-04
 -18.536  0.121E-04  0.121E-04
 -18.526  0.116E-04  0.116E-04
 -18.516  0.110E-04  0.110E-04
 -18.506  0.105E-04  0.105E-04
 -18.496  0.998E-05  0.998E-05
 -18.486  0.946E-05  0.946E-05
 -18.476  0.895E-05  0.895E-05
 -18.466  0.844E-05  0.844E-05
 -18.456  0.793E-05  0.793E-05
 -18.446  0.744E-05  0.744E-05
 -18.436  0.695E-05  0.695E-05
 -18.426  0.646E-05  0.646E-05
 -18.416  0.599E-05  0.599E-05
 -18.406  0.552E-05  0.552E-05
 -18.396  0.506E-05  0.506E-05
 -18.386  0.461E-05  0.461E-05
 -18.376  0.416E-05  0.416E-05
 -18.366  0.373E-05  0.373E-05
 -18.356  0.330E-05  0.330E-05
 -18.346  0.288E-05  0.288E-05
 -18.336  0.247E-05  0.247E-05
 -18.326  0.207E-05  0.207E-05
 -18.316  0.168E-05  0.168E-05
 -18.306  0.130E-05  0.130E-05
 -18.296  0.925E-06  0.925E-06
 -18.286  0.561E-06  0.561E-06
 -18.276  0.207E-06  0.207E-06
 -18.266 -0.138E-06 -0.138E-06
 -18.256 -0.474E-06 -0.474E-06
 -18.246 -0.800E-06 -0.800E-06
 -18.236 -0.112E-05 -0.112E-05
 -18.226 -0.142E-05 -0.142E-05
 -18.216 -0.172E-05 -0.172E-05
 -18.206 -0.201E-05 -0.201E-05
 -18.196 -0.229E-05 -0.229E-05
 -18.186 -0.256E-05 -0.256E-05
 -18.176 -0.282E-05 -0.282E-05
 -18.166 -0.307E-05 -0.307E-05
 -18.156 -0.331E-05 -0.331E-05
 -18.146 -0.354E-05 -0.354E-05
 -18.136 -0.376E-05 -0.376E-05
 -18.126 -0.397E-05 -0.397E-05
 -18.116 -0.417E-05 -0.417E-05
 -18.106 -0.436E-05 -0.436E-05
 -18.096 -0.455E-05 -0.455E-05
 -18.086 -0.472E-05 -0.472E-05
 -18.076 -0.488E-05 -0.488E-05
 -18.066 -0.503E-05 -0.503E-05
 -18.056 -0.517E-05 -0.517E-05
 -18.046 -0.530E-05 -0.530E-05
 -18.036 -0.542E-05 -0.542E-05
 -18.026 -0.553E-05 -0.553E-05
 -18.016 -0.563E-05 -0.563E-05
 -18.006 -0.572E-05 -0.572E-05
 -17.996 -0.580E-05 -0.580E-05
 -17.986 -0.586E-05 -0.586E-05
 -17.976 -0.591E-05 -0.591E-05
 -17.966 -0.595E-05 -0.595E-05
 -17.956 -0.598E-05 -0.598E-05
 -17.946 -0.599E-05 -0.599E-05
 -17.936 -0.599E-05 -0.599E-05
 -17.926 -0.598E-05 -0.598E-05
 -17.916 -0.595E-05 -0.595E-05
 -17.906 -0.591E-05 -0.591E-05
 -17.896 -0.585E-05 -0.585E-05
 -17.886 -0.577E-05 -0.577E-05
 -17.876 -0.569E-05 -0.569E-05
 -17.866 -0.558E-05 -0.558E-05
 -17.856 -0.546E-05 -0.546E-05
 -17.846 -0.532E-05 -0.532E-05
 -17.836 -0.516E-05 -0.516E-05
 -17.826 -0.498E-05 -0.498E-05
 -17.816 -0.479E-05 -0.479E-05
 -17.806 -0.457E-05 -0.457E-05
 -17.796 -0.433E-05 -0.433E-05
 -17.786 -0.408E-05 -0.408E-05
 -17.776 -0.380E-05 -0.380E-05
 -17.766 -0.350E-05 -0.350E-05
 -17.756 -0.318E-05 -0.318E-05
 -17.746 -0.283E-05 -0.283E-05
 -17.736 -0.246E-05 -0.246E-05
 -17.726 -0.207E-05 -0.207E-05
 -17.716 -0.165E-05 -0.165E-05
 -17.706 -0.121E-05 -0.121E-05
 -17.696 -0.741E-06 -0.741E-06
 -17.686 -0.247E-06 -0.247E-06
 -17.676  0.273E-06  0.273E-06
 -17.666  0.820E-06  0.820E-06
 -17.656  0.139E-05  0.139E-05
 -17.646  0.200E-05  0.200E-05
 -17.636  0.263E-05  0.263E-05
 -17.626  0.329E-05  0.329E-05
 -17.616  0.397E-05  0.397E-05
 -17.606  0.469E-05  0.469E-05
 -17.596  0.543E-05  0.543E-05
 -17.586  0.620E-05  0.620E-05
 -17.576  0.701E-05  0.701E-05
 -17.566  0.784E-05  0.784E-05
 -17.556  0.870E-05  0.870E-05
 -17.546  0.959E-05  0.959E-05
 -17.536  0.105E-04  0.105E-04
 -17.526  0.114E-04  0.114E-04
 -17.516  0.124E-04  0.124E-04
 -17.506  0.134E-04  0.134E-04
 -17.496  0.145E-04  0.145E-04
 -17.486  0.155E-04  0.155E-04
 -17.476  0.166E-04  0.166E-04
 -17.466  0.177E-04  0.177E-04
 -17.456  0.188E-04  0.188E-04
 -17.446  0.200E-04  0.200E-04
 -17.436  0.212E-04  0.212E-04
 -17.426  0.224E-04  0.224E-04
 -17.416  0.236E-04  0.236E-04
 -17.406  0.249E-04  0.249E-04
 -17.396  0.261E-04  0.261E-04
 -17.386  0.274E-04  0.274E-04
 -17.376  0.287E-04  0.287E-04
 -17.366  0.301E-04  0.301E-04
 -17.356  0.314E-04  0.314E-04
 -17.346  0.327E-04  0.327E-04
 -17.336  0.341E-04  0.341E-04
 -17.326  0.355E-04  0.355E-04
 -17.316  0.369E-04  0.369E-04
 -17.306  0.383E-04  0.383E-04
 -17.296  0.397E-04  0.397E-04
 -17.286  0.411E-04  0.411E-04
 -17.276  0.425E-04  0.425E-04
 -17.266  0.439E-04  0.439E-04
 -17.256  0.453E-04  0.453E-04
 -17.246  0.467E-04  0.467E-04
 -17.236  0.481E-04  0.481E-04
 -17.226  0.495E-04  0.495E-04
 -17.216  0.509E-04  0.509E-04
 -17.206  0.522E-04  0.522E-04
 -17.196  0.536E-04  0.536E-04
 -17.186  0.550E-04  0.550E-04
 -17.176  0.563E-04  0.563E-04
 -17.166  0.576E-04  0.576E-04
 -17.156  0.589E-04  0.589E-04
 -17.146  0.602E-04  0.602E-04
 -17.136  0.614E-04  0.614E-04
 -17.126  0.626E-04  0.626E-04
 -17.116  0.638E-04  0.638E-04
 -17.106  0.650E-04  0.650E-04
 -17.096  0.661E-04  0.661E-04
 -17.086  0.672E-04  0.672E-04
 -17.076  0.683E-04  0.683E-04
 -17.066  0.693E-04  0.693E-04
 -17.056  0.703E-04  0.703E-04
 -17.046  0.712E-04  0.712E-04
 -17.036  0.722E-04  0.722E-04
 -17.026  0.730E-04  0.730E-04
 -17.016  0.738E-04  0.738E-04
 -17.006  0.746E-04  0.746E-04
 -16.996  0.753E-04  0.753E-04
 -16.986  0.760E-04  0.760E-04
 -16.976  0.766E-04  0.766E-04
 -16.966  0.772E-04  0.772E-04
 -16.956  0.777E-04  0.777E-04
 -16.946  0.782E-04  0.782E-04
 -16.936  0.786E-04  0.786E-04
 -16.926  0.790E-04  0.790E-04
 -16.916  0.793E-04  0.793E-04
 -16.906  0.795E-04  0.795E-04
 -16.896  0.797E-04  0.797E-04
 -16.886  0.799E-04  0.799E-04
 -16.876  0.800E-04  0.800E-04
 -16.866  0.800E-04  0.800E-04
 -16.856  0.800E-04  0.800E-04
 -16.846  0.799E-04  0.799E-04
 -16.836  0.798E-04  0.798E-04
 -16.826  0.796E-04  0.796E-04
 -16.816  0.793E-04  0.793E-04
 -16.806  0.790E-04  0.790E-04
 -16.796  0.787E-04  0.787E-04
 -16.786  0.783E-04  0.783E-04
 -16.776  0.778E-04  0.778E-04
 -16.766  0.773E-04  0.773E-04
 -16.756  0.768E-04  0.768E-04
 -16.746  0.761E-04  0.761E-04
 -16.736  0.755E-04  0.755E-04
 -16.726  0.748E-04  0.748E-04
 -16.716  0.740E-04  0.740E-04
 -16.706  0.732E-04  0.732E-04
 -16.696  0.724E-04  0.724E-04
 -16.686  0.715E-04  0.715E-04
 -16.676  0.706E-04  0.706E-04
 -16.666  0.697E-04  0.697E-04
 -16.656  0.687E-04  0.687E-04
 -16.646  0.677E-04  0.677E-04
 -16.636  0.666E-04  0.666E-04
 -16.626  0.655E-04  0.655E-04
 -16.616  0.644E-04  0.644E-04
 -16.606  0.633E-04  0.633E-04
 -16.596  0.621E-04  0.621E-04
 -16.586  0.609E-04  0.609E-04
 -16.576  0.597E-04  0.597E-04
 -16.566  0.585E-04  0.585E-04
 -16.556  0.572E-04  0.572E-04
 -16.546  0.560E-04  0.560E-04
 -16.536  0.547E-04  0.547E-04
 -16.526  0.534E-04  0.534E-04
 -16.516  0.521E-04  0.521E-04
 -16.506  0.508E-04  0.508E-04
 -16.496  0.495E-04  0.495E-04
 -16.486  0.482E-04  0.482E-04
 -16.476  0.468E-04  0.468E-04
 -16.466  0.455E-04  0.455E-04
 -16.456  0.442E-04  0.442E-04
 -16.446  0.429E-04  0.429E-04
 -16.436  0.416E-04  0.416E-04
 -16.426  0.403E-04  0.403E-04
 -16.416  0.390E-04  0.390E-04
 -16.406  0.377E-04  0.377E-04
 -16.396  0.364E-04  0.364E-04
 -16.386  0.351E-04  0.351E-04
 -16.376  0.339E-04  0.339E-04
 -16.366  0.326E-04  0.326E-04
 -16.356  0.314E-04  0.314E-04
 -16.346  0.302E-04  0.302E-04
 -16.336  0.290E-04  0.290E-04
 -16.326  0.279E-04  0.279E-04
 -16.316  0.267E-04  0.267E-04
 -16.306  0.256E-04  0.256E-04
 -16.296  0.245E-04  0.245E-04
 -16.286  0.234E-04  0.234E-04
 -16.276  0.223E-04  0.223E-04
 -16.266  0.213E-04  0.213E-04
 -16.256  0.203E-04  0.203E-04
 -16.246  0.193E-04  0.193E-04
 -16.236  0.183E-04  0.183E-04
 -16.226  0.174E-04  0.174E-04
 -16.216  0.165E-04  0.165E-04
 -16.206  0.156E-04  0.156E-04
 -16.196  0.147E-04  0.147E-04
 -16.186  0.139E-04  0.139E-04
 -16.176  0.131E-04  0.131E-04
 -16.166  0.123E-04  0.123E-04
 -16.156  0.116E-04  0.116E-04
 -16.146  0.108E-04  0.108E-04
 -16.136  0.101E-04  0.101E-04
 -16.126  0.946E-05  0.946E-05
 -16.116  0.881E-05  0.881E-05
 -16.106  0.819E-05  0.819E-05
 -16.096  0.759E-05  0.759E-05
 -16.086  0.702E-05  0.702E-05
 -16.076  0.647E-05  0.647E-05
 -16.066  0.594E-05  0.594E-05
 -16.056  0.544E-05  0.544E-05
 -16.046  0.497E-05  0.497E-05
 -16.036  0.451E-05  0.451E-05
 -16.026  0.408E-05  0.408E-05
 -16.016  0.367E-05  0.367E-05
 -16.006  0.328E-05  0.328E-05
 -15.996  0.291E-05  0.291E-05
 -15.986  0.256E-05  0.256E-05
 -15.976  0.223E-05  0.223E-05
 -15.966  0.192E-05  0.192E-05
 -15.956  0.162E-05  0.162E-05
 -15.946  0.135E-05  0.135E-05
 -15.936  0.109E-05  0.109E-05
 -15.926  0.847E-06  0.847E-06
 -15.916  0.621E-06  0.621E-06
 -15.906  0.409E-06  0.409E-06
 -15.896  0.211E-06  0.211E-06
 -15.886  0.273E-07  0.273E-07
 -15.876 -0.143E-06 -0.143E-06
 -15.866 -0.301E-06 -0.301E-06
 -15.856 -0.448E-06 -0.448E-06
 -15.846 -0.582E-06 -0.582E-06
 -15.836 -0.707E-06 -0.707E-06
 -15.826 -0.820E-06 -0.820E-06
 -15.816 -0.925E-06 -0.925E-06
 -15.806 -0.102E-05 -0.102E-05
 -15.796 -0.111E-05 -0.111E-05
 -15.786 -0.119E-05 -0.119E-05
 -15.776 -0.126E-05 -0.126E-05
 -15.766 -0.132E-05 -0.132E-05
 -15.756 -0.138E-05 -0.138E-05
 -15.746 -0.143E-05 -0.143E-05
 -15.736 -0.148E-05 -0.148E-05
 -15.726 -0.152E-05 -0.152E-05
 -15.716 -0.155E-05 -0.155E-05
 -15.706 -0.158E-05 -0.158E-05
 -15.696 -0.161E-05 -0.161E-05
 -15.686 -0.164E-05 -0.164E-05
 -15.676 -0.166E-05 -0.166E-05
 -15.666 -0.167E-05 -0.167E-05
 -15.656 -0.169E-05 -0.169E-05
 -15.646 -0.170E-05 -0.170E-05
 -15.636 -0.171E-05 -0.171E-05
 -15.626 -0.172E-05 -0.172E-05
 -15.616 -0.173E-05 -0.173E-05
 -15.606 -0.174E-05 -0.174E-05
 -15.596 -0.174E-05 -0.174E-05
 -15.586 -0.175E-05 -0.175E-05
 -15.576 -0.175E-05 -0.175E-05
 -15.566 -0.176E-05 -0.176E-05
 -15.556 -0.176E-05 -0.176E-05
 -15.546 -0.177E-05 -0.177E-05
 -15.536 -0.177E-05 -0.177E-05
 -15.526 -0.178E-05 -0.178E-05
 -15.516 -0.179E-05 -0.179E-05
 -15.506 -0.179E-05 -0.179E-05
 -15.496 -0.180E-05 -0.180E-05
 -15.486 -0.181E-05 -0.181E-05
 -15.476 -0.182E-05 -0.182E-05
 -15.466 -0.184E-05 -0.184E-05
 -15.456 -0.185E-05 -0.185E-05
 -15.446 -0.187E-05 -0.187E-05
 -15.436 -0.189E-05 -0.189E-05
 -15.426 -0.190E-05 -0.190E-05
 -15.416 -0.193E-05 -0.193E-05
 -15.406 -0.195E-05 -0.195E-05
 -15.396 -0.198E-05 -0.198E-05
 -15.386 -0.200E-05 -0.200E-05
 -15.376 -0.203E-05 -0.203E-05
 -15.366 -0.207E-05 -0.207E-05
 -15.356 -0.210E-05 -0.210E-05
 -15.346 -0.214E-05 -0.214E-05
 -15.336 -0.218E-05 -0.218E-05
 -15.326 -0.222E-05 -0.222E-05
 -15.316 -0.227E-05 -0.227E-05
 -15.306 -0.232E-05 -0.232E-05
 -15.296 -0.237E-05 -0.237E-05
 -15.286 -0.242E-05 -0.242E-05
 -15.276 -0.248E-05 -0.248E-05
 -15.266 -0.254E-05 -0.254E-05
 -15.256 -0.260E-05 -0.260E-05
 -15.246 -0.267E-05 -0.267E-05
 -15.236 -0.274E-05 -0.274E-05
 -15.226 -0.281E-05 -0.281E-05
 -15.216 -0.288E-05 -0.288E-05
 -15.206 -0.296E-05 -0.296E-05
 -15.196 -0.304E-05 -0.304E-05
 -15.186 -0.312E-05 -0.312E-05
 -15.176 -0.321E-05 -0.321E-05
 -15.166 -0.330E-05 -0.330E-05
 -15.156 -0.339E-05 -0.339E-05
 -15.146 -0.348E-05 -0.348E-05
 -15.136 -0.358E-05 -0.358E-05
 -15.126 -0.368E-05 -0.368E-05
 -15.116 -0.378E-05 -0.378E-05
 -15.106 -0.388E-05 -0.388E-05
 -15.096 -0.399E-05 -0.399E-05
 -15.086 -0.409E-05 -0.409E-05
 -15.076 -0.420E-05 -0.420E-05
 -15.066 -0.431E-05 -0.431E-05
 -15.056 -0.442E-05 -0.442E-05
 -15.046 -0.454E-05 -0.454E-05
 -15.036 -0.465E-05 -0.465E-05
 -15.026 -0.477E-05 -0.477E-05
 -15.016 -0.488E-05 -0.488E-05
 -15.006 -0.499E-05 -0.499E-05
 -14.996 -0.511E-05 -0.511E-05
 -14.986 -0.522E-05 -0.522E-05
 -14.976 -0.534E-05 -0.534E-05
 -14.966 -0.545E-05 -0.545E-05
 -14.956 -0.556E-05 -0.556E-05
 -14.946 -0.566E-05 -0.566E-05
 -14.936 -0.577E-05 -0.577E-05
 -14.926 -0.587E-05 -0.587E-05
 -14.916 -0.597E-05 -0.597E-05
 -14.906 -0.607E-05 -0.607E-05
 -14.896 -0.616E-05 -0.616E-05
 -14.886 -0.624E-05 -0.624E-05
 -14.876 -0.632E-05 -0.632E-05
 -14.866 -0.639E-05 -0.639E-05
 -14.856 -0.646E-05 -0.646E-05
 -14.846 -0.652E-05 -0.652E-05
 -14.836 -0.657E-05 -0.657E-05
 -14.826 -0.661E-05 -0.661E-05
 -14.816 -0.665E-05 -0.665E-05
 -14.806 -0.667E-05 -0.667E-05
 -14.796 -0.668E-05 -0.668E-05
 -14.786 -0.668E-05 -0.668E-05
 -14.776 -0.667E-05 -0.667E-05
 -14.766 -0.664E-05 -0.664E-05
 -14.756 -0.660E-05 -0.660E-05
 -14.746 -0.654E-05 -0.654E-05
 -14.736 -0.647E-05 -0.647E-05
 -14.726 -0.638E-05 -0.638E-05
 -14.716 -0.628E-05 -0.628E-05
 -14.706 -0.615E-05 -0.615E-05
 -14.696 -0.601E-05 -0.601E-05
 -14.686 -0.584E-05 -0.584E-05
 -14.676 -0.566E-05 -0.566E-05
 -14.666 -0.545E-05 -0.545E-05
 -14.656 -0.522E-05 -0.522E-05
 -14.646 -0.496E-05 -0.496E-05
 -14.636 -0.468E-05 -0.468E-05
 -14.626 -0.437E-05 -0.437E-05
 -14.616 -0.404E-05 -0.404E-05
 -14.606 -0.368E-05 -0.368E-05
 -14.596 -0.329E-05 -0.329E-05
 -14.586 -0.286E-05 -0.286E-05
 -14.576 -0.241E-05 -0.241E-05
 -14.566 -0.193E-05 -0.193E-05
 -14.556 -0.141E-05 -0.141E-05
 -14.546 -0.864E-06 -0.864E-06
 -14.536 -0.281E-06 -0.281E-06
 -14.526  0.338E-06  0.338E-06
 -14.516  0.993E-06  0.993E-06
 -14.506  0.168E-05  0.168E-05
 -14.496  0.241E-05  0.241E-05
 -14.486  0.318E-05  0.318E-05
 -14.476  0.398E-05  0.398E-05
 -14.466  0.483E-05  0.483E-05
 -14.456  0.571E-05  0.571E-05
 -14.446  0.664E-05  0.664E-05
 -14.436  0.761E-05  0.761E-05
 -14.426  0.862E-05  0.862E-05
 -14.416  0.967E-05  0.967E-05
 -14.406  0.108E-04  0.108E-04
 -14.396  0.119E-04  0.119E-04
 -14.386  0.131E-04  0.131E-04
 -14.376  0.143E-04  0.143E-04
 -14.366  0.156E-04  0.156E-04
 -14.356  0.169E-04  0.169E-04
 -14.346  0.182E-04  0.182E-04
 -14.336  0.196E-04  0.196E-04
 -14.326  0.210E-04  0.210E-04
 -14.316  0.225E-04  0.225E-04
 -14.306  0.240E-04  0.240E-04
 -14.296  0.256E-04  0.256E-04
 -14.286  0.272E-04  0.272E-04
 -14.276  0.289E-04  0.289E-04
 -14.266  0.305E-04  0.305E-04
 -14.256  0.323E-04  0.323E-04
 -14.246  0.340E-04  0.340E-04
 -14.236  0.358E-04  0.358E-04
 -14.226  0.377E-04  0.377E-04
 -14.216  0.396E-04  0.396E-04
 -14.206  0.415E-04  0.415E-04
 -14.196  0.434E-04  0.434E-04
 -14.186  0.454E-04  0.454E-04
 -14.176  0.474E-04  0.474E-04
 -14.166  0.495E-04  0.495E-04
 -14.156  0.515E-04  0.515E-04
 -14.146  0.536E-04  0.536E-04
 -14.136  0.558E-04  0.558E-04
 -14.126  0.579E-04  0.579E-04
 -14.116  0.601E-04  0.601E-04
 -14.106  0.623E-04  0.623E-04
 -14.096  0.645E-04  0.645E-04
 -14.086  0.667E-04  0.667E-04
 -14.076  0.690E-04  0.690E-04
 -14.066  0.712E-04  0.712E-04
 -14.056  0.735E-04  0.735E-04
 -14.046  0.758E-04  0.758E-04
 -14.036  0.781E-04  0.781E-04
 -14.026  0.804E-04  0.804E-04
 -14.016  0.827E-04  0.827E-04
 -14.006  0.849E-04  0.849E-04
 -13.996  0.872E-04  0.872E-04
 -13.986  0.895E-04  0.895E-04
 -13.976  0.918E-04  0.918E-04
 -13.966  0.941E-04  0.941E-04
 -13.956  0.963E-04  0.963E-04
 -13.946  0.986E-04  0.986E-04
 -13.936  0.101E-03  0.101E-03
 -13.926  0.103E-03  0.103E-03
 -13.916  0.105E-03  0.105E-03
 -13.906  0.107E-03  0.107E-03
 -13.896  0.109E-03  0.109E-03
 -13.886  0.112E-03  0.112E-03
 -13.876  0.114E-03  0.114E-03
 -13.866  0.116E-03  0.116E-03
 -13.856  0.118E-03  0.118E-03
 -13.846  0.120E-03  0.120E-03
 -13.836  0.121E-03  0.121E-03
 -13.826  0.123E-03  0.123E-03
 -13.816  0.125E-03  0.125E-03
 -13.806  0.127E-03  0.127E-03
 -13.796  0.129E-03  0.129E-03
 -13.786  0.130E-03  0.130E-03
 -13.776  0.132E-03  0.132E-03
 -13.766  0.133E-03  0.133E-03
 -13.756  0.135E-03  0.135E-03
 -13.746  0.136E-03  0.136E-03
 -13.736  0.138E-03  0.138E-03
 -13.726  0.139E-03  0.139E-03
 -13.716  0.140E-03  0.140E-03
 -13.706  0.141E-03  0.141E-03
 -13.696  0.142E-03  0.142E-03
 -13.686  0.144E-03  0.144E-03
 -13.676  0.144E-03  0.144E-03
 -13.666  0.145E-03  0.145E-03
 -13.656  0.146E-03  0.146E-03
 -13.646  0.147E-03  0.147E-03
 -13.636  0.147E-03  0.147E-03
 -13.626  0.148E-03  0.148E-03
 -13.616  0.148E-03  0.148E-03
 -13.606  0.149E-03  0.149E-03
 -13.596  0.149E-03  0.149E-03
 -13.586  0.149E-03  0.149E-03
 -13.576  0.150E-03  0.150E-03
 -13.566  0.150E-03  0.150E-03
 -13.556  0.150E-03  0.150E-03
 -13.546  0.150E-03  0.150E-03
 -13.536  0.149E-03  0.149E-03
 -13.526  0.149E-03  0.149E-03
 -13.516  0.149E-03  0.149E-03
 -13.506  0.148E-03  0.148E-03
 -13.496  0.148E-03  0.148E-03
 -13.486  0.147E-03  0.147E-03
 -13.476  0.147E-03  0.147E-03
 -13.466  0.146E-03  0.146E-03
 -13.456  0.145E-03  0.145E-03
 -13.446  0.144E-03  0.144E-03
 -13.436  0.143E-03  0.143E-03
 -13.426  0.142E-03  0.142E-03
 -13.416  0.141E-03  0.141E-03
 -13.406  0.140E-03  0.140E-03
 -13.396  0.139E-03  0.139E-03
 -13.386  0.137E-03  0.137E-03
 -13.376  0.136E-03  0.136E-03
 -13.366  0.134E-03  0.134E-03
 -13.356  0.133E-03  0.133E-03
 -13.346  0.131E-03  0.131E-03
 -13.336  0.130E-03  0.130E-03
 -13.326  0.128E-03  0.128E-03
 -13.316  0.126E-03  0.126E-03
 -13.306  0.124E-03  0.124E-03
 -13.296  0.123E-03  0.123E-03
 -13.286  0.121E-03  0.121E-03
 -13.276  0.119E-03  0.119E-03
 -13.266  0.117E-03  0.117E-03
 -13.256  0.115E-03  0.115E-03
 -13.246  0.113E-03  0.113E-03
 -13.236  0.111E-03  0.111E-03
 -13.226  0.108E-03  0.108E-03
 -13.216  0.106E-03  0.106E-03
 -13.206  0.104E-03  0.104E-03
 -13.196  0.102E-03  0.102E-03
 -13.186  0.996E-04  0.996E-04
 -13.176  0.973E-04  0.973E-04
 -13.166  0.950E-04  0.950E-04
 -13.156  0.927E-04  0.927E-04
 -13.146  0.904E-04  0.904E-04
 -13.136  0.881E-04  0.881E-04
 -13.126  0.858E-04  0.858E-04
 -13.116  0.835E-04  0.835E-04
 -13.106  0.811E-04  0.811E-04
 -13.096  0.788E-04  0.788E-04
 -13.086  0.765E-04  0.765E-04
 -13.076  0.742E-04  0.742E-04
 -13.066  0.718E-04  0.718E-04
 -13.056  0.695E-04  0.695E-04
 -13.046  0.672E-04  0.672E-04
 -13.036  0.649E-04  0.649E-04
 -13.026  0.627E-04  0.627E-04
 -13.016  0.604E-04  0.604E-04
 -13.006  0.582E-04  0.582E-04
 -12.996  0.559E-04  0.559E-04
 -12.986  0.537E-04  0.537E-04
 -12.976  0.516E-04  0.516E-04
 -12.966  0.494E-04  0.494E-04
 -12.956  0.473E-04  0.473E-04
 -12.946  0.452E-04  0.452E-04
 -12.936  0.431E-04  0.431E-04
 -12.926  0.411E-04  0.411E-04
 -12.916  0.390E-04  0.390E-04
 -12.906  0.371E-04  0.371E-04
 -12.896  0.351E-04  0.351E-04
 -12.886  0.332E-04  0.332E-04
 -12.876  0.313E-04  0.313E-04
 -12.866  0.295E-04  0.295E-04
 -12.856  0.276E-04  0.276E-04
 -12.846  0.259E-04  0.259E-04
 -12.836  0.241E-04  0.241E-04
 -12.826  0.224E-04  0.224E-04
 -12.816  0.207E-04  0.207E-04
 -12.806  0.191E-04  0.191E-04
 -12.796  0.175E-04  0.175E-04
 -12.786  0.160E-04  0.160E-04
 -12.776  0.144E-04  0.144E-04
 -12.766  0.129E-04  0.129E-04
 -12.756  0.115E-04  0.115E-04
 -12.746  0.101E-04  0.101E-04
 -12.736  0.871E-05  0.871E-05
 -12.726  0.737E-05  0.737E-05
 -12.716  0.606E-05  0.606E-05
 -12.706  0.479E-05  0.479E-05
 -12.696  0.355E-05  0.355E-05
 -12.686  0.235E-05  0.235E-05
 -12.676  0.118E-05  0.118E-05
 -12.666  0.495E-07  0.495E-07
 -12.656 -0.105E-05 -0.105E-05
 -12.646 -0.212E-05 -0.212E-05
 -12.636 -0.316E-05 -0.316E-05
 -12.626 -0.417E-05 -0.417E-05
 -12.616 -0.515E-05 -0.515E-05
 -12.606 -0.610E-05 -0.610E-05
 -12.596 -0.702E-05 -0.702E-05
 -12.586 -0.791E-05 -0.791E-05
 -12.576 -0.878E-05 -0.878E-05
 -12.566 -0.961E-05 -0.961E-05
 -12.556 -0.104E-04 -0.104E-04
 -12.546 -0.112E-04 -0.112E-04
 -12.536 -0.120E-04 -0.120E-04
 -12.526 -0.127E-04 -0.127E-04
 -12.516 -0.134E-04 -0.134E-04
 -12.506 -0.141E-04 -0.141E-04
 -12.496 -0.148E-04 -0.148E-04
 -12.486 -0.154E-04 -0.154E-04
 -12.476 -0.160E-04 -0.160E-04
 -12.466 -0.166E-04 -0.166E-04
 -12.456 -0.172E-04 -0.172E-04
 -12.446 -0.177E-04 -0.177E-04
 -12.436 -0.183E-04 -0.183E-04
 -12.426 -0.188E-04 -0.188E-04
 -12.416 -0.193E-04 -0.193E-04
 -12.406 -0.197E-04 -0.197E-04
 -12.396 -0.201E-04 -0.201E-04
 -12.386 -0.206E-04 -0.206E-04
 -12.376 -0.209E-04 -0.209E-04
 -12.366 -0.213E-04 -0.213E-04
 -12.356 -0.216E-04 -0.216E-04
 -12.346 -0.219E-04 -0.219E-04
 -12.336 -0.222E-04 -0.222E-04
 -12.326 -0.225E-04 -0.225E-04
 -12.316 -0.227E-04 -0.227E-04
 -12.306 -0.229E-04 -0.229E-04
 -12.296 -0.231E-04 -0.231E-04
 -12.286 -0.232E-04 -0.232E-04
 -12.276 -0.233E-04 -0.233E-04
 -12.266 -0.234E-04 -0.234E-04
 -12.256 -0.234E-04 -0.234E-04
 -12.246 -0.234E-04 -0.234E-04
 -12.236 -0.233E-04 -0.233E-04
 -12.226 -0.232E-04 -0.232E-04
 -12.216 -0.231E-04 -0.231E-04
 -12.206 -0.229E-04 -0.229E-04
 -12.196 -0.226E-04 -0.226E-04
 -12.186 -0.223E-04 -0.223E-04
 -12.176 -0.220E-04 -0.220E-04
 -12.166 -0.216E-04 -0.216E-04
 -12.156 -0.211E-04 -0.211E-04
 -12.146 -0.206E-04 -0.206E-04
 -12.136 -0.200E-04 -0.200E-04
 -12.126 -0.194E-04 -0.194E-04
 -12.116 -0.187E-04 -0.187E-04
 -12.106 -0.179E-04 -0.179E-04
 -12.096 -0.170E-04 -0.170E-04
 -12.086 -0.161E-04 -0.161E-04
 -12.076 -0.151E-04 -0.151E-04
 -12.066 -0.140E-04 -0.140E-04
 -12.056 -0.128E-04 -0.128E-04
 -12.046 -0.116E-04 -0.116E-04
 -12.036 -0.102E-04 -0.102E-04
 -12.026 -0.880E-05 -0.880E-05
 -12.016 -0.727E-05 -0.727E-05
 -12.006 -0.565E-05 -0.565E-05
 -11.996 -0.392E-05 -0.392E-05
 -11.986 -0.210E-05 -0.210E-05
 -11.976 -0.178E-06 -0.178E-06
 -11.966  0.185E-05  0.185E-05
 -11.956  0.398E-05  0.398E-05
 -11.946  0.622E-05  0.622E-05
 -11.936  0.857E-05  0.857E-05
 -11.926  0.110E-04  0.110E-04
 -11.916  0.136E-04  0.136E-04
 -11.906  0.163E-04  0.163E-04
 -11.896  0.191E-04  0.191E-04
 -11.886  0.220E-04  0.220E-04
 -11.876  0.250E-04  0.250E-04
 -11.866  0.282E-04  0.282E-04
 -11.856  0.314E-04  0.314E-04
 -11.846  0.348E-04  0.348E-04
 -11.836  0.383E-04  0.383E-04
 -11.826  0.419E-04  0.419E-04
 -11.816  0.457E-04  0.457E-04
 -11.806  0.495E-04  0.495E-04
 -11.796  0.534E-04  0.534E-04
 -11.786  0.575E-04  0.575E-04
 -11.776  0.617E-04  0.617E-04
 -11.766  0.659E-04  0.659E-04
 -11.756  0.703E-04  0.703E-04
 -11.746  0.748E-04  0.748E-04
 -11.736  0.794E-04  0.794E-04
 -11.726  0.841E-04  0.841E-04
 -11.716  0.888E-04  0.888E-04
 -11.706  0.937E-04  0.937E-04
 -11.696  0.987E-04  0.987E-04
 -11.686  0.104E-03  0.104E-03
 -11.676  0.109E-03  0.109E-03
 -11.666  0.114E-03  0.114E-03
 -11.656  0.119E-03  0.119E-03
 -11.646  0.124E-03  0.124E-03
 -11.636  0.130E-03  0.130E-03
 -11.626  0.135E-03  0.135E-03
 -11.616  0.141E-03  0.141E-03
 -11.606  0.146E-03  0.146E-03
 -11.596  0.152E-03  0.152E-03
 -11.586  0.157E-03  0.157E-03
 -11.576  0.163E-03  0.163E-03
 -11.566  0.168E-03  0.168E-03
 -11.556  0.174E-03  0.174E-03
 -11.546  0.179E-03  0.179E-03
 -11.536  0.185E-03  0.185E-03
 -11.526  0.190E-03  0.190E-03
 -11.516  0.196E-03  0.196E-03
 -11.506  0.201E-03  0.201E-03
 -11.496  0.207E-03  0.207E-03
 -11.486  0.212E-03  0.212E-03
 -11.476  0.217E-03  0.217E-03
 -11.466  0.222E-03  0.222E-03
 -11.456  0.228E-03  0.228E-03
 -11.446  0.233E-03  0.233E-03
 -11.436  0.237E-03  0.237E-03
 -11.426  0.242E-03  0.242E-03
 -11.416  0.247E-03  0.247E-03
 -11.406  0.251E-03  0.251E-03
 -11.396  0.256E-03  0.256E-03
 -11.386  0.260E-03  0.260E-03
 -11.376  0.264E-03  0.264E-03
 -11.366  0.268E-03  0.268E-03
 -11.356  0.272E-03  0.272E-03
 -11.346  0.275E-03  0.275E-03
 -11.336  0.278E-03  0.278E-03
 -11.326  0.281E-03  0.281E-03
 -11.316  0.284E-03  0.284E-03
 -11.306  0.287E-03  0.287E-03
 -11.296  0.289E-03  0.289E-03
 -11.286  0.292E-03  0.292E-03
 -11.276  0.293E-03  0.293E-03
 -11.266  0.295E-03  0.295E-03
 -11.256  0.296E-03  0.296E-03
 -11.246  0.298E-03  0.298E-03
 -11.236  0.298E-03  0.298E-03
 -11.226  0.299E-03  0.299E-03
 -11.216  0.299E-03  0.299E-03
 -11.206  0.299E-03  0.299E-03
 -11.196  0.299E-03  0.299E-03
 -11.186  0.298E-03  0.298E-03
 -11.176  0.297E-03  0.297E-03
 -11.166  0.295E-03  0.295E-03
 -11.156  0.293E-03  0.293E-03
 -11.146  0.291E-03  0.291E-03
 -11.136  0.289E-03  0.289E-03
 -11.126  0.286E-03  0.286E-03
 -11.116  0.282E-03  0.282E-03
 -11.106  0.279E-03  0.279E-03
 -11.096  0.274E-03  0.274E-03
 -11.086  0.270E-03  0.270E-03
 -11.076  0.265E-03  0.265E-03
 -11.066  0.259E-03  0.259E-03
 -11.056  0.254E-03  0.254E-03
 -11.046  0.247E-03  0.247E-03
 -11.036  0.240E-03  0.240E-03
 -11.026  0.233E-03  0.233E-03
 -11.016  0.225E-03  0.225E-03
 -11.006  0.217E-03  0.217E-03
 -10.996  0.208E-03  0.208E-03
 -10.986  0.199E-03  0.199E-03
 -10.976  0.189E-03  0.189E-03
 -10.966  0.179E-03  0.179E-03
 -10.956  0.168E-03  0.168E-03
 -10.946  0.157E-03  0.157E-03
 -10.936  0.145E-03  0.145E-03
 -10.926  0.132E-03  0.132E-03
 -10.916  0.119E-03  0.119E-03
 -10.906  0.105E-03  0.105E-03
 -10.896  0.903E-04  0.903E-04
 -10.886  0.751E-04  0.751E-04
 -10.876  0.593E-04  0.593E-04
 -10.866  0.428E-04  0.428E-04
 -10.856  0.256E-04  0.256E-04
 -10.846  0.773E-05  0.773E-05
 -10.836 -0.109E-04 -0.109E-04
 -10.826 -0.303E-04 -0.303E-04
 -10.816 -0.505E-04 -0.505E-04
 -10.806 -0.715E-04 -0.715E-04
 -10.796 -0.932E-04 -0.932E-04
 -10.786 -0.116E-03 -0.116E-03
 -10.776 -0.139E-03 -0.139E-03
 -10.766 -0.164E-03 -0.164E-03
 -10.756 -0.189E-03 -0.189E-03
 -10.746 -0.215E-03 -0.215E-03
 -10.736 -0.242E-03 -0.242E-03
 -10.726 -0.270E-03 -0.270E-03
 -10.716 -0.299E-03 -0.299E-03
 -10.706 -0.329E-03 -0.329E-03
 -10.696 -0.360E-03 -0.360E-03
 -10.686 -0.392E-03 -0.392E-03
 -10.676 -0.425E-03 -0.425E-03
 -10.666 -0.460E-03 -0.460E-03
 -10.656 -0.495E-03 -0.495E-03
 -10.646 -0.531E-03 -0.531E-03
 -10.636 -0.569E-03 -0.569E-03
 -10.626 -0.608E-03 -0.608E-03
 -10.616 -0.647E-03 -0.647E-03
 -10.606 -0.688E-03 -0.688E-03
 -10.596 -0.731E-03 -0.731E-03
 -10.586 -0.774E-03 -0.774E-03
 -10.576 -0.819E-03 -0.819E-03
 -10.566 -0.865E-03 -0.865E-03
 -10.556 -0.912E-03 -0.912E-03
 -10.546 -0.960E-03 -0.960E-03
 -10.536 -0.101E-02 -0.101E-02
 -10.526 -0.106E-02 -0.106E-02
 -10.516 -0.111E-02 -0.111E-02
 -10.506 -0.117E-02 -0.117E-02
 -10.496 -0.122E-02 -0.122E-02
 -10.486 -0.128E-02 -0.128E-02
 -10.476 -0.133E-02 -0.133E-02
 -10.466 -0.139E-02 -0.139E-02
 -10.456 -0.145E-02 -0.145E-02
 -10.446 -0.151E-02 -0.151E-02
 -10.436 -0.157E-02 -0.157E-02
 -10.426 -0.163E-02 -0.163E-02
 -10.416 -0.169E-02 -0.169E-02
 -10.406 -0.176E-02 -0.176E-02
 -10.396 -0.182E-02 -0.182E-02
 -10.386 -0.189E-02 -0.189E-02
 -10.376 -0.195E-02 -0.195E-02
 -10.366 -0.202E-02 -0.202E-02
 -10.356 -0.208E-02 -0.208E-02
 -10.346 -0.215E-02 -0.215E-02
 -10.336 -0.222E-02 -0.222E-02
 -10.326 -0.228E-02 -0.228E-02
 -10.316 -0.235E-02 -0.235E-02
 -10.306 -0.242E-02 -0.242E-02
 -10.296 -0.248E-02 -0.248E-02
 -10.286 -0.255E-02 -0.255E-02
 -10.276 -0.261E-02 -0.261E-02
 -10.266 -0.268E-02 -0.268E-02
 -10.256 -0.274E-02 -0.274E-02
 -10.246 -0.280E-02 -0.280E-02
 -10.236 -0.286E-02 -0.286E-02
 -10.226 -0.292E-02 -0.292E-02
 -10.216 -0.298E-02 -0.298E-02
 -10.206 -0.303E-02 -0.303E-02
 -10.196 -0.309E-02 -0.309E-02
 -10.186 -0.313E-02 -0.313E-02
 -10.176 -0.318E-02 -0.318E-02
 -10.166 -0.322E-02 -0.322E-02
 -10.156 -0.326E-02 -0.326E-02
 -10.146 -0.330E-02 -0.330E-02
 -10.136 -0.333E-02 -0.333E-02
 -10.126 -0.335E-02 -0.335E-02
 -10.116 -0.338E-02 -0.338E-02
 -10.106 -0.339E-02 -0.339E-02
 -10.096 -0.340E-02 -0.340E-02
 -10.086 -0.341E-02 -0.341E-02
 -10.076 -0.340E-02 -0.340E-02
 -10.066 -0.339E-02 -0.339E-02
 -10.056 -0.338E-02 -0.338E-02
 -10.046 -0.335E-02 -0.335E-02
 -10.036 -0.332E-02 -0.332E-02
 -10.026 -0.328E-02 -0.328E-02
 -10.016 -0.323E-02 -0.323E-02
 -10.006 -0.317E-02 -0.317E-02
  -9.996 -0.310E-02 -0.310E-02
  -9.986 -0.302E-02 -0.302E-02
  -9.976 -0.293E-02 -0.293E-02
  -9.966 -0.282E-02 -0.282E-02
  -9.956 -0.271E-02 -0.271E-02
  -9.946 -0.258E-02 -0.258E-02
  -9.936 -0.244E-02 -0.244E-02
  -9.926 -0.229E-02 -0.229E-02
  -9.916 -0.212E-02 -0.212E-02
  -9.906 -0.193E-02 -0.193E-02
  -9.896 -0.174E-02 -0.174E-02
  -9.886 -0.152E-02 -0.152E-02
  -9.876 -0.130E-02 -0.130E-02
  -9.866 -0.105E-02 -0.105E-02
  -9.856 -0.788E-03 -0.788E-03
  -9.846 -0.508E-03 -0.508E-03
  -9.836 -0.211E-03 -0.211E-03
  -9.826  0.105E-03  0.105E-03
  -9.816  0.439E-03  0.439E-03
  -9.806  0.793E-03  0.793E-03
  -9.796  0.117E-02  0.117E-02
  -9.786  0.156E-02  0.156E-02
  -9.776  0.197E-02  0.197E-02
  -9.766  0.241E-02  0.241E-02
  -9.756  0.286E-02  0.286E-02
  -9.746  0.334E-02  0.334E-02
  -9.736  0.383E-02  0.383E-02
  -9.726  0.435E-02  0.435E-02
  -9.716  0.490E-02  0.490E-02
  -9.706  0.546E-02  0.546E-02
  -9.696  0.605E-02  0.605E-02
  -9.686  0.665E-02  0.665E-02
  -9.676  0.729E-02  0.729E-02
  -9.666  0.794E-02  0.794E-02
  -9.656  0.862E-02  0.862E-02
  -9.646  0.932E-02  0.932E-02
  -9.636  0.100E-01  0.100E-01
  -9.626  0.108E-01  0.108E-01
  -9.616  0.116E-01  0.116E-01
  -9.606  0.124E-01  0.124E-01
  -9.596  0.132E-01  0.132E-01
  -9.586  0.140E-01  0.140E-01
  -9.576  0.149E-01  0.149E-01
  -9.566  0.157E-01  0.157E-01
  -9.556  0.166E-01  0.166E-01
  -9.546  0.176E-01  0.176E-01
  -9.536  0.185E-01  0.185E-01
  -9.526  0.195E-01  0.195E-01
  -9.516  0.205E-01  0.205E-01
  -9.506  0.215E-01  0.215E-01
  -9.496  0.225E-01  0.225E-01
  -9.486  0.235E-01  0.235E-01
  -9.476  0.246E-01  0.246E-01
  -9.466  0.257E-01  0.257E-01
  -9.456  0.268E-01  0.268E-01
  -9.446  0.279E-01  0.279E-01
  -9.436  0.290E-01  0.290E-01
  -9.426  0.301E-01  0.301E-01
  -9.416  0.313E-01  0.313E-01
  -9.406  0.325E-01  0.325E-01
  -9.396  0.336E-01  0.336E-01
  -9.386  0.348E-01  0.348E-01
  -9.376  0.360E-01  0.360E-01
  -9.366  0.372E-01  0.372E-01
  -9.356  0.384E-01  0.384E-01
  -9.346  0.397E-01  0.397E-01
  -9.336  0.409E-01  0.409E-01
  -9.326  0.421E-01  0.421E-01
  -9.316  0.434E-01  0.434E-01
  -9.306  0.446E-01  0.446E-01
  -9.296  0.458E-01  0.458E-01
  -9.286  0.471E-01  0.471E-01
  -9.276  0.483E-01  0.483E-01
  -9.266  0.496E-01  0.496E-01
  -9.256  0.508E-01  0.508E-01
  -9.246  0.520E-01  0.520E-01
  -9.236  0.532E-01  0.532E-01
  -9.226  0.545E-01  0.545E-01
  -9.216  0.557E-01  0.557E-01
  -9.206  0.569E-01  0.569E-01
  -9.196  0.581E-01  0.581E-01
  -9.186  0.593E-01  0.593E-01
  -9.176  0.604E-01  0.604E-01
  -9.166  0.616E-01  0.616E-01
  -9.156  0.627E-01  0.627E-01
  -9.146  0.639E-01  0.639E-01
  -9.136  0.650E-01  0.650E-01
  -9.126  0.661E-01  0.661E-01
  -9.116  0.672E-01  0.672E-01
  -9.106  0.683E-01  0.683E-01
  -9.096  0.693E-01  0.693E-01
  -9.086  0.703E-01  0.703E-01
  -9.076  0.714E-01  0.714E-01
  -9.066  0.723E-01  0.723E-01
  -9.056  0.733E-01  0.733E-01
  -9.046  0.743E-01  0.743E-01
  -9.036  0.752E-01  0.752E-01
  -9.026  0.761E-01  0.761E-01
  -9.016  0.770E-01  0.770E-01
  -9.006  0.778E-01  0.778E-01
  -8.996  0.787E-01  0.787E-01
  -8.986  0.795E-01  0.795E-01
  -8.976  0.803E-01  0.803E-01
  -8.966  0.810E-01  0.810E-01
  -8.956  0.817E-01  0.817E-01
  -8.946  0.824E-01  0.824E-01
  -8.936  0.831E-01  0.831E-01
  -8.926  0.838E-01  0.838E-01
  -8.916  0.844E-01  0.844E-01
  -8.906  0.850E-01  0.850E-01
  -8.896  0.856E-01  0.856E-01
  -8.886  0.861E-01  0.861E-01
  -8.876  0.866E-01  0.866E-01
  -8.866  0.871E-01  0.871E-01
  -8.856  0.876E-01  0.876E-01
  -8.846  0.880E-01  0.880E-01
  -8.836  0.884E-01  0.884E-01
  -8.826  0.888E-01  0.888E-01
  -8.816  0.892E-01  0.892E-01
  -8.806  0.895E-01  0.895E-01
  -8.796  0.898E-01  0.898E-01
  -8.786  0.901E-01  0.901E-01
  -8.776  0.904E-01  0.904E-01
  -8.766  0.906E-01  0.906E-01
  -8.756  0.908E-01  0.908E-01
  -8.746  0.910E-01  0.910E-01
  -8.736  0.912E-01  0.912E-01
  -8.726  0.913E-01  0.913E-01
  -8.716  0.914E-01  0.914E-01
  -8.706  0.915E-01  0.915E-01
  -8.696  0.916E-01  0.916E-01
  -8.686  0.916E-01  0.916E-01
  -8.676  0.917E-01  0.917E-01
  -8.666  0.917E-01  0.917E-01
  -8.656  0.916E-01  0.916E-01
  -8.646  0.916E-01  0.916E-01
  -8.636  0.915E-01  0.915E-01
  -8.626  0.914E-01  0.914E-01
  -8.616  0.913E-01  0.913E-01
  -8.606  0.912E-01  0.912E-01
  -8.596  0.911E-01  0.911E-01
  -8.586  0.909E-01  0.909E-01
  -8.576  0.907E-01  0.907E-01
  -8.566  0.905E-01  0.905E-01
  -8.556  0.903E-01  0.903E-01
  -8.546  0.900E-01  0.900E-01
  -8.536  0.898E-01  0.898E-01
  -8.526  0.895E-01  0.895E-01
  -8.516  0.892E-01  0.892E-01
  -8.506  0.889E-01  0.889E-01
  -8.496  0.885E-01  0.885E-01
  -8.486  0.882E-01  0.882E-01
  -8.476  0.878E-01  0.878E-01
  -8.466  0.874E-01  0.874E-01
  -8.456  0.870E-01  0.870E-01
  -8.446  0.866E-01  0.866E-01
  -8.436  0.861E-01  0.861E-01
  -8.426  0.857E-01  0.857E-01
  -8.416  0.852E-01  0.852E-01
  -8.406  0.847E-01  0.847E-01
  -8.396  0.842E-01  0.842E-01
  -8.386  0.837E-01  0.837E-01
  -8.376  0.832E-01  0.832E-01
  -8.366  0.826E-01  0.826E-01
  -8.356  0.821E-01  0.821E-01
  -8.346  0.815E-01  0.815E-01
  -8.336  0.809E-01  0.809E-01
  -8.326  0.803E-01  0.803E-01
  -8.316  0.797E-01  0.797E-01
  -8.306  0.791E-01  0.791E-01
  -8.296  0.784E-01  0.784E-01
  -8.286  0.778E-01  0.778E-01
  -8.276  0.771E-01  0.771E-01
  -8.266  0.765E-01  0.765E-01
  -8.256  0.758E-01  0.758E-01
  -8.246  0.751E-01  0.751E-01
  -8.236  0.745E-01  0.745E-01
  -8.226  0.738E-01  0.738E-01
  -8.216  0.731E-01  0.731E-01
  -8.206  0.724E-01  0.724E-01
  -8.196  0.717E-01  0.717E-01
  -8.186  0.710E-01  0.710E-01
  -8.176  0.703E-01  0.703E-01
  -8.166  0.696E-01  0.696E-01
  -8.156  0.689E-01  0.689E-01
  -8.146  0.682E-01  0.682E-01
  -8.136  0.675E-01  0.675E-01
  -8.126  0.668E-01  0.668E-01
  -8.116  0.661E-01  0.661E-01
  -8.106  0.654E-01  0.654E-01
  -8.096  0.647E-01  0.647E-01
  -8.086  0.641E-01  0.641E-01
  -8.076  0.634E-01  0.634E-01
  -8.066  0.628E-01  0.628E-01
  -8.056  0.621E-01  0.621E-01
  -8.046  0.615E-01  0.615E-01
  -8.036  0.609E-01  0.609E-01
  -8.026  0.603E-01  0.603E-01
  -8.016  0.598E-01  0.598E-01
  -8.006  0.592E-01  0.592E-01
  -7.996  0.587E-01  0.587E-01
  -7.986  0.582E-01  0.582E-01
  -7.976  0.577E-01  0.577E-01
  -7.966  0.572E-01  0.572E-01
  -7.956  0.568E-01  0.568E-01
  -7.946  0.564E-01  0.564E-01
  -7.936  0.560E-01  0.560E-01
  -7.926  0.557E-01  0.557E-01
  -7.916  0.553E-01  0.553E-01
  -7.906  0.551E-01  0.551E-01
  -7.896  0.548E-01  0.548E-01
  -7.886  0.546E-01  0.546E-01
  -7.876  0.544E-01  0.544E-01
  -7.866  0.542E-01  0.542E-01
  -7.856  0.541E-01  0.541E-01
  -7.846  0.540E-01  0.540E-01
  -7.836  0.539E-01  0.539E-01
  -7.826  0.539E-01  0.539E-01
  -7.816  0.539E-01  0.539E-01
  -7.806  0.540E-01  0.540E-01
  -7.796  0.541E-01  0.541E-01
  -7.786  0.542E-01  0.542E-01
  -7.776  0.544E-01  0.544E-01
  -7.766  0.546E-01  0.546E-01
  -7.756  0.548E-01  0.548E-01
  -7.746  0.551E-01  0.551E-01
  -7.736  0.554E-01  0.554E-01
  -7.726  0.558E-01  0.558E-01
  -7.716  0.562E-01  0.562E-01
  -7.706  0.566E-01  0.566E-01
  -7.696  0.570E-01  0.570E-01
  -7.686  0.575E-01  0.575E-01
  -7.676  0.581E-01  0.581E-01
  -7.666  0.586E-01  0.586E-01
  -7.656  0.592E-01  0.592E-01
  -7.646  0.598E-01  0.598E-01
  -7.636  0.605E-01  0.605E-01
  -7.626  0.612E-01  0.612E-01
  -7.616  0.619E-01  0.619E-01
  -7.606  0.626E-01  0.626E-01
  -7.596  0.634E-01  0.634E-01
  -7.586  0.642E-01  0.642E-01
  -7.576  0.650E-01  0.650E-01
  -7.566  0.659E-01  0.659E-01
  -7.556  0.667E-01  0.667E-01
  -7.546  0.676E-01  0.676E-01
  -7.536  0.685E-01  0.685E-01
  -7.526  0.694E-01  0.694E-01
  -7.516  0.703E-01  0.703E-01
  -7.506  0.712E-01  0.712E-01
  -7.496  0.721E-01  0.721E-01
  -7.486  0.731E-01  0.731E-01
  -7.476  0.740E-01  0.740E-01
  -7.466  0.750E-01  0.750E-01
  -7.456  0.759E-01  0.759E-01
  -7.446  0.769E-01  0.769E-01
  -7.436  0.778E-01  0.778E-01
  -7.426  0.787E-01  0.787E-01
  -7.416  0.797E-01  0.797E-01
  -7.406  0.806E-01  0.806E-01
  -7.396  0.815E-01  0.815E-01
  -7.386  0.824E-01  0.824E-01
  -7.376  0.833E-01  0.833E-01
  -7.366  0.841E-01  0.841E-01
  -7.356  0.850E-01  0.850E-01
  -7.346  0.858E-01  0.858E-01
  -7.336  0.866E-01  0.866E-01
  -7.326  0.873E-01  0.873E-01
  -7.316  0.881E-01  0.881E-01
  -7.306  0.888E-01  0.888E-01
  -7.296  0.895E-01  0.895E-01
  -7.286  0.901E-01  0.901E-01
  -7.276  0.907E-01  0.907E-01
  -7.266  0.913E-01  0.913E-01
  -7.256  0.918E-01  0.918E-01
  -7.246  0.923E-01  0.923E-01
  -7.236  0.928E-01  0.928E-01
  -7.226  0.932E-01  0.932E-01
  -7.216  0.936E-01  0.936E-01
  -7.206  0.939E-01  0.939E-01
  -7.196  0.942E-01  0.942E-01
  -7.186  0.945E-01  0.945E-01
  -7.176  0.947E-01  0.947E-01
  -7.166  0.948E-01  0.948E-01
  -7.156  0.949E-01  0.949E-01
  -7.146  0.950E-01  0.950E-01
  -7.136  0.949E-01  0.949E-01
  -7.126  0.949E-01  0.949E-01
  -7.116  0.948E-01  0.948E-01
  -7.106  0.946E-01  0.946E-01
  -7.096  0.944E-01  0.944E-01
  -7.086  0.942E-01  0.942E-01
  -7.076  0.939E-01  0.939E-01
  -7.066  0.935E-01  0.935E-01
  -7.056  0.931E-01  0.931E-01
  -7.046  0.927E-01  0.927E-01
  -7.036  0.922E-01  0.922E-01
  -7.026  0.916E-01  0.916E-01
  -7.016  0.910E-01  0.910E-01
  -7.006  0.904E-01  0.904E-01
  -6.996  0.897E-01  0.897E-01
  -6.986  0.889E-01  0.889E-01
  -6.976  0.881E-01  0.881E-01
  -6.966  0.873E-01  0.873E-01
  -6.956  0.864E-01  0.864E-01
  -6.946  0.855E-01  0.855E-01
  -6.936  0.846E-01  0.846E-01
  -6.926  0.836E-01  0.836E-01
  -6.916  0.825E-01  0.825E-01
  -6.906  0.815E-01  0.815E-01
  -6.896  0.803E-01  0.803E-01
  -6.886  0.792E-01  0.792E-01
  -6.876  0.780E-01  0.780E-01
  -6.866  0.768E-01  0.768E-01
  -6.856  0.756E-01  0.756E-01
  -6.846  0.743E-01  0.743E-01
  -6.836  0.730E-01  0.730E-01
  -6.826  0.717E-01  0.717E-01
  -6.816  0.704E-01  0.704E-01
  -6.806  0.691E-01  0.691E-01
  -6.796  0.677E-01  0.677E-01
  -6.786  0.663E-01  0.663E-01
  -6.776  0.649E-01  0.649E-01
  -6.766  0.635E-01  0.635E-01
  -6.756  0.621E-01  0.621E-01
  -6.746  0.607E-01  0.607E-01
  -6.736  0.592E-01  0.592E-01
  -6.726  0.578E-01  0.578E-01
  -6.716  0.564E-01  0.564E-01
  -6.706  0.549E-01  0.549E-01
  -6.696  0.535E-01  0.535E-01
  -6.686  0.521E-01  0.521E-01
  -6.676  0.507E-01  0.507E-01
  -6.666  0.493E-01  0.493E-01
  -6.656  0.479E-01  0.479E-01
  -6.646  0.465E-01  0.465E-01
  -6.636  0.451E-01  0.451E-01
  -6.626  0.437E-01  0.437E-01
  -6.616  0.424E-01  0.424E-01
  -6.606  0.411E-01  0.411E-01
  -6.596  0.397E-01  0.397E-01
  -6.586  0.385E-01  0.385E-01
  -6.576  0.372E-01  0.372E-01
  -6.566  0.360E-01  0.360E-01
  -6.556  0.348E-01  0.348E-01
  -6.546  0.336E-01  0.336E-01
  -6.536  0.324E-01  0.324E-01
  -6.526  0.313E-01  0.313E-01
  -6.516  0.302E-01  0.302E-01
  -6.506  0.292E-01  0.292E-01
  -6.496  0.282E-01  0.282E-01
  -6.486  0.272E-01  0.272E-01
  -6.476  0.262E-01  0.262E-01
  -6.466  0.253E-01  0.253E-01
  -6.456  0.245E-01  0.245E-01
  -6.446  0.236E-01  0.236E-01
  -6.436  0.228E-01  0.228E-01
  -6.426  0.221E-01  0.221E-01
  -6.416  0.214E-01  0.214E-01
  -6.406  0.207E-01  0.207E-01
  -6.396  0.201E-01  0.201E-01
  -6.386  0.195E-01  0.195E-01
  -6.376  0.189E-01  0.189E-01
  -6.366  0.184E-01  0.184E-01
  -6.356  0.180E-01  0.180E-01
  -6.346  0.175E-01  0.175E-01
  -6.336  0.172E-01  0.172E-01
  -6.326  0.168E-01  0.168E-01
  -6.316  0.165E-01  0.165E-01
  -6.306  0.163E-01  0.163E-01
  -6.296  0.160E-01  0.160E-01
  -6.286  0.159E-01  0.159E-01
  -6.276  0.157E-01  0.157E-01
  -6.266  0.156E-01  0.156E-01
  -6.256  0.156E-01  0.156E-01
  -6.246  0.156E-01  0.156E-01
  -6.236  0.156E-01  0.156E-01
  -6.226  0.156E-01  0.156E-01
  -6.216  0.157E-01  0.157E-01
  -6.206  0.159E-01  0.159E-01
  -6.196  0.160E-01  0.160E-01
  -6.186  0.162E-01  0.162E-01
  -6.176  0.164E-01  0.164E-01
  -6.166  0.167E-01  0.167E-01
  -6.156  0.170E-01  0.170E-01
  -6.146  0.173E-01  0.173E-01
  -6.136  0.176E-01  0.176E-01
  -6.126  0.180E-01  0.180E-01
  -6.116  0.184E-01  0.184E-01
  -6.106  0.188E-01  0.188E-01
  -6.096  0.192E-01  0.192E-01
  -6.086  0.197E-01  0.197E-01
  -6.076  0.202E-01  0.202E-01
  -6.066  0.207E-01  0.207E-01
  -6.056  0.212E-01  0.212E-01
  -6.046  0.217E-01  0.217E-01
  -6.036  0.222E-01  0.222E-01
  -6.026  0.228E-01  0.228E-01
  -6.016  0.234E-01  0.234E-01
  -6.006  0.239E-01  0.239E-01
  -5.996  0.245E-01  0.245E-01
  -5.986  0.251E-01  0.251E-01
  -5.976  0.257E-01  0.257E-01
  -5.966  0.263E-01  0.263E-01
  -5.956  0.269E-01  0.269E-01
  -5.946  0.275E-01  0.275E-01
  -5.936  0.282E-01  0.282E-01
  -5.926  0.288E-01  0.288E-01
  -5.916  0.294E-01  0.294E-01
  -5.906  0.300E-01  0.300E-01
  -5.896  0.306E-01  0.306E-01
  -5.886  0.312E-01  0.312E-01
  -5.876  0.318E-01  0.318E-01
  -5.866  0.324E-01  0.324E-01
  -5.856  0.329E-01  0.329E-01
  -5.846  0.335E-01  0.335E-01
  -5.836  0.341E-01  0.341E-01
  -5.826  0.346E-01  0.346E-01
  -5.816  0.351E-01  0.351E-01
  -5.806  0.357E-01  0.357E-01
  -5.796  0.362E-01  0.362E-01
  -5.786  0.367E-01  0.367E-01
  -5.776  0.371E-01  0.371E-01
  -5.766  0.376E-01  0.376E-01
  -5.756  0.381E-01  0.381E-01
  -5.746  0.385E-01  0.385E-01
  -5.736  0.389E-01  0.389E-01
  -5.726  0.393E-01  0.393E-01
  -5.716  0.397E-01  0.397E-01
  -5.706  0.401E-01  0.401E-01
  -5.696  0.404E-01  0.404E-01
  -5.686  0.408E-01  0.408E-01
  -5.676  0.411E-01  0.411E-01
  -5.666  0.414E-01  0.414E-01
  -5.656  0.416E-01  0.416E-01
  -5.646  0.419E-01  0.419E-01
  -5.636  0.421E-01  0.421E-01
  -5.626  0.424E-01  0.424E-01
  -5.616  0.426E-01  0.426E-01
  -5.606  0.427E-01  0.427E-01
  -5.596  0.429E-01  0.429E-01
  -5.586  0.431E-01  0.431E-01
  -5.576  0.432E-01  0.432E-01
  -5.566  0.433E-01  0.433E-01
  -5.556  0.434E-01  0.434E-01
  -5.546  0.435E-01  0.435E-01
  -5.536  0.436E-01  0.436E-01
  -5.526  0.436E-01  0.436E-01
  -5.516  0.437E-01  0.437E-01
  -5.506  0.437E-01  0.437E-01
  -5.496  0.437E-01  0.437E-01
  -5.486  0.437E-01  0.437E-01
  -5.476  0.437E-01  0.437E-01
  -5.466  0.437E-01  0.437E-01
  -5.456  0.437E-01  0.437E-01
  -5.446  0.436E-01  0.436E-01
  -5.436  0.436E-01  0.436E-01
  -5.426  0.435E-01  0.435E-01
  -5.416  0.434E-01  0.434E-01
  -5.406  0.433E-01  0.433E-01
  -5.396  0.433E-01  0.433E-01
  -5.386  0.432E-01  0.432E-01
  -5.376  0.431E-01  0.431E-01
  -5.366  0.430E-01  0.430E-01
  -5.356  0.428E-01  0.428E-01
  -5.346  0.427E-01  0.427E-01
  -5.336  0.426E-01  0.426E-01
  -5.326  0.425E-01  0.425E-01
  -5.316  0.424E-01  0.424E-01
  -5.306  0.423E-01  0.423E-01
  -5.296  0.421E-01  0.421E-01
  -5.286  0.420E-01  0.420E-01
  -5.276  0.419E-01  0.419E-01
  -5.266  0.418E-01  0.418E-01
  -5.256  0.417E-01  0.417E-01
  -5.246  0.415E-01  0.415E-01
  -5.236  0.414E-01  0.414E-01
  -5.226  0.413E-01  0.413E-01
  -5.216  0.412E-01  0.412E-01
  -5.206  0.411E-01  0.411E-01
  -5.196  0.410E-01  0.410E-01
  -5.186  0.409E-01  0.409E-01
  -5.176  0.409E-01  0.409E-01
  -5.166  0.408E-01  0.408E-01
  -5.156  0.407E-01  0.407E-01
  -5.146  0.406E-01  0.406E-01
  -5.136  0.406E-01  0.406E-01
  -5.126  0.405E-01  0.405E-01
  -5.116  0.405E-01  0.405E-01
  -5.106  0.405E-01  0.405E-01
  -5.096  0.404E-01  0.404E-01
  -5.086  0.404E-01  0.404E-01
  -5.076  0.404E-01  0.404E-01
  -5.066  0.404E-01  0.404E-01
  -5.056  0.405E-01  0.405E-01
  -5.046  0.405E-01  0.405E-01
  -5.036  0.405E-01  0.405E-01
  -5.026  0.406E-01  0.406E-01
  -5.016  0.406E-01  0.406E-01
  -5.006  0.407E-01  0.407E-01
  -4.996  0.408E-01  0.408E-01
  -4.986  0.409E-01  0.409E-01
  -4.976  0.410E-01  0.410E-01
  -4.966  0.411E-01  0.411E-01
  -4.956  0.412E-01  0.412E-01
  -4.946  0.413E-01  0.413E-01
  -4.936  0.415E-01  0.415E-01
  -4.926  0.417E-01  0.417E-01
  -4.916  0.418E-01  0.418E-01
  -4.906  0.420E-01  0.420E-01
  -4.896  0.422E-01  0.422E-01
  -4.886  0.424E-01  0.424E-01
  -4.876  0.427E-01  0.427E-01
  -4.866  0.429E-01  0.429E-01
  -4.856  0.431E-01  0.431E-01
  -4.846  0.434E-01  0.434E-01
  -4.836  0.437E-01  0.437E-01
  -4.826  0.440E-01  0.440E-01
  -4.816  0.443E-01  0.443E-01
  -4.806  0.446E-01  0.446E-01
  -4.796  0.449E-01  0.449E-01
  -4.786  0.453E-01  0.453E-01
  -4.776  0.456E-01  0.456E-01
  -4.766  0.460E-01  0.460E-01
  -4.756  0.463E-01  0.463E-01
  -4.746  0.467E-01  0.467E-01
  -4.736  0.471E-01  0.471E-01
  -4.726  0.476E-01  0.476E-01
  -4.716  0.480E-01  0.480E-01
  -4.706  0.484E-01  0.484E-01
  -4.696  0.489E-01  0.489E-01
  -4.686  0.493E-01  0.493E-01
  -4.676  0.498E-01  0.498E-01
  -4.666  0.503E-01  0.503E-01
  -4.656  0.508E-01  0.508E-01
  -4.646  0.513E-01  0.513E-01
  -4.636  0.518E-01  0.518E-01
  -4.626  0.524E-01  0.524E-01
  -4.616  0.529E-01  0.529E-01
  -4.606  0.535E-01  0.535E-01
  -4.596  0.540E-01  0.540E-01
  -4.586  0.546E-01  0.546E-01
  -4.576  0.552E-01  0.552E-01
  -4.566  0.558E-01  0.558E-01
  -4.556  0.564E-01  0.564E-01
  -4.546  0.570E-01  0.570E-01
  -4.536  0.577E-01  0.577E-01
  -4.526  0.583E-01  0.583E-01
  -4.516  0.589E-01  0.589E-01
  -4.506  0.596E-01  0.596E-01
  -4.496  0.603E-01  0.603E-01
  -4.486  0.609E-01  0.609E-01
  -4.476  0.616E-01  0.616E-01
  -4.466  0.623E-01  0.623E-01
  -4.456  0.630E-01  0.630E-01
  -4.446  0.637E-01  0.637E-01
  -4.436  0.643E-01  0.643E-01
  -4.426  0.650E-01  0.650E-01
  -4.416  0.658E-01  0.658E-01
  -4.406  0.665E-01  0.665E-01
  -4.396  0.672E-01  0.672E-01
  -4.386  0.679E-01  0.679E-01
  -4.376  0.686E-01  0.686E-01
  -4.366  0.693E-01  0.693E-01
  -4.356  0.700E-01  0.700E-01
  -4.346  0.708E-01  0.708E-01
  -4.336  0.715E-01  0.715E-01
  -4.326  0.722E-01  0.722E-01
  -4.316  0.729E-01  0.729E-01
  -4.306  0.736E-01  0.736E-01
  -4.296  0.743E-01  0.743E-01
  -4.286  0.750E-01  0.750E-01
  -4.276  0.757E-01  0.757E-01
  -4.266  0.764E-01  0.764E-01
  -4.256  0.771E-01  0.771E-01
  -4.246  0.778E-01  0.778E-01
  -4.236  0.785E-01  0.785E-01
  -4.226  0.792E-01  0.792E-01
  -4.216  0.798E-01  0.798E-01
  -4.206  0.805E-01  0.805E-01
  -4.196  0.812E-01  0.812E-01
  -4.186  0.818E-01  0.818E-01
  -4.176  0.824E-01  0.824E-01
  -4.166  0.831E-01  0.831E-01
  -4.156  0.837E-01  0.837E-01
  -4.146  0.843E-01  0.843E-01
  -4.136  0.849E-01  0.849E-01
  -4.126  0.854E-01  0.854E-01
  -4.116  0.860E-01  0.860E-01
  -4.106  0.866E-01  0.866E-01
  -4.096  0.871E-01  0.871E-01
  -4.086  0.876E-01  0.876E-01
  -4.076  0.882E-01  0.882E-01
  -4.066  0.887E-01  0.887E-01
  -4.056  0.892E-01  0.892E-01
  -4.046  0.896E-01  0.896E-01
  -4.036  0.901E-01  0.901E-01
  -4.026  0.905E-01  0.905E-01
  -4.016  0.910E-01  0.910E-01
  -4.006  0.914E-01  0.914E-01
  -3.996  0.918E-01  0.918E-01
  -3.986  0.922E-01  0.922E-01
  -3.976  0.925E-01  0.925E-01
  -3.966  0.929E-01  0.929E-01
  -3.956  0.932E-01  0.932E-01
  -3.946  0.935E-01  0.935E-01
  -3.936  0.938E-01  0.938E-01
  -3.926  0.941E-01  0.941E-01
  -3.916  0.944E-01  0.944E-01
  -3.906  0.947E-01  0.947E-01
  -3.896  0.949E-01  0.949E-01
  -3.886  0.951E-01  0.951E-01
  -3.876  0.954E-01  0.954E-01
  -3.866  0.956E-01  0.956E-01
  -3.856  0.957E-01  0.957E-01
  -3.846  0.959E-01  0.959E-01
  -3.836  0.961E-01  0.961E-01
  -3.826  0.962E-01  0.962E-01
  -3.816  0.963E-01  0.963E-01
  -3.806  0.965E-01  0.965E-01
  -3.796  0.966E-01  0.966E-01
  -3.786  0.966E-01  0.966E-01
  -3.776  0.967E-01  0.967E-01
  -3.766  0.968E-01  0.968E-01
  -3.756  0.968E-01  0.968E-01
  -3.746  0.969E-01  0.969E-01
  -3.736  0.969E-01  0.969E-01
  -3.726  0.969E-01  0.969E-01
  -3.716  0.969E-01  0.969E-01
  -3.706  0.969E-01  0.969E-01
  -3.696  0.968E-01  0.968E-01
  -3.686  0.968E-01  0.968E-01
  -3.676  0.968E-01  0.968E-01
  -3.666  0.967E-01  0.967E-01
  -3.656  0.966E-01  0.966E-01
  -3.646  0.966E-01  0.966E-01
  -3.636  0.965E-01  0.965E-01
  -3.626  0.964E-01  0.964E-01
  -3.616  0.963E-01  0.963E-01
  -3.606  0.962E-01  0.962E-01
  -3.596  0.960E-01  0.960E-01
  -3.586  0.959E-01  0.959E-01
  -3.576  0.958E-01  0.958E-01
  -3.566  0.956E-01  0.956E-01
  -3.556  0.954E-01  0.954E-01
  -3.546  0.953E-01  0.953E-01
  -3.536  0.951E-01  0.951E-01
  -3.526  0.949E-01  0.949E-01
  -3.516  0.947E-01  0.947E-01
  -3.506  0.945E-01  0.945E-01
  -3.496  0.943E-01  0.943E-01
  -3.486  0.941E-01  0.941E-01
  -3.476  0.939E-01  0.939E-01
  -3.466  0.937E-01  0.937E-01
  -3.456  0.934E-01  0.934E-01
  -3.446  0.932E-01  0.932E-01
  -3.436  0.930E-01  0.930E-01
  -3.426  0.927E-01  0.927E-01
  -3.416  0.925E-01  0.925E-01
  -3.406  0.922E-01  0.922E-01
  -3.396  0.919E-01  0.919E-01
  -3.386  0.916E-01  0.916E-01
  -3.376  0.914E-01  0.914E-01
  -3.366  0.911E-01  0.911E-01
  -3.356  0.908E-01  0.908E-01
  -3.346  0.905E-01  0.905E-01
  -3.336  0.902E-01  0.902E-01
  -3.326  0.899E-01  0.899E-01
  -3.316  0.896E-01  0.896E-01
  -3.306  0.893E-01  0.893E-01
  -3.296  0.890E-01  0.890E-01
  -3.286  0.886E-01  0.886E-01
  -3.276  0.883E-01  0.883E-01
  -3.266  0.880E-01  0.880E-01
  -3.256  0.877E-01  0.877E-01
  -3.246  0.873E-01  0.873E-01
  -3.236  0.870E-01  0.870E-01
  -3.226  0.867E-01  0.867E-01
  -3.216  0.863E-01  0.863E-01
  -3.206  0.860E-01  0.860E-01
  -3.196  0.856E-01  0.856E-01
  -3.186  0.853E-01  0.853E-01
  -3.176  0.850E-01  0.850E-01
  -3.166  0.846E-01  0.846E-01
  -3.156  0.843E-01  0.843E-01
  -3.146  0.840E-01  0.840E-01
  -3.136  0.837E-01  0.837E-01
  -3.126  0.833E-01  0.833E-01
  -3.116  0.830E-01  0.830E-01
  -3.106  0.827E-01  0.827E-01
  -3.096  0.824E-01  0.824E-01
  -3.086  0.821E-01  0.821E-01
  -3.076  0.818E-01  0.818E-01
  -3.066  0.816E-01  0.816E-01
  -3.056  0.813E-01  0.813E-01
  -3.046  0.810E-01  0.810E-01
  -3.036  0.808E-01  0.808E-01
  -3.026  0.806E-01  0.806E-01
  -3.016  0.803E-01  0.803E-01
  -3.006  0.801E-01  0.801E-01
  -2.996  0.800E-01  0.800E-01
  -2.986  0.798E-01  0.798E-01
  -2.976  0.796E-01  0.796E-01
  -2.966  0.795E-01  0.795E-01
  -2.956  0.794E-01  0.794E-01
  -2.946  0.793E-01  0.793E-01
  -2.936  0.792E-01  0.792E-01
  -2.926  0.792E-01  0.792E-01
  -2.916  0.792E-01  0.792E-01
  -2.906  0.792E-01  0.792E-01
  -2.896  0.792E-01  0.792E-01
  -2.886  0.792E-01  0.792E-01
  -2.876  0.793E-01  0.793E-01
  -2.866  0.794E-01  0.794E-01
  -2.856  0.796E-01  0.796E-01
  -2.846  0.797E-01  0.797E-01
  -2.836  0.800E-01  0.800E-01
  -2.826  0.802E-01  0.802E-01
  -2.816  0.805E-01  0.805E-01
  -2.806  0.808E-01  0.808E-01
  -2.796  0.811E-01  0.811E-01
  -2.786  0.815E-01  0.815E-01
  -2.776  0.819E-01  0.819E-01
  -2.766  0.823E-01  0.823E-01
  -2.756  0.828E-01  0.828E-01
  -2.746  0.833E-01  0.833E-01
  -2.736  0.839E-01  0.839E-01
  -2.726  0.845E-01  0.845E-01
  -2.716  0.851E-01  0.851E-01
  -2.706  0.858E-01  0.858E-01
  -2.696  0.865E-01  0.865E-01
  -2.686  0.872E-01  0.872E-01
  -2.676  0.880E-01  0.880E-01
  -2.666  0.888E-01  0.888E-01
  -2.656  0.896E-01  0.896E-01
  -2.646  0.905E-01  0.905E-01
  -2.636  0.915E-01  0.915E-01
  -2.626  0.924E-01  0.924E-01
  -2.616  0.934E-01  0.934E-01
  -2.606  0.944E-01  0.944E-01
  -2.596  0.955E-01  0.955E-01
  -2.586  0.966E-01  0.966E-01
  -2.576  0.977E-01  0.977E-01
  -2.566  0.988E-01  0.988E-01
  -2.556  0.100E+00  0.100E+00
  -2.546  0.101E+00  0.101E+00
  -2.536  0.102E+00  0.102E+00
  -2.526  0.104E+00  0.104E+00
  -2.516  0.105E+00  0.105E+00
  -2.506  0.106E+00  0.106E+00
  -2.496  0.108E+00  0.108E+00
  -2.486  0.109E+00  0.109E+00
  -2.476  0.110E+00  0.110E+00
  -2.466  0.112E+00  0.112E+00
  -2.456  0.113E+00  0.113E+00
  -2.446  0.114E+00  0.114E+00
  -2.436  0.116E+00  0.116E+00
  -2.426  0.117E+00  0.117E+00
  -2.416  0.119E+00  0.119E+00
  -2.406  0.120E+00  0.120E+00
  -2.396  0.121E+00  0.121E+00
  -2.386  0.123E+00  0.123E+00
  -2.376  0.124E+00  0.124E+00
  -2.366  0.125E+00  0.125E+00
  -2.356  0.127E+00  0.127E+00
  -2.346  0.128E+00  0.128E+00
  -2.336  0.129E+00  0.129E+00
  -2.326  0.131E+00  0.131E+00
  -2.316  0.132E+00  0.132E+00
  -2.306  0.133E+00  0.133E+00
  -2.296  0.135E+00  0.135E+00
  -2.286  0.136E+00  0.136E+00
  -2.276  0.137E+00  0.137E+00
  -2.266  0.138E+00  0.138E+00
  -2.256  0.139E+00  0.139E+00
  -2.246  0.140E+00  0.140E+00
  -2.236  0.141E+00  0.141E+00
  -2.226  0.142E+00  0.142E+00
  -2.216  0.143E+00  0.143E+00
  -2.206  0.144E+00  0.144E+00
  -2.196  0.145E+00  0.145E+00
  -2.186  0.146E+00  0.146E+00
  -2.176  0.146E+00  0.146E+00
  -2.166  0.147E+00  0.147E+00
  -2.156  0.148E+00  0.148E+00
  -2.146  0.148E+00  0.148E+00
  -2.136  0.149E+00  0.149E+00
  -2.126  0.149E+00  0.149E+00
  -2.116  0.150E+00  0.150E+00
  -2.106  0.150E+00  0.150E+00
  -2.096  0.150E+00  0.150E+00
  -2.086  0.151E+00  0.151E+00
  -2.076  0.151E+00  0.151E+00
  -2.066  0.151E+00  0.151E+00
  -2.056  0.151E+00  0.151E+00
  -2.046  0.151E+00  0.151E+00
  -2.036  0.151E+00  0.151E+00
  -2.026  0.151E+00  0.151E+00
  -2.016  0.150E+00  0.150E+00
  -2.006  0.150E+00  0.150E+00
  -1.996  0.150E+00  0.150E+00
  -1.986  0.149E+00  0.149E+00
  -1.976  0.149E+00  0.149E+00
  -1.966  0.148E+00  0.148E+00
  -1.956  0.148E+00  0.148E+00
  -1.946  0.147E+00  0.147E+00
  -1.936  0.146E+00  0.146E+00
  -1.926  0.145E+00  0.145E+00
  -1.916  0.145E+00  0.145E+00
  -1.906  0.144E+00  0.144E+00
  -1.896  0.143E+00  0.143E+00
  -1.886  0.142E+00  0.142E+00
  -1.876  0.141E+00  0.141E+00
  -1.866  0.139E+00  0.139E+00
  -1.856  0.138E+00  0.138E+00
  -1.846  0.137E+00  0.137E+00
  -1.836  0.136E+00  0.136E+00
  -1.826  0.134E+00  0.134E+00
  -1.816  0.133E+00  0.133E+00
  -1.806  0.132E+00  0.132E+00
  -1.796  0.130E+00  0.130E+00
  -1.786  0.129E+00  0.129E+00
  -1.776  0.127E+00  0.127E+00
  -1.766  0.126E+00  0.126E+00
  -1.756  0.124E+00  0.124E+00
  -1.746  0.123E+00  0.123E+00
  -1.736  0.121E+00  0.121E+00
  -1.726  0.119E+00  0.119E+00
  -1.716  0.118E+00  0.118E+00
  -1.706  0.116E+00  0.116E+00
  -1.696  0.114E+00  0.114E+00
  -1.686  0.113E+00  0.113E+00
  -1.676  0.111E+00  0.111E+00
  -1.666  0.109E+00  0.109E+00
  -1.656  0.107E+00  0.107E+00
  -1.646  0.106E+00  0.106E+00
  -1.636  0.104E+00  0.104E+00
  -1.626  0.102E+00  0.102E+00
  -1.616  0.100E+00  0.100E+00
  -1.606  0.987E-01  0.987E-01
  -1.596  0.970E-01  0.970E-01
  -1.586  0.952E-01  0.952E-01
  -1.576  0.935E-01  0.935E-01
  -1.566  0.918E-01  0.918E-01
  -1.556  0.901E-01  0.901E-01
  -1.546  0.884E-01  0.884E-01
  -1.536  0.867E-01  0.867E-01
  -1.526  0.851E-01  0.851E-01
  -1.516  0.834E-01  0.834E-01
  -1.506  0.818E-01  0.818E-01
  -1.496  0.802E-01  0.802E-01
  -1.486  0.786E-01  0.786E-01
  -1.476  0.771E-01  0.771E-01
  -1.466  0.755E-01  0.755E-01
  -1.456  0.740E-01  0.740E-01
  -1.446  0.725E-01  0.725E-01
  -1.436  0.711E-01  0.711E-01
  -1.426  0.696E-01  0.696E-01
  -1.416  0.682E-01  0.682E-01
  -1.406  0.669E-01  0.669E-01
  -1.396  0.655E-01  0.655E-01
  -1.386  0.642E-01  0.642E-01
  -1.376  0.629E-01  0.629E-01
  -1.366  0.617E-01  0.617E-01
  -1.356  0.604E-01  0.604E-01
  -1.346  0.592E-01  0.592E-01
  -1.336  0.581E-01  0.581E-01
  -1.326  0.569E-01  0.569E-01
  -1.316  0.558E-01  0.558E-01
  -1.306  0.547E-01  0.547E-01
  -1.296  0.537E-01  0.537E-01
  -1.286  0.527E-01  0.527E-01
  -1.276  0.517E-01  0.517E-01
  -1.266  0.507E-01  0.507E-01
  -1.256  0.498E-01  0.498E-01
  -1.246  0.488E-01  0.488E-01
  -1.236  0.480E-01  0.480E-01
  -1.226  0.471E-01  0.471E-01
  -1.216  0.463E-01  0.463E-01
  -1.206  0.454E-01  0.454E-01
  -1.196  0.447E-01  0.447E-01
  -1.186  0.439E-01  0.439E-01
  -1.176  0.432E-01  0.432E-01
  -1.166  0.424E-01  0.424E-01
  -1.156  0.417E-01  0.417E-01
  -1.146  0.411E-01  0.411E-01
  -1.136  0.404E-01  0.404E-01
  -1.126  0.398E-01  0.398E-01
  -1.116  0.391E-01  0.391E-01
  -1.106  0.385E-01  0.385E-01
  -1.096  0.380E-01  0.380E-01
  -1.086  0.374E-01  0.374E-01
  -1.076  0.368E-01  0.368E-01
  -1.066  0.363E-01  0.363E-01
  -1.056  0.358E-01  0.358E-01
  -1.046  0.352E-01  0.352E-01
  -1.036  0.347E-01  0.347E-01
  -1.026  0.342E-01  0.342E-01
  -1.016  0.338E-01  0.338E-01
  -1.006  0.333E-01  0.333E-01
  -0.996  0.328E-01  0.328E-01
  -0.986  0.324E-01  0.324E-01
  -0.976  0.319E-01  0.319E-01
  -0.966  0.315E-01  0.315E-01
  -0.956  0.311E-01  0.311E-01
  -0.946  0.306E-01  0.306E-01
  -0.936  0.302E-01  0.302E-01
  -0.926  0.298E-01  0.298E-01
  -0.916  0.294E-01  0.294E-01
  -0.906  0.290E-01  0.290E-01
  -0.896  0.286E-01  0.286E-01
  -0.886  0.282E-01  0.282E-01
  -0.876  0.278E-01  0.278E-01
  -0.866  0.275E-01  0.275E-01
  -0.856  0.271E-01  0.271E-01
  -0.846  0.267E-01  0.267E-01
  -0.836  0.263E-01  0.263E-01
  -0.826  0.260E-01  0.260E-01
  -0.816  0.256E-01  0.256E-01
  -0.806  0.253E-01  0.253E-01
  -0.796  0.249E-01  0.249E-01
  -0.786  0.246E-01  0.246E-01
  -0.776  0.242E-01  0.242E-01
  -0.766  0.239E-01  0.239E-01
  -0.756  0.236E-01  0.236E-01
  -0.746  0.233E-01  0.233E-01
  -0.736  0.230E-01  0.230E-01
  -0.726  0.227E-01  0.227E-01
  -0.716  0.224E-01  0.224E-01
  -0.706  0.221E-01  0.221E-01
  -0.696  0.218E-01  0.218E-01
  -0.686  0.215E-01  0.215E-01
  -0.676  0.213E-01  0.213E-01
  -0.666  0.210E-01  0.210E-01
  -0.656  0.208E-01  0.208E-01
  -0.646  0.205E-01  0.205E-01
  -0.636  0.203E-01  0.203E-01
  -0.626  0.201E-01  0.201E-01
  -0.616  0.199E-01  0.199E-01
  -0.606  0.197E-01  0.197E-01
  -0.596  0.196E-01  0.196E-01
  -0.586  0.194E-01  0.194E-01
  -0.576  0.193E-01  0.193E-01
  -0.566  0.192E-01  0.192E-01
  -0.556  0.191E-01  0.191E-01
  -0.546  0.190E-01  0.190E-01
  -0.536  0.189E-01  0.189E-01
  -0.526  0.189E-01  0.189E-01
  -0.516  0.189E-01  0.189E-01
  -0.506  0.188E-01  0.188E-01
  -0.496  0.189E-01  0.189E-01
  -0.486  0.189E-01  0.189E-01
  -0.476  0.189E-01  0.189E-01
  -0.466  0.190E-01  0.190E-01
  -0.456  0.191E-01  0.191E-01
  -0.446  0.192E-01  0.192E-01
  -0.436  0.194E-01  0.194E-01
  -0.426  0.196E-01  0.196E-01
  -0.416  0.197E-01  0.197E-01
  -0.406  0.200E-01  0.200E-01
  -0.396  0.202E-01  0.202E-01
  -0.386  0.205E-01  0.205E-01
  -0.376  0.207E-01  0.207E-01
  -0.366  0.211E-01  0.211E-01
  -0.356  0.214E-01  0.214E-01
  -0.346  0.217E-01  0.217E-01
  -0.336  0.221E-01  0.221E-01
  -0.326  0.225E-01  0.225E-01
  -0.316  0.230E-01  0.230E-01
  -0.306  0.234E-01  0.234E-01
  -0.296  0.239E-01  0.239E-01
  -0.286  0.244E-01  0.244E-01
  -0.276  0.249E-01  0.249E-01
  -0.266  0.255E-01  0.255E-01
  -0.256  0.261E-01  0.261E-01
  -0.246  0.266E-01  0.266E-01
  -0.236  0.273E-01  0.273E-01
  -0.226  0.279E-01  0.279E-01
  -0.216  0.285E-01  0.285E-01
  -0.206  0.292E-01  0.292E-01
  -0.196  0.299E-01  0.299E-01
  -0.186  0.306E-01  0.306E-01
  -0.176  0.313E-01  0.313E-01
  -0.166  0.321E-01  0.321E-01
  -0.156  0.328E-01  0.328E-01
  -0.146  0.336E-01  0.336E-01
  -0.136  0.344E-01  0.344E-01
  -0.126  0.352E-01  0.352E-01
  -0.116  0.360E-01  0.360E-01
  -0.106  0.368E-01  0.368E-01
  -0.096  0.376E-01  0.376E-01
  -0.086  0.384E-01  0.384E-01
  -0.076  0.393E-01  0.393E-01
  -0.066  0.401E-01  0.401E-01
  -0.056  0.409E-01  0.409E-01
  -0.046  0.418E-01  0.418E-01
  -0.036  0.426E-01  0.426E-01
  -0.026  0.435E-01  0.435E-01
  -0.016  0.443E-01  0.443E-01
  -0.006  0.452E-01  0.452E-01
   0.004  0.460E-01  0.460E-01
   0.014  0.469E-01  0.469E-01
   0.024  0.477E-01  0.477E-01
   0.034  0.485E-01  0.485E-01
   0.044  0.494E-01  0.494E-01
   0.054  0.502E-01  0.502E-01
   0.064  0.510E-01  0.510E-01
   0.074  0.518E-01  0.518E-01
   0.084  0.526E-01  0.526E-01
   0.094  0.533E-01  0.533E-01
   0.104  0.541E-01  0.541E-01
   0.114  0.548E-01  0.548E-01
   0.124  0.556E-01  0.556E-01
   0.134  0.563E-01  0.563E-01
   0.144  0.570E-01  0.570E-01
   0.154  0.577E-01  0.577E-01
   0.164  0.584E-01  0.584E-01
   0.174  0.590E-01  0.590E-01
   0.184  0.597E-01  0.597E-01
   0.194  0.603E-01  0.603E-01
   0.204  0.609E-01  0.609E-01
   0.214  0.615E-01  0.615E-01
   0.224  0.621E-01  0.621E-01
   0.234  0.626E-01  0.626E-01
   0.244  0.632E-01  0.632E-01
   0.254  0.637E-01  0.637E-01
   0.264  0.642E-01  0.642E-01
   0.274  0.647E-01  0.647E-01
   0.284  0.651E-01  0.651E-01
   0.294  0.656E-01  0.656E-01
   0.304  0.660E-01  0.660E-01
   0.314  0.665E-01  0.665E-01
   0.324  0.669E-01  0.669E-01
   0.334  0.673E-01  0.673E-01
   0.344  0.676E-01  0.676E-01
   0.354  0.680E-01  0.680E-01
   0.364  0.683E-01  0.683E-01
   0.374  0.687E-01  0.687E-01
   0.384  0.690E-01  0.690E-01
   0.394  0.693E-01  0.693E-01
   0.404  0.696E-01  0.696E-01
   0.414  0.699E-01  0.699E-01
   0.424  0.702E-01  0.702E-01
   0.434  0.705E-01  0.705E-01
   0.444  0.708E-01  0.708E-01
   0.454  0.710E-01  0.710E-01
   0.464  0.713E-01  0.713E-01
   0.474  0.716E-01  0.716E-01
   0.484  0.718E-01  0.718E-01
   0.494  0.721E-01  0.721E-01
   0.504  0.723E-01  0.723E-01
   0.514  0.726E-01  0.726E-01
   0.524  0.728E-01  0.728E-01
   0.534  0.731E-01  0.731E-01
   0.544  0.733E-01  0.733E-01
   0.554  0.736E-01  0.736E-01
   0.564  0.739E-01  0.739E-01
   0.574  0.741E-01  0.741E-01
   0.584  0.744E-01  0.744E-01
   0.594  0.747E-01  0.747E-01
   0.604  0.749E-01  0.749E-01
   0.614  0.752E-01  0.752E-01
   0.624  0.755E-01  0.755E-01
   0.634  0.758E-01  0.758E-01
   0.644  0.761E-01  0.761E-01
   0.654  0.764E-01  0.764E-01
   0.664  0.767E-01  0.767E-01
   0.674  0.771E-01  0.771E-01
   0.684  0.774E-01  0.774E-01
   0.694  0.777E-01  0.777E-01
   0.704  0.781E-01  0.781E-01
   0.714  0.784E-01  0.784E-01
   0.724  0.788E-01  0.788E-01
   0.734  0.792E-01  0.792E-01
   0.744  0.796E-01  0.796E-01
   0.754  0.799E-01  0.799E-01
   0.764  0.803E-01  0.803E-01
   0.774  0.807E-01  0.807E-01
   0.784  0.811E-01  0.811E-01
   0.794  0.815E-01  0.815E-01
   0.804  0.819E-01  0.819E-01
   0.814  0.823E-01  0.823E-01
   0.824  0.827E-01  0.827E-01
   0.834  0.831E-01  0.831E-01
   0.844  0.835E-01  0.835E-01
   0.854  0.839E-01  0.839E-01
   0.864  0.843E-01  0.843E-01
   0.874  0.847E-01  0.847E-01
   0.884  0.851E-01  0.851E-01
   0.894  0.855E-01  0.855E-01
   0.904  0.859E-01  0.859E-01
   0.914  0.863E-01  0.863E-01
   0.924  0.866E-01  0.866E-01
   0.934  0.870E-01  0.870E-01
   0.944  0.873E-01  0.873E-01
   0.954  0.877E-01  0.877E-01
   0.964  0.880E-01  0.880E-01
   0.974  0.883E-01  0.883E-01
   0.984  0.886E-01  0.886E-01
   0.994  0.888E-01  0.888E-01
   1.004  0.891E-01  0.891E-01
   1.014  0.893E-01  0.893E-01
   1.024  0.895E-01  0.895E-01
   1.034  0.897E-01  0.897E-01
   1.044  0.899E-01  0.899E-01
   1.054  0.900E-01  0.900E-01
   1.064  0.901E-01  0.901E-01
   1.074  0.902E-01  0.902E-01
   1.084  0.902E-01  0.902E-01
   1.094  0.903E-01  0.903E-01
   1.104  0.902E-01  0.902E-01
   1.114  0.902E-01  0.902E-01
   1.124  0.901E-01  0.901E-01
   1.134  0.900E-01  0.900E-01
   1.144  0.899E-01  0.899E-01
   1.154  0.898E-01  0.898E-01
   1.164  0.896E-01  0.896E-01
   1.174  0.893E-01  0.893E-01
   1.184  0.891E-01  0.891E-01
   1.194  0.888E-01  0.888E-01
   1.204  0.884E-01  0.884E-01
   1.214  0.881E-01  0.881E-01
   1.224  0.877E-01  0.877E-01
   1.234  0.872E-01  0.872E-01
   1.244  0.868E-01  0.868E-01
   1.254  0.863E-01  0.863E-01
   1.264  0.857E-01  0.857E-01
   1.274  0.851E-01  0.851E-01
   1.284  0.845E-01  0.845E-01
   1.294  0.839E-01  0.839E-01
   1.304  0.832E-01  0.832E-01
   1.314  0.825E-01  0.825E-01
   1.324  0.818E-01  0.818E-01
   1.334  0.810E-01  0.810E-01
   1.344  0.802E-01  0.802E-01
   1.354  0.794E-01  0.794E-01
   1.364  0.785E-01  0.785E-01
   1.374  0.776E-01  0.776E-01
   1.384  0.767E-01  0.767E-01
   1.394  0.758E-01  0.758E-01
   1.404  0.748E-01  0.748E-01
   1.414  0.738E-01  0.738E-01
   1.424  0.728E-01  0.728E-01
   1.434  0.718E-01  0.718E-01
   1.444  0.707E-01  0.707E-01
   1.454  0.697E-01  0.697E-01
   1.464  0.686E-01  0.686E-01
   1.474  0.675E-01  0.675E-01
   1.484  0.664E-01  0.664E-01
   1.494  0.653E-01  0.653E-01
   1.504  0.641E-01  0.641E-01
   1.514  0.630E-01  0.630E-01
   1.524  0.618E-01  0.618E-01
   1.534  0.606E-01  0.606E-01
   1.544  0.595E-01  0.595E-01
   1.554  0.583E-01  0.583E-01
   1.564  0.571E-01  0.571E-01
   1.574  0.559E-01  0.559E-01
   1.584  0.547E-01  0.547E-01
   1.594  0.536E-01  0.536E-01
   1.604  0.524E-01  0.524E-01
   1.614  0.512E-01  0.512E-01
   1.624  0.500E-01  0.500E-01
   1.634  0.489E-01  0.489E-01
   1.644  0.477E-01  0.477E-01
   1.654  0.466E-01  0.466E-01
   1.664  0.455E-01  0.455E-01
   1.674  0.443E-01  0.443E-01
   1.684  0.432E-01  0.432E-01
   1.694  0.421E-01  0.421E-01
   1.704  0.411E-01  0.411E-01
   1.714  0.400E-01  0.400E-01
   1.724  0.390E-01  0.390E-01
   1.734  0.379E-01  0.379E-01
   1.744  0.369E-01  0.369E-01
   1.754  0.360E-01  0.360E-01
   1.764  0.350E-01  0.350E-01
   1.774  0.341E-01  0.341E-01
   1.784  0.332E-01  0.332E-01
   1.794  0.323E-01  0.323E-01
   1.804  0.314E-01  0.314E-01
   1.814  0.306E-01  0.306E-01
   1.824  0.298E-01  0.298E-01
   1.834  0.291E-01  0.291E-01
   1.844  0.283E-01  0.283E-01
   1.854  0.276E-01  0.276E-01
   1.864  0.270E-01  0.270E-01
   1.874  0.263E-01  0.263E-01
   1.884  0.257E-01  0.257E-01
   1.894  0.252E-01  0.252E-01
   1.904  0.246E-01  0.246E-01
   1.914  0.241E-01  0.241E-01
   1.924  0.237E-01  0.237E-01
   1.934  0.232E-01  0.232E-01
   1.944  0.229E-01  0.229E-01
   1.954  0.225E-01  0.225E-01
   1.964  0.222E-01  0.222E-01
   1.974  0.219E-01  0.219E-01
   1.984  0.217E-01  0.217E-01
   1.994  0.215E-01  0.215E-01
   2.004  0.213E-01  0.213E-01
   2.014  0.212E-01  0.212E-01
   2.024  0.211E-01  0.211E-01
   2.034  0.211E-01  0.211E-01
   2.044  0.211E-01  0.211E-01
   2.054  0.211E-01  0.211E-01
   2.064  0.212E-01  0.212E-01
   2.074  0.213E-01  0.213E-01
   2.084  0.215E-01  0.215E-01
   2.094  0.217E-01  0.217E-01
   2.104  0.219E-01  0.219E-01
   2.114  0.222E-01  0.222E-01
   2.124  0.225E-01  0.225E-01
   2.134  0.229E-01  0.229E-01
   2.144  0.232E-01  0.232E-01
   2.154  0.237E-01  0.237E-01
   2.164  0.241E-01  0.241E-01
   2.174  0.246E-01  0.246E-01
   2.184  0.252E-01  0.252E-01
   2.194  0.257E-01  0.257E-01
   2.204  0.263E-01  0.263E-01
   2.214  0.270E-01  0.270E-01
   2.224  0.277E-01  0.277E-01
   2.234  0.284E-01  0.284E-01
   2.244  0.291E-01  0.291E-01
   2.254  0.299E-01  0.299E-01
   2.264  0.307E-01  0.307E-01
   2.274  0.315E-01  0.315E-01
   2.284  0.323E-01  0.323E-01
   2.294  0.332E-01  0.332E-01
   2.304  0.341E-01  0.341E-01
   2.314  0.350E-01  0.350E-01
   2.324  0.360E-01  0.360E-01
   2.334  0.370E-01  0.370E-01
   2.344  0.380E-01  0.380E-01
   2.354  0.390E-01  0.390E-01
   2.364  0.400E-01  0.400E-01
   2.374  0.411E-01  0.411E-01
   2.384  0.421E-01  0.421E-01
   2.394  0.432E-01  0.432E-01
   2.404  0.443E-01  0.443E-01
   2.414  0.454E-01  0.454E-01
   2.424  0.465E-01  0.465E-01
   2.434  0.476E-01  0.476E-01
   2.444  0.488E-01  0.488E-01
   2.454  0.499E-01  0.499E-01
   2.464  0.510E-01  0.510E-01
   2.474  0.522E-01  0.522E-01
   2.484  0.533E-01  0.533E-01
   2.494  0.545E-01  0.545E-01
   2.504  0.556E-01  0.556E-01
   2.514  0.567E-01  0.567E-01
   2.524  0.578E-01  0.578E-01
   2.534  0.589E-01  0.589E-01
   2.544  0.600E-01  0.600E-01
   2.554  0.611E-01  0.611E-01
   2.564  0.622E-01  0.622E-01
   2.574  0.633E-01  0.633E-01
   2.584  0.643E-01  0.643E-01
   2.594  0.653E-01  0.653E-01
   2.604  0.663E-01  0.663E-01
   2.614  0.673E-01  0.673E-01
   2.624  0.683E-01  0.683E-01
   2.634  0.692E-01  0.692E-01
   2.644  0.701E-01  0.701E-01
   2.654  0.710E-01  0.710E-01
   2.664  0.719E-01  0.719E-01
   2.674  0.727E-01  0.727E-01
   2.684  0.735E-01  0.735E-01
   2.694  0.742E-01  0.742E-01
   2.704  0.749E-01  0.749E-01
   2.714  0.756E-01  0.756E-01
   2.724  0.763E-01  0.763E-01
   2.734  0.769E-01  0.769E-01
   2.744  0.774E-01  0.774E-01
   2.754  0.780E-01  0.780E-01
   2.764  0.785E-01  0.785E-01
   2.774  0.789E-01  0.789E-01
   2.784  0.793E-01  0.793E-01
   2.794  0.797E-01  0.797E-01
   2.804  0.800E-01  0.800E-01
   2.814  0.803E-01  0.803E-01
   2.824  0.805E-01  0.805E-01
   2.834  0.807E-01  0.807E-01
   2.844  0.808E-01  0.808E-01
   2.854  0.809E-01  0.809E-01
   2.864  0.810E-01  0.810E-01
   2.874  0.810E-01  0.810E-01
   2.884  0.809E-01  0.809E-01
   2.894  0.808E-01  0.808E-01
   2.904  0.807E-01  0.807E-01
   2.914  0.805E-01  0.805E-01
   2.924  0.803E-01  0.803E-01
   2.934  0.800E-01  0.800E-01
   2.944  0.797E-01  0.797E-01
   2.954  0.793E-01  0.793E-01
   2.964  0.789E-01  0.789E-01
   2.974  0.784E-01  0.784E-01
   2.984  0.779E-01  0.779E-01
   2.994  0.774E-01  0.774E-01
   3.004  0.768E-01  0.768E-01
   3.014  0.762E-01  0.762E-01
   3.024  0.755E-01  0.755E-01
   3.034  0.748E-01  0.748E-01
   3.044  0.741E-01  0.741E-01
   3.054  0.733E-01  0.733E-01
   3.064  0.725E-01  0.725E-01
   3.074  0.717E-01  0.717E-01
   3.084  0.708E-01  0.708E-01
   3.094  0.699E-01  0.699E-01
   3.104  0.689E-01  0.689E-01
   3.114  0.680E-01  0.680E-01
   3.124  0.670E-01  0.670E-01
   3.134  0.660E-01  0.660E-01
   3.144  0.649E-01  0.649E-01
   3.154  0.638E-01  0.638E-01
   3.164  0.627E-01  0.627E-01
   3.174  0.616E-01  0.616E-01
   3.184  0.605E-01  0.605E-01
   3.194  0.593E-01  0.593E-01
   3.204  0.582E-01  0.582E-01
   3.214  0.570E-01  0.570E-01
   3.224  0.558E-01  0.558E-01
   3.234  0.546E-01  0.546E-01
   3.244  0.533E-01  0.533E-01
   3.254  0.521E-01  0.521E-01
   3.264  0.509E-01  0.509E-01
   3.274  0.496E-01  0.496E-01
   3.284  0.484E-01  0.484E-01
   3.294  0.471E-01  0.471E-01
   3.304  0.459E-01  0.459E-01
   3.314  0.446E-01  0.446E-01
   3.324  0.433E-01  0.433E-01
   3.334  0.421E-01  0.421E-01
   3.344  0.408E-01  0.408E-01
   3.354  0.396E-01  0.396E-01
   3.364  0.383E-01  0.383E-01
   3.374  0.371E-01  0.371E-01
   3.384  0.359E-01  0.359E-01
   3.394  0.347E-01  0.347E-01
   3.404  0.335E-01  0.335E-01
   3.414  0.323E-01  0.323E-01
   3.424  0.311E-01  0.311E-01
   3.434  0.299E-01  0.299E-01
   3.444  0.288E-01  0.288E-01
   3.454  0.276E-01  0.276E-01
   3.464  0.265E-01  0.265E-01
   3.474  0.254E-01  0.254E-01
   3.484  0.243E-01  0.243E-01
   3.494  0.232E-01  0.232E-01
   3.504  0.222E-01  0.222E-01
   3.514  0.212E-01  0.212E-01
   3.524  0.202E-01  0.202E-01
   3.534  0.192E-01  0.192E-01
   3.544  0.182E-01  0.182E-01
   3.554  0.172E-01  0.172E-01
   3.564  0.163E-01  0.163E-01
   3.574  0.154E-01  0.154E-01
   3.584  0.145E-01  0.145E-01
   3.594  0.137E-01  0.137E-01
   3.604  0.128E-01  0.128E-01
   3.614  0.120E-01  0.120E-01
   3.624  0.112E-01  0.112E-01
   3.634  0.105E-01  0.105E-01
   3.644  0.975E-02  0.975E-02
   3.654  0.903E-02  0.903E-02
   3.664  0.834E-02  0.834E-02
   3.674  0.767E-02  0.767E-02
   3.684  0.702E-02  0.702E-02
   3.694  0.640E-02  0.640E-02
   3.704  0.580E-02  0.580E-02
   3.714  0.522E-02  0.522E-02
   3.724  0.467E-02  0.467E-02
   3.734  0.414E-02  0.414E-02
   3.744  0.363E-02  0.363E-02
   3.754  0.314E-02  0.314E-02
   3.764  0.268E-02  0.268E-02
   3.774  0.223E-02  0.223E-02
   3.784  0.181E-02  0.181E-02
   3.794  0.141E-02  0.141E-02
   3.804  0.103E-02  0.103E-02
   3.814  0.666E-03  0.666E-03
   3.824  0.324E-03  0.324E-03
   3.834  0.353E-09  0.353E-09
   3.844 -0.305E-03 -0.305E-03
   3.854 -0.592E-03 -0.592E-03
   3.864 -0.861E-03 -0.861E-03
   3.874 -0.111E-02 -0.111E-02
   3.884 -0.135E-02 -0.135E-02
   3.894 -0.157E-02 -0.157E-02
   3.904 -0.177E-02 -0.177E-02
   3.914 -0.196E-02 -0.196E-02
   3.924 -0.214E-02 -0.214E-02
   3.934 -0.230E-02 -0.230E-02
   3.944 -0.244E-02 -0.244E-02
   3.954 -0.257E-02 -0.257E-02
   3.964 -0.269E-02 -0.269E-02
   3.974 -0.280E-02 -0.280E-02
   3.984 -0.290E-02 -0.290E-02
   3.994 -0.299E-02 -0.299E-02
   4.004 -0.306E-02 -0.306E-02
   4.014 -0.312E-02 -0.312E-02
   4.024 -0.318E-02 -0.318E-02
   4.034 -0.323E-02 -0.323E-02
   4.044 -0.326E-02 -0.326E-02
   4.054 -0.329E-02 -0.329E-02
   4.064 -0.331E-02 -0.331E-02
   4.074 -0.332E-02 -0.332E-02
   4.084 -0.333E-02 -0.333E-02
   4.094 -0.333E-02 -0.333E-02
   4.104 -0.332E-02 -0.332E-02
   4.114 -0.331E-02 -0.331E-02
   4.124 -0.329E-02 -0.329E-02
   4.134 -0.327E-02 -0.327E-02
   4.144 -0.324E-02 -0.324E-02
   4.154 -0.321E-02 -0.321E-02
   4.164 -0.317E-02 -0.317E-02
   4.174 -0.313E-02 -0.313E-02
   4.184 -0.309E-02 -0.309E-02
   4.194 -0.304E-02 -0.304E-02
   4.204 -0.299E-02 -0.299E-02
   4.214 -0.294E-02 -0.294E-02
   4.224 -0.289E-02 -0.289E-02
   4.234 -0.283E-02 -0.283E-02
   4.244 -0.278E-02 -0.278E-02
   4.254 -0.272E-02 -0.272E-02
   4.264 -0.266E-02 -0.266E-02
   4.274 -0.259E-02 -0.259E-02
   4.284 -0.253E-02 -0.253E-02
   4.294 -0.247E-02 -0.247E-02
   4.304 -0.241E-02 -0.241E-02
   4.314 -0.234E-02 -0.234E-02
   4.324 -0.228E-02 -0.228E-02
   4.334 -0.221E-02 -0.221E-02
   4.344 -0.215E-02 -0.215E-02
   4.354 -0.208E-02 -0.208E-02
   4.364 -0.202E-02 -0.202E-02
   4.374 -0.196E-02 -0.196E-02
   4.384 -0.190E-02 -0.190E-02
   4.394 -0.183E-02 -0.183E-02
   4.404 -0.177E-02 -0.177E-02
   4.414 -0.171E-02 -0.171E-02
   4.424 -0.165E-02 -0.165E-02
   4.434 -0.159E-02 -0.159E-02
   4.444 -0.154E-02 -0.154E-02
   4.454 -0.148E-02 -0.148E-02
   4.464 -0.143E-02 -0.143E-02
   4.474 -0.137E-02 -0.137E-02
   4.484 -0.132E-02 -0.132E-02
   4.494 -0.127E-02 -0.127E-02
   4.504 -0.122E-02 -0.122E-02
   4.514 -0.117E-02 -0.117E-02
   4.524 -0.112E-02 -0.112E-02
   4.534 -0.107E-02 -0.107E-02
   4.544 -0.103E-02 -0.103E-02
   4.554 -0.984E-03 -0.984E-03
   4.564 -0.942E-03 -0.942E-03
   4.574 -0.900E-03 -0.900E-03
   4.584 -0.860E-03 -0.860E-03
   4.594 -0.822E-03 -0.822E-03
   4.604 -0.784E-03 -0.784E-03
   4.614 -0.748E-03 -0.748E-03
   4.624 -0.713E-03 -0.713E-03
   4.634 -0.680E-03 -0.680E-03
   4.644 -0.647E-03 -0.647E-03
   4.654 -0.616E-03 -0.616E-03
   4.664 -0.586E-03 -0.586E-03
   4.674 -0.557E-03 -0.557E-03
   4.684 -0.529E-03 -0.529E-03
   4.694 -0.503E-03 -0.503E-03
   4.704 -0.477E-03 -0.477E-03
   4.714 -0.453E-03 -0.453E-03
   4.724 -0.429E-03 -0.429E-03
   4.734 -0.407E-03 -0.407E-03
   4.744 -0.385E-03 -0.385E-03
   4.754 -0.365E-03 -0.365E-03
   4.764 -0.345E-03 -0.345E-03
   4.774 -0.326E-03 -0.326E-03
   4.784 -0.308E-03 -0.308E-03
   4.794 -0.291E-03 -0.291E-03
   4.804 -0.275E-03 -0.275E-03
   4.814 -0.260E-03 -0.260E-03
   4.824 -0.245E-03 -0.245E-03
   4.834 -0.231E-03 -0.231E-03
   4.844 -0.217E-03 -0.217E-03
   4.854 -0.205E-03 -0.205E-03
   4.864 -0.193E-03 -0.193E-03
   4.874 -0.181E-03 -0.181E-03
   4.884 -0.171E-03 -0.171E-03
   4.894 -0.160E-03 -0.160E-03
   4.904 -0.151E-03 -0.151E-03
   4.914 -0.141E-03 -0.141E-03
   4.924 -0.133E-03 -0.133E-03
   4.934 -0.124E-03 -0.124E-03
   4.944 -0.117E-03 -0.117E-03
   4.954 -0.109E-03 -0.109E-03
   4.964 -0.102E-03 -0.102E-03
   4.974 -0.958E-04 -0.958E-04
   4.984 -0.897E-04 -0.897E-04
   4.994 -0.838E-04 -0.838E-04
   5.004 -0.784E-04 -0.784E-04
   5.014 -0.732E-04 -0.732E-04
   5.024 -0.684E-04 -0.684E-04
   5.034 -0.638E-04 -0.638E-04
   5.044 -0.595E-04 -0.595E-04
   5.054 -0.555E-04 -0.555E-04
   5.064 -0.517E-04 -0.517E-04
   5.074 -0.482E-04 -0.482E-04
   5.084 -0.449E-04 -0.449E-04
   5.094 -0.418E-04 -0.418E-04
   5.104 -0.388E-04 -0.388E-04
   5.114 -0.361E-04 -0.361E-04
   5.124 -0.336E-04 -0.336E-04
   5.134 -0.312E-04 -0.312E-04
   5.144 -0.289E-04 -0.289E-04
   5.154 -0.269E-04 -0.269E-04
   5.164 -0.249E-04 -0.249E-04
   5.174 -0.231E-04 -0.231E-04
   5.184 -0.214E-04 -0.214E-04
   5.194 -0.198E-04 -0.198E-04
   5.204 -0.183E-04 -0.183E-04
   5.214 -0.170E-04 -0.170E-04
   5.224 -0.157E-04 -0.157E-04
   5.234 -0.145E-04 -0.145E-04
   5.244 -0.134E-04 -0.134E-04
   5.254 -0.124E-04 -0.124E-04
   5.264 -0.114E-04 -0.114E-04
   5.274 -0.105E-04 -0.105E-04
   5.284 -0.973E-05 -0.973E-05
   5.294 -0.897E-05 -0.897E-05
