# E (eV)   ldos(E)   pdos(E)   
 -27.116 -0.250E-07 -0.250E-07
 -27.106 -0.270E-07 -0.270E-07
 -27.096 -0.291E-07 -0.291E-07
 -27.086 -0.314E-07 -0.314E-07
 -27.076 -0.339E-07 -0.339E-07
 -27.066 -0.365E-07 -0.365E-07
 -27.056 -0.393E-07 -0.393E-07
 -27.046 -0.423E-07 -0.423E-07
 -27.036 -0.455E-07 -0.455E-07
 -27.026 -0.489E-07 -0.489E-07
 -27.016 -0.525E-07 -0.525E-07
 -27.006 -0.564E-07 -0.564E-07
 -26.996 -0.605E-07 -0.605E-07
 -26.986 -0.649E-07 -0.649E-07
 -26.976 -0.696E-07 -0.696E-07
 -26.966 -0.746E-07 -0.746E-07
 -26.956 -0.799E-07 -0.799E-07
 -26.946 -0.855E-07 -0.855E-07
 -26.936 -0.915E-07 -0.915E-07
 -26.926 -0.978E-07 -0.978E-07
 -26.916 -0.105E-06 -0.105E-06
 -26.906 -0.112E-06 -0.112E-06
 -26.896 -0.119E-06 -0.119E-06
 -26.886 -0.127E-06 -0.127E-06
 -26.876 -0.136E-06 -0.136E-06
 -26.866 -0.145E-06 -0.145E-06
 -26.856 -0.154E-06 -0.154E-06
 -26.846 -0.164E-06 -0.164E-06
 -26.836 -0.174E-06 -0.174E-06
 -26.826 -0.185E-06 -0.185E-06
 -26.816 -0.197E-06 -0.197E-06
 -26.806 -0.209E-06 -0.209E-06
 -26.796 -0.222E-06 -0.222E-06
 -26.786 -0.236E-06 -0.236E-06
 -26.776 -0.250E-06 -0.250E-06
 -26.766 -0.265E-06 -0.265E-06
 -26.756 -0.281E-06 -0.281E-06
 -26.746 -0.297E-06 -0.297E-06
 -26.736 -0.314E-06 -0.314E-06
 -26.726 -0.332E-06 -0.332E-06
 -26.716 -0.351E-06 -0.351E-06
 -26.706 -0.371E-06 -0.371E-06
 -26.696 -0.391E-06 -0.391E-06
 -26.686 -0.413E-06 -0.413E-06
 -26.676 -0.435E-06 -0.435E-06
 -26.666 -0.458E-06 -0.458E-06
 -26.656 -0.483E-06 -0.483E-06
 -26.646 -0.508E-06 -0.508E-06
 -26.636 -0.534E-06 -0.534E-06
 -26.626 -0.561E-06 -0.561E-06
 -26.616 -0.589E-06 -0.589E-06
 -26.606 -0.618E-06 -0.618E-06
 -26.596 -0.648E-06 -0.648E-06
 -26.586 -0.679E-06 -0.679E-06
 -26.576 -0.712E-06 -0.712E-06
 -26.566 -0.745E-06 -0.745E-06
 -26.556 -0.779E-06 -0.779E-06
 -26.546 -0.814E-06 -0.814E-06
 -26.536 -0.851E-06 -0.851E-06
 -26.526 -0.888E-06 -0.888E-06
 -26.516 -0.926E-06 -0.926E-06
 -26.506 -0.965E-06 -0.965E-06
 -26.496 -0.101E-05 -0.101E-05
 -26.486 -0.105E-05 -0.105E-05
 -26.476 -0.109E-05 -0.109E-05
 -26.466 -0.113E-05 -0.113E-05
 -26.456 -0.117E-05 -0.117E-05
 -26.446 -0.122E-05 -0.122E-05
 -26.436 -0.126E-05 -0.126E-05
 -26.426 -0.131E-05 -0.131E-05
 -26.416 -0.135E-05 -0.135E-05
 -26.406 -0.140E-05 -0.140E-05
 -26.396 -0.145E-05 -0.145E-05
 -26.386 -0.149E-05 -0.149E-05
 -26.376 -0.154E-05 -0.154E-05
 -26.366 -0.159E-05 -0.159E-05
 -26.356 -0.164E-05 -0.164E-05
 -26.346 -0.168E-05 -0.168E-05
 -26.336 -0.173E-05 -0.173E-05
 -26.326 -0.178E-05 -0.178E-05
 -26.316 -0.182E-05 -0.182E-05
 -26.306 -0.187E-05 -0.187E-05
 -26.296 -0.191E-05 -0.191E-05
 -26.286 -0.195E-05 -0.195E-05
 -26.276 -0.199E-05 -0.199E-05
 -26.266 -0.203E-05 -0.203E-05
 -26.256 -0.207E-05 -0.207E-05
 -26.246 -0.211E-05 -0.211E-05
 -26.236 -0.214E-05 -0.214E-05
 -26.226 -0.217E-05 -0.217E-05
 -26.216 -0.220E-05 -0.220E-05
 -26.206 -0.223E-05 -0.223E-05
 -26.196 -0.225E-05 -0.225E-05
 -26.186 -0.227E-05 -0.227E-05
 -26.176 -0.229E-05 -0.229E-05
 -26.166 -0.230E-05 -0.230E-05
 -26.156 -0.231E-05 -0.231E-05
 -26.146 -0.231E-05 -0.231E-05
 -26.136 -0.231E-05 -0.231E-05
 -26.126 -0.230E-05 -0.230E-05
 -26.116 -0.229E-05 -0.229E-05
 -26.106 -0.227E-05 -0.227E-05
 -26.096 -0.224E-05 -0.224E-05
 -26.086 -0.221E-05 -0.221E-05
 -26.076 -0.217E-05 -0.217E-05
 -26.066 -0.212E-05 -0.212E-05
 -26.056 -0.207E-05 -0.207E-05
 -26.046 -0.201E-05 -0.201E-05
 -26.036 -0.194E-05 -0.194E-05
 -26.026 -0.186E-05 -0.186E-05
 -26.016 -0.177E-05 -0.177E-05
 -26.006 -0.167E-05 -0.167E-05
 -25.996 -0.156E-05 -0.156E-05
 -25.986 -0.144E-05 -0.144E-05
 -25.976 -0.131E-05 -0.131E-05
 -25.966 -0.117E-05 -0.117E-05
 -25.956 -0.101E-05 -0.101E-05
 -25.946 -0.850E-06 -0.850E-06
 -25.936 -0.673E-06 -0.673E-06
 -25.926 -0.483E-06 -0.483E-06
 -25.916 -0.281E-06 -0.281E-06
 -25.906 -0.657E-07 -0.657E-07
 -25.896  0.163E-06  0.163E-06
 -25.886  0.406E-06  0.406E-06
 -25.876  0.663E-06  0.663E-06
 -25.866  0.934E-06  0.934E-06
 -25.856  0.122E-05  0.122E-05
 -25.846  0.152E-05  0.152E-05
 -25.836  0.183E-05  0.183E-05
 -25.826  0.217E-05  0.217E-05
 -25.816  0.251E-05  0.251E-05
 -25.806  0.287E-05  0.287E-05
 -25.796  0.325E-05  0.325E-05
 -25.786  0.364E-05  0.364E-05
 -25.776  0.405E-05  0.405E-05
 -25.766  0.447E-05  0.447E-05
 -25.756  0.491E-05  0.491E-05
 -25.746  0.537E-05  0.537E-05
 -25.736  0.584E-05  0.584E-05
 -25.726  0.633E-05  0.633E-05
 -25.716  0.683E-05  0.683E-05
 -25.706  0.734E-05  0.734E-05
 -25.696  0.788E-05  0.788E-05
 -25.686  0.842E-05  0.842E-05
 -25.676  0.898E-05  0.898E-05
 -25.666  0.956E-05  0.956E-05
 -25.656  0.101E-04  0.101E-04
 -25.646  0.108E-04  0.108E-04
 -25.636  0.114E-04  0.114E-04
 -25.626  0.120E-04  0.120E-04
 -25.616  0.126E-04  0.126E-04
 -25.606  0.133E-04  0.133E-04
 -25.596  0.140E-04  0.140E-04
 -25.586  0.146E-04  0.146E-04
 -25.576  0.153E-04  0.153E-04
 -25.566  0.160E-04  0.160E-04
 -25.556  0.167E-04  0.167E-04
 -25.546  0.174E-04  0.174E-04
 -25.536  0.181E-04  0.181E-04
 -25.526  0.189E-04  0.189E-04
 -25.516  0.196E-04  0.196E-04
 -25.506  0.203E-04  0.203E-04
 -25.496  0.211E-04  0.211E-04
 -25.486  0.218E-04  0.218E-04
 -25.476  0.225E-04  0.225E-04
 -25.466  0.233E-04  0.233E-04
 -25.456  0.240E-04  0.240E-04
 -25.446  0.248E-04  0.248E-04
 -25.436  0.255E-04  0.255E-04
 -25.426  0.262E-04  0.262E-04
 -25.416  0.270E-04  0.270E-04
 -25.406  0.277E-04  0.277E-04
 -25.396  0.284E-04  0.284E-04
 -25.386  0.291E-04  0.291E-04
 -25.376  0.298E-04  0.298E-04
 -25.366  0.305E-04  0.305E-04
 -25.356  0.312E-04  0.312E-04
 -25.346  0.319E-04  0.319E-04
 -25.336  0.325E-04  0.325E-04
 -25.326  0.332E-04  0.332E-04
 -25.316  0.338E-04  0.338E-04
 -25.306  0.344E-04  0.344E-04
 -25.296  0.350E-04  0.350E-04
 -25.286  0.356E-04  0.356E-04
 -25.276  0.362E-04  0.362E-04
 -25.266  0.367E-04  0.367E-04
 -25.256  0.372E-04  0.372E-04
 -25.246  0.377E-04  0.377E-04
 -25.236  0.382E-04  0.382E-04
 -25.226  0.386E-04  0.386E-04
 -25.216  0.391E-04  0.391E-04
 -25.206  0.395E-04  0.395E-04
 -25.196  0.398E-04  0.398E-04
 -25.186  0.402E-04  0.402E-04
 -25.176  0.405E-04  0.405E-04
 -25.166  0.408E-04  0.408E-04
 -25.156  0.411E-04  0.411E-04
 -25.146  0.413E-04  0.413E-04
 -25.136  0.415E-04  0.415E-04
 -25.126  0.417E-04  0.417E-04
 -25.116  0.419E-04  0.419E-04
 -25.106  0.420E-04  0.420E-04
 -25.096  0.421E-04  0.421E-04
 -25.086  0.422E-04  0.422E-04
 -25.076  0.422E-04  0.422E-04
 -25.066  0.422E-04  0.422E-04
 -25.056  0.422E-04  0.422E-04
 -25.046  0.421E-04  0.421E-04
 -25.036  0.420E-04  0.420E-04
 -25.026  0.419E-04  0.419E-04
 -25.016  0.418E-04  0.418E-04
 -25.006  0.416E-04  0.416E-04
 -24.996  0.414E-04  0.414E-04
 -24.986  0.412E-04  0.412E-04
 -24.976  0.409E-04  0.409E-04
 -24.966  0.406E-04  0.406E-04
 -24.956  0.403E-04  0.403E-04
 -24.946  0.399E-04  0.399E-04
 -24.936  0.396E-04  0.396E-04
 -24.926  0.392E-04  0.392E-04
 -24.916  0.387E-04  0.387E-04
 -24.906  0.383E-04  0.383E-04
 -24.896  0.378E-04  0.378E-04
 -24.886  0.373E-04  0.373E-04
 -24.876  0.368E-04  0.368E-04
 -24.866  0.363E-04  0.363E-04
 -24.856  0.357E-04  0.357E-04
 -24.846  0.351E-04  0.351E-04
 -24.836  0.345E-04  0.345E-04
 -24.826  0.339E-04  0.339E-04
 -24.816  0.333E-04  0.333E-04
 -24.806  0.327E-04  0.327E-04
 -24.796  0.320E-04  0.320E-04
 -24.786  0.313E-04  0.313E-04
 -24.776  0.307E-04  0.307E-04
 -24.766  0.300E-04  0.300E-04
 -24.756  0.293E-04  0.293E-04
 -24.746  0.286E-04  0.286E-04
 -24.736  0.278E-04  0.278E-04
 -24.726  0.271E-04  0.271E-04
 -24.716  0.264E-04  0.264E-04
 -24.706  0.257E-04  0.257E-04
 -24.696  0.249E-04  0.249E-04
 -24.686  0.242E-04  0.242E-04
 -24.676  0.234E-04  0.234E-04
 -24.666  0.227E-04  0.227E-04
 -24.656  0.220E-04  0.220E-04
 -24.646  0.212E-04  0.212E-04
 -24.636  0.205E-04  0.205E-04
 -24.626  0.197E-04  0.197E-04
 -24.616  0.190E-04  0.190E-04
 -24.606  0.183E-04  0.183E-04
 -24.596  0.176E-04  0.176E-04
 -24.586  0.169E-04  0.169E-04
 -24.576  0.162E-04  0.162E-04
 -24.566  0.155E-04  0.155E-04
 -24.556  0.148E-04  0.148E-04
 -24.546  0.141E-04  0.141E-04
 -24.536  0.134E-04  0.134E-04
 -24.526  0.128E-04  0.128E-04
 -24.516  0.121E-04  0.121E-04
 -24.506  0.115E-04  0.115E-04
 -24.496  0.109E-04  0.109E-04
 -24.486  0.103E-04  0.103E-04
 -24.476  0.969E-05  0.969E-05
 -24.466  0.911E-05  0.911E-05
 -24.456  0.855E-05  0.855E-05
 -24.446  0.800E-05  0.800E-05
 -24.436  0.746E-05  0.746E-05
 -24.426  0.694E-05  0.694E-05
 -24.416  0.643E-05  0.643E-05
 -24.406  0.595E-05  0.595E-05
 -24.396  0.547E-05  0.547E-05
 -24.386  0.501E-05  0.501E-05
 -24.376  0.457E-05  0.457E-05
 -24.366  0.414E-05  0.414E-05
 -24.356  0.373E-05  0.373E-05
 -24.346  0.333E-05  0.333E-05
 -24.336  0.295E-05  0.295E-05
 -24.326  0.259E-05  0.259E-05
 -24.316  0.224E-05  0.224E-05
 -24.306  0.191E-05  0.191E-05
 -24.296  0.159E-05  0.159E-05
 -24.286  0.128E-05  0.128E-05
 -24.276  0.996E-06  0.996E-06
 -24.266  0.721E-06  0.721E-06
 -24.256  0.462E-06  0.462E-06
 -24.246  0.216E-06  0.216E-06
 -24.236 -0.162E-07 -0.162E-07
 -24.226 -0.235E-06 -0.235E-06
 -24.216 -0.440E-06 -0.440E-06
 -24.206 -0.632E-06 -0.632E-06
 -24.196 -0.811E-06 -0.811E-06
 -24.186 -0.979E-06 -0.979E-06
 -24.176 -0.113E-05 -0.113E-05
 -24.166 -0.128E-05 -0.128E-05
 -24.156 -0.141E-05 -0.141E-05
 -24.146 -0.153E-05 -0.153E-05
 -24.136 -0.164E-05 -0.164E-05
 -24.126 -0.174E-05 -0.174E-05
 -24.116 -0.184E-05 -0.184E-05
 -24.106 -0.192E-05 -0.192E-05
 -24.096 -0.199E-05 -0.199E-05
 -24.086 -0.206E-05 -0.206E-05
 -24.076 -0.211E-05 -0.211E-05
 -24.066 -0.216E-05 -0.216E-05
 -24.056 -0.220E-05 -0.220E-05
 -24.046 -0.224E-05 -0.224E-05
 -24.036 -0.226E-05 -0.226E-05
 -24.026 -0.228E-05 -0.228E-05
 -24.016 -0.230E-05 -0.230E-05
 -24.006 -0.231E-05 -0.231E-05
 -23.996 -0.231E-05 -0.231E-05
 -23.986 -0.231E-05 -0.231E-05
 -23.976 -0.230E-05 -0.230E-05
 -23.966 -0.229E-05 -0.229E-05
 -23.956 -0.228E-05 -0.228E-05
 -23.946 -0.226E-05 -0.226E-05
 -23.936 -0.224E-05 -0.224E-05
 -23.926 -0.221E-05 -0.221E-05
 -23.916 -0.218E-05 -0.218E-05
 -23.906 -0.215E-05 -0.215E-05
 -23.896 -0.212E-05 -0.212E-05
 -23.886 -0.208E-05 -0.208E-05
 -23.876 -0.204E-05 -0.204E-05
 -23.866 -0.200E-05 -0.200E-05
 -23.856 -0.196E-05 -0.196E-05
 -23.846 -0.192E-05 -0.192E-05
 -23.836 -0.188E-05 -0.188E-05
 -23.826 -0.183E-05 -0.183E-05
 -23.816 -0.179E-05 -0.179E-05
 -23.806 -0.174E-05 -0.174E-05
 -23.796 -0.169E-05 -0.169E-05
 -23.786 -0.165E-05 -0.165E-05
 -23.776 -0.160E-05 -0.160E-05
 -23.766 -0.155E-05 -0.155E-05
 -23.756 -0.151E-05 -0.151E-05
 -23.746 -0.146E-05 -0.146E-05
 -23.736 -0.141E-05 -0.141E-05
 -23.726 -0.136E-05 -0.136E-05
 -23.716 -0.132E-05 -0.132E-05
 -23.706 -0.127E-05 -0.127E-05
 -23.696 -0.123E-05 -0.123E-05
 -23.686 -0.118E-05 -0.118E-05
 -23.676 -0.114E-05 -0.114E-05
 -23.666 -0.110E-05 -0.110E-05
 -23.656 -0.106E-05 -0.106E-05
 -23.646 -0.101E-05 -0.101E-05
 -23.636 -0.974E-06 -0.974E-06
 -23.626 -0.935E-06 -0.935E-06
 -23.616 -0.896E-06 -0.896E-06
 -23.606 -0.859E-06 -0.859E-06
 -23.596 -0.822E-06 -0.822E-06
 -23.586 -0.787E-06 -0.787E-06
 -23.576 -0.752E-06 -0.752E-06
 -23.566 -0.719E-06 -0.719E-06
 -23.556 -0.687E-06 -0.687E-06
 -23.546 -0.655E-06 -0.655E-06
 -23.536 -0.625E-06 -0.625E-06
 -23.526 -0.595E-06 -0.595E-06
 -23.516 -0.567E-06 -0.567E-06
 -23.506 -0.540E-06 -0.540E-06
 -23.496 -0.513E-06 -0.513E-06
 -23.486 -0.488E-06 -0.488E-06
 -23.476 -0.464E-06 -0.464E-06
 -23.466 -0.440E-06 -0.440E-06
 -23.456 -0.418E-06 -0.418E-06
 -23.446 -0.396E-06 -0.396E-06
 -23.436 -0.375E-06 -0.375E-06
 -23.426 -0.355E-06 -0.355E-06
 -23.416 -0.336E-06 -0.336E-06
 -23.406 -0.318E-06 -0.318E-06
 -23.396 -0.301E-06 -0.301E-06
 -23.386 -0.284E-06 -0.284E-06
 -23.376 -0.268E-06 -0.268E-06
 -23.366 -0.253E-06 -0.253E-06
 -23.356 -0.239E-06 -0.239E-06
 -23.346 -0.225E-06 -0.225E-06
 -23.336 -0.212E-06 -0.212E-06
 -23.326 -0.200E-06 -0.200E-06
 -23.316 -0.188E-06 -0.188E-06
 -23.306 -0.177E-06 -0.177E-06
 -23.296 -0.166E-06 -0.166E-06
 -23.286 -0.156E-06 -0.156E-06
 -23.276 -0.147E-06 -0.147E-06
 -23.266 -0.138E-06 -0.138E-06
 -23.256 -0.129E-06 -0.129E-06
 -23.246 -0.121E-06 -0.121E-06
 -23.236 -0.113E-06 -0.113E-06
 -23.226 -0.106E-06 -0.106E-06
 -23.216 -0.993E-07 -0.993E-07
 -23.206 -0.929E-07 -0.929E-07
 -23.196 -0.868E-07 -0.868E-07
 -23.186 -0.811E-07 -0.811E-07
 -23.176 -0.757E-07 -0.757E-07
 -23.166 -0.707E-07 -0.707E-07
 -23.156 -0.659E-07 -0.659E-07
 -23.146 -0.615E-07 -0.615E-07
 -23.136 -0.573E-07 -0.573E-07
 -23.126 -0.534E-07 -0.534E-07
 -23.116 -0.497E-07 -0.497E-07
 -23.106 -0.462E-07 -0.462E-07
 -23.096 -0.430E-07 -0.430E-07
 -23.086 -0.399E-07 -0.399E-07
 -23.076 -0.371E-07 -0.371E-07
 -23.066 -0.345E-07 -0.345E-07
 -23.056 -0.320E-07 -0.320E-07
 -23.046 -0.297E-07 -0.297E-07
 -23.036 -0.275E-07 -0.275E-07
 -23.026 -0.255E-07 -0.255E-07
 -23.016 -0.236E-07 -0.236E-07
 -23.006 -0.219E-07 -0.219E-07
 -22.996 -0.202E-07 -0.202E-07
 -22.986 -0.187E-07 -0.187E-07
 -22.976 -0.173E-07 -0.173E-07
 -22.966 -0.160E-07 -0.160E-07
 -22.956 -0.148E-07 -0.148E-07
 -22.946 -0.137E-07 -0.137E-07
 -22.936 -0.126E-07 -0.126E-07
 -22.926 -0.117E-07 -0.117E-07
 -22.916 -0.108E-07 -0.108E-07
 -22.906 -0.995E-08 -0.995E-08
 -22.896 -0.919E-08 -0.919E-08
 -22.886 -0.849E-08 -0.849E-08
 -22.876 -0.785E-08 -0.785E-08
 -22.866 -0.726E-08 -0.726E-08
 -22.856 -0.671E-08 -0.671E-08
 -22.846 -0.622E-08 -0.622E-08
 -22.836 -0.577E-08 -0.577E-08
 -22.826 -0.535E-08 -0.535E-08
 -22.816 -0.498E-08 -0.498E-08
 -22.806 -0.464E-08 -0.464E-08
 -22.796 -0.434E-08 -0.434E-08
 -22.786 -0.407E-08 -0.407E-08
 -22.776 -0.383E-08 -0.383E-08
 -22.766 -0.362E-08 -0.362E-08
 -22.756 -0.344E-08 -0.344E-08
 -22.746 -0.329E-08 -0.329E-08
 -22.736 -0.317E-08 -0.317E-08
 -22.726 -0.306E-08 -0.306E-08
 -22.716 -0.299E-08 -0.299E-08
 -22.706 -0.294E-08 -0.294E-08
 -22.696 -0.291E-08 -0.291E-08
 -22.686 -0.291E-08 -0.291E-08
 -22.676 -0.293E-08 -0.293E-08
 -22.666 -0.298E-08 -0.298E-08
 -22.656 -0.305E-08 -0.305E-08
 -22.646 -0.315E-08 -0.315E-08
 -22.636 -0.327E-08 -0.327E-08
 -22.626 -0.342E-08 -0.342E-08
 -22.616 -0.359E-08 -0.359E-08
 -22.606 -0.380E-08 -0.380E-08
 -22.596 -0.403E-08 -0.403E-08
 -22.586 -0.430E-08 -0.430E-08
 -22.576 -0.460E-08 -0.460E-08
 -22.566 -0.494E-08 -0.494E-08
 -22.556 -0.531E-08 -0.531E-08
 -22.546 -0.572E-08 -0.572E-08
 -22.536 -0.617E-08 -0.617E-08
 -22.526 -0.667E-08 -0.667E-08
 -22.516 -0.722E-08 -0.722E-08
 -22.506 -0.781E-08 -0.781E-08
 -22.496 -0.846E-08 -0.846E-08
 -22.486 -0.917E-08 -0.917E-08
 -22.476 -0.994E-08 -0.994E-08
 -22.466 -0.108E-07 -0.108E-07
 -22.456 -0.117E-07 -0.117E-07
 -22.446 -0.127E-07 -0.127E-07
 -22.436 -0.137E-07 -0.137E-07
 -22.426 -0.149E-07 -0.149E-07
 -22.416 -0.161E-07 -0.161E-07
 -22.406 -0.174E-07 -0.174E-07
 -22.396 -0.189E-07 -0.189E-07
 -22.386 -0.204E-07 -0.204E-07
 -22.376 -0.221E-07 -0.221E-07
 -22.366 -0.239E-07 -0.239E-07
 -22.356 -0.259E-07 -0.259E-07
 -22.346 -0.279E-07 -0.279E-07
 -22.336 -0.302E-07 -0.302E-07
 -22.326 -0.326E-07 -0.326E-07
 -22.316 -0.351E-07 -0.351E-07
 -22.306 -0.379E-07 -0.379E-07
 -22.296 -0.408E-07 -0.408E-07
 -22.286 -0.440E-07 -0.440E-07
 -22.276 -0.474E-07 -0.474E-07
 -22.266 -0.510E-07 -0.510E-07
 -22.256 -0.549E-07 -0.549E-07
 -22.246 -0.590E-07 -0.590E-07
 -22.236 -0.634E-07 -0.634E-07
 -22.226 -0.681E-07 -0.681E-07
 -22.216 -0.731E-07 -0.731E-07
 -22.206 -0.784E-07 -0.784E-07
 -22.196 -0.841E-07 -0.841E-07
 -22.186 -0.901E-07 -0.901E-07
 -22.176 -0.966E-07 -0.966E-07
 -22.166 -0.103E-06 -0.103E-06
 -22.156 -0.111E-06 -0.111E-06
 -22.146 -0.118E-06 -0.118E-06
 -22.136 -0.127E-06 -0.127E-06
 -22.126 -0.135E-06 -0.135E-06
 -22.116 -0.144E-06 -0.144E-06
 -22.106 -0.154E-06 -0.154E-06
 -22.096 -0.164E-06 -0.164E-06
 -22.086 -0.175E-06 -0.175E-06
 -22.076 -0.187E-06 -0.187E-06
 -22.066 -0.199E-06 -0.199E-06
 -22.056 -0.211E-06 -0.211E-06
 -22.046 -0.225E-06 -0.225E-06
 -22.036 -0.239E-06 -0.239E-06
 -22.026 -0.254E-06 -0.254E-06
 -22.016 -0.270E-06 -0.270E-06
 -22.006 -0.286E-06 -0.286E-06
 -21.996 -0.304E-06 -0.304E-06
 -21.986 -0.322E-06 -0.322E-06
 -21.976 -0.341E-06 -0.341E-06
 -21.966 -0.361E-06 -0.361E-06
 -21.956 -0.382E-06 -0.382E-06
 -21.946 -0.404E-06 -0.404E-06
 -21.936 -0.427E-06 -0.427E-06
 -21.926 -0.451E-06 -0.451E-06
 -21.916 -0.476E-06 -0.476E-06
 -21.906 -0.503E-06 -0.503E-06
 -21.896 -0.530E-06 -0.530E-06
 -21.886 -0.558E-06 -0.558E-06
 -21.876 -0.588E-06 -0.588E-06
 -21.866 -0.619E-06 -0.619E-06
 -21.856 -0.651E-06 -0.651E-06
 -21.846 -0.684E-06 -0.684E-06
 -21.836 -0.719E-06 -0.719E-06
 -21.826 -0.755E-06 -0.755E-06
 -21.816 -0.792E-06 -0.792E-06
 -21.806 -0.830E-06 -0.830E-06
 -21.796 -0.870E-06 -0.870E-06
 -21.786 -0.910E-06 -0.910E-06
 -21.776 -0.953E-06 -0.953E-06
 -21.766 -0.996E-06 -0.996E-06
 -21.756 -0.104E-05 -0.104E-05
 -21.746 -0.109E-05 -0.109E-05
 -21.736 -0.113E-05 -0.113E-05
 -21.726 -0.118E-05 -0.118E-05
 -21.716 -0.123E-05 -0.123E-05
 -21.706 -0.128E-05 -0.128E-05
 -21.696 -0.133E-05 -0.133E-05
 -21.686 -0.139E-05 -0.139E-05
 -21.676 -0.144E-05 -0.144E-05
 -21.666 -0.150E-05 -0.150E-05
 -21.656 -0.155E-05 -0.155E-05
 -21.646 -0.161E-05 -0.161E-05
 -21.636 -0.166E-05 -0.166E-05
 -21.626 -0.172E-05 -0.172E-05
 -21.616 -0.178E-05 -0.178E-05
 -21.606 -0.184E-05 -0.184E-05
 -21.596 -0.190E-05 -0.190E-05
 -21.586 -0.196E-05 -0.196E-05
 -21.576 -0.202E-05 -0.202E-05
 -21.566 -0.207E-05 -0.207E-05
 -21.556 -0.213E-05 -0.213E-05
 -21.546 -0.219E-05 -0.219E-05
 -21.536 -0.225E-05 -0.225E-05
 -21.526 -0.231E-05 -0.231E-05
 -21.516 -0.236E-05 -0.236E-05
 -21.506 -0.241E-05 -0.241E-05
 -21.496 -0.247E-05 -0.247E-05
 -21.486 -0.252E-05 -0.252E-05
 -21.476 -0.257E-05 -0.257E-05
 -21.466 -0.261E-05 -0.261E-05
 -21.456 -0.266E-05 -0.266E-05
 -21.446 -0.270E-05 -0.270E-05
 -21.436 -0.274E-05 -0.274E-05
 -21.426 -0.277E-05 -0.277E-05
 -21.416 -0.280E-05 -0.280E-05
 -21.406 -0.283E-05 -0.283E-05
 -21.396 -0.285E-05 -0.285E-05
 -21.386 -0.287E-05 -0.287E-05
 -21.376 -0.288E-05 -0.288E-05
 -21.366 -0.288E-05 -0.288E-05
 -21.356 -0.288E-05 -0.288E-05
 -21.346 -0.288E-05 -0.288E-05
 -21.336 -0.287E-05 -0.287E-05
 -21.326 -0.285E-05 -0.285E-05
 -21.316 -0.282E-05 -0.282E-05
 -21.306 -0.278E-05 -0.278E-05
 -21.296 -0.274E-05 -0.274E-05
 -21.286 -0.268E-05 -0.268E-05
 -21.276 -0.262E-05 -0.262E-05
 -21.266 -0.255E-05 -0.255E-05
 -21.256 -0.246E-05 -0.246E-05
 -21.246 -0.237E-05 -0.237E-05
 -21.236 -0.226E-05 -0.226E-05
 -21.226 -0.214E-05 -0.214E-05
 -21.216 -0.201E-05 -0.201E-05
 -21.206 -0.187E-05 -0.187E-05
 -21.196 -0.172E-05 -0.172E-05
 -21.186 -0.155E-05 -0.155E-05
 -21.176 -0.136E-05 -0.136E-05
 -21.166 -0.116E-05 -0.116E-05
 -21.156 -0.951E-06 -0.951E-06
 -21.146 -0.723E-06 -0.723E-06
 -21.136 -0.478E-06 -0.478E-06
 -21.126 -0.217E-06 -0.217E-06
 -21.116  0.601E-07  0.601E-07
 -21.106  0.354E-06  0.354E-06
 -21.096  0.666E-06  0.666E-06
 -21.086  0.996E-06  0.996E-06
 -21.076  0.134E-05  0.134E-05
 -21.066  0.171E-05  0.171E-05
 -21.056  0.209E-05  0.209E-05
 -21.046  0.250E-05  0.250E-05
 -21.036  0.292E-05  0.292E-05
 -21.026  0.336E-05  0.336E-05
 -21.016  0.382E-05  0.382E-05
 -21.006  0.430E-05  0.430E-05
 -20.996  0.480E-05  0.480E-05
 -20.986  0.532E-05  0.532E-05
 -20.976  0.586E-05  0.586E-05
 -20.966  0.641E-05  0.641E-05
 -20.956  0.699E-05  0.699E-05
 -20.946  0.759E-05  0.759E-05
 -20.936  0.820E-05  0.820E-05
 -20.926  0.884E-05  0.884E-05
 -20.916  0.949E-05  0.949E-05
 -20.906  0.102E-04  0.102E-04
 -20.896  0.109E-04  0.109E-04
 -20.886  0.116E-04  0.116E-04
 -20.876  0.123E-04  0.123E-04
 -20.866  0.130E-04  0.130E-04
 -20.856  0.138E-04  0.138E-04
 -20.846  0.146E-04  0.146E-04
 -20.836  0.154E-04  0.154E-04
 -20.826  0.162E-04  0.162E-04
 -20.816  0.170E-04  0.170E-04
 -20.806  0.178E-04  0.178E-04
 -20.796  0.187E-04  0.187E-04
 -20.786  0.195E-04  0.195E-04
 -20.776  0.204E-04  0.204E-04
 -20.766  0.213E-04  0.213E-04
 -20.756  0.221E-04  0.221E-04
 -20.746  0.230E-04  0.230E-04
 -20.736  0.239E-04  0.239E-04
 -20.726  0.249E-04  0.249E-04
 -20.716  0.258E-04  0.258E-04
 -20.706  0.267E-04  0.267E-04
 -20.696  0.276E-04  0.276E-04
 -20.686  0.285E-04  0.285E-04
 -20.676  0.294E-04  0.294E-04
 -20.666  0.304E-04  0.304E-04
 -20.656  0.313E-04  0.313E-04
 -20.646  0.322E-04  0.322E-04
 -20.636  0.331E-04  0.331E-04
 -20.626  0.340E-04  0.340E-04
 -20.616  0.349E-04  0.349E-04
 -20.606  0.358E-04  0.358E-04
 -20.596  0.366E-04  0.366E-04
 -20.586  0.375E-04  0.375E-04
 -20.576  0.384E-04  0.384E-04
 -20.566  0.392E-04  0.392E-04
 -20.556  0.400E-04  0.400E-04
 -20.546  0.408E-04  0.408E-04
 -20.536  0.416E-04  0.416E-04
 -20.526  0.424E-04  0.424E-04
 -20.516  0.431E-04  0.431E-04
 -20.506  0.438E-04  0.438E-04
 -20.496  0.445E-04  0.445E-04
 -20.486  0.452E-04  0.452E-04
 -20.476  0.458E-04  0.458E-04
 -20.466  0.465E-04  0.465E-04
 -20.456  0.471E-04  0.471E-04
 -20.446  0.476E-04  0.476E-04
 -20.436  0.482E-04  0.482E-04
 -20.426  0.487E-04  0.487E-04
 -20.416  0.491E-04  0.491E-04
 -20.406  0.496E-04  0.496E-04
 -20.396  0.500E-04  0.500E-04
 -20.386  0.504E-04  0.504E-04
 -20.376  0.507E-04  0.507E-04
 -20.366  0.510E-04  0.510E-04
 -20.356  0.513E-04  0.513E-04
 -20.346  0.515E-04  0.515E-04
 -20.336  0.517E-04  0.517E-04
 -20.326  0.518E-04  0.518E-04
 -20.316  0.519E-04  0.519E-04
 -20.306  0.520E-04  0.520E-04
 -20.296  0.521E-04  0.521E-04
 -20.286  0.521E-04  0.521E-04
 -20.276  0.520E-04  0.520E-04
 -20.266  0.520E-04  0.520E-04
 -20.256  0.519E-04  0.519E-04
 -20.246  0.517E-04  0.517E-04
 -20.236  0.515E-04  0.515E-04
 -20.226  0.513E-04  0.513E-04
 -20.216  0.511E-04  0.511E-04
 -20.206  0.508E-04  0.508E-04
 -20.196  0.504E-04  0.504E-04
 -20.186  0.501E-04  0.501E-04
 -20.176  0.497E-04  0.497E-04
 -20.166  0.492E-04  0.492E-04
 -20.156  0.488E-04  0.488E-04
 -20.146  0.483E-04  0.483E-04
 -20.136  0.478E-04  0.478E-04
 -20.126  0.472E-04  0.472E-04
 -20.116  0.466E-04  0.466E-04
 -20.106  0.460E-04  0.460E-04
 -20.096  0.454E-04  0.454E-04
 -20.086  0.447E-04  0.447E-04
 -20.076  0.440E-04  0.440E-04
 -20.066  0.433E-04  0.433E-04
 -20.056  0.426E-04  0.426E-04
 -20.046  0.419E-04  0.419E-04
 -20.036  0.411E-04  0.411E-04
 -20.026  0.403E-04  0.403E-04
 -20.016  0.395E-04  0.395E-04
 -20.006  0.387E-04  0.387E-04
 -19.996  0.379E-04  0.379E-04
 -19.986  0.370E-04  0.370E-04
 -19.976  0.362E-04  0.362E-04
 -19.966  0.353E-04  0.353E-04
 -19.956  0.345E-04  0.345E-04
 -19.946  0.336E-04  0.336E-04
 -19.936  0.328E-04  0.328E-04
 -19.926  0.319E-04  0.319E-04
 -19.916  0.310E-04  0.310E-04
 -19.906  0.301E-04  0.301E-04
 -19.896  0.293E-04  0.293E-04
 -19.886  0.284E-04  0.284E-04
 -19.876  0.275E-04  0.275E-04
 -19.866  0.267E-04  0.267E-04
 -19.856  0.258E-04  0.258E-04
 -19.846  0.250E-04  0.250E-04
 -19.836  0.242E-04  0.242E-04
 -19.826  0.234E-04  0.234E-04
 -19.816  0.226E-04  0.226E-04
 -19.806  0.218E-04  0.218E-04
 -19.796  0.210E-04  0.210E-04
 -19.786  0.202E-04  0.202E-04
 -19.776  0.195E-04  0.195E-04
 -19.766  0.188E-04  0.188E-04
 -19.756  0.180E-04  0.180E-04
 -19.746  0.174E-04  0.174E-04
 -19.736  0.167E-04  0.167E-04
 -19.726  0.160E-04  0.160E-04
 -19.716  0.154E-04  0.154E-04
 -19.706  0.148E-04  0.148E-04
 -19.696  0.142E-04  0.142E-04
 -19.686  0.137E-04  0.137E-04
 -19.676  0.131E-04  0.131E-04
 -19.666  0.126E-04  0.126E-04
 -19.656  0.121E-04  0.121E-04
 -19.646  0.117E-04  0.117E-04
 -19.636  0.112E-04  0.112E-04
 -19.626  0.108E-04  0.108E-04
 -19.616  0.104E-04  0.104E-04
 -19.606  0.101E-04  0.101E-04
 -19.596  0.974E-05  0.974E-05
 -19.586  0.942E-05  0.942E-05
 -19.576  0.914E-05  0.914E-05
 -19.566  0.887E-05  0.887E-05
 -19.556  0.863E-05  0.863E-05
 -19.546  0.842E-05  0.842E-05
 -19.536  0.823E-05  0.823E-05
 -19.526  0.806E-05  0.806E-05
 -19.516  0.792E-05  0.792E-05
 -19.506  0.780E-05  0.780E-05
 -19.496  0.770E-05  0.770E-05
 -19.486  0.762E-05  0.762E-05
 -19.476  0.757E-05  0.757E-05
 -19.466  0.753E-05  0.753E-05
 -19.456  0.751E-05  0.751E-05
 -19.446  0.752E-05  0.752E-05
 -19.436  0.754E-05  0.754E-05
 -19.426  0.758E-05  0.758E-05
 -19.416  0.764E-05  0.764E-05
 -19.406  0.771E-05  0.771E-05
 -19.396  0.780E-05  0.780E-05
 -19.386  0.790E-05  0.790E-05
 -19.376  0.801E-05  0.801E-05
 -19.366  0.814E-05  0.814E-05
 -19.356  0.828E-05  0.828E-05
 -19.346  0.843E-05  0.843E-05
 -19.336  0.860E-05  0.860E-05
 -19.326  0.877E-05  0.877E-05
 -19.316  0.895E-05  0.895E-05
 -19.306  0.914E-05  0.914E-05
 -19.296  0.933E-05  0.933E-05
 -19.286  0.953E-05  0.953E-05
 -19.276  0.973E-05  0.973E-05
 -19.266  0.994E-05  0.994E-05
 -19.256  0.102E-04  0.102E-04
 -19.246  0.104E-04  0.104E-04
 -19.236  0.106E-04  0.106E-04
 -19.226  0.108E-04  0.108E-04
 -19.216  0.110E-04  0.110E-04
 -19.206  0.112E-04  0.112E-04
 -19.196  0.114E-04  0.114E-04
 -19.186  0.117E-04  0.117E-04
 -19.176  0.119E-04  0.119E-04
 -19.166  0.121E-04  0.121E-04
 -19.156  0.123E-04  0.123E-04
 -19.146  0.125E-04  0.125E-04
 -19.136  0.127E-04  0.127E-04
 -19.126  0.128E-04  0.128E-04
 -19.116  0.130E-04  0.130E-04
 -19.106  0.132E-04  0.132E-04
 -19.096  0.133E-04  0.133E-04
 -19.086  0.135E-04  0.135E-04
 -19.076  0.136E-04  0.136E-04
 -19.066  0.138E-04  0.138E-04
 -19.056  0.139E-04  0.139E-04
 -19.046  0.140E-04  0.140E-04
 -19.036  0.141E-04  0.141E-04
 -19.026  0.142E-04  0.142E-04
 -19.016  0.143E-04  0.143E-04
 -19.006  0.143E-04  0.143E-04
 -18.996  0.144E-04  0.144E-04
 -18.986  0.144E-04  0.144E-04
 -18.976  0.145E-04  0.145E-04
 -18.966  0.145E-04  0.145E-04
 -18.956  0.145E-04  0.145E-04
 -18.946  0.145E-04  0.145E-04
 -18.936  0.145E-04  0.145E-04
 -18.926  0.144E-04  0.144E-04
 -18.916  0.144E-04  0.144E-04
 -18.906  0.144E-04  0.144E-04
 -18.896  0.143E-04  0.143E-04
 -18.886  0.142E-04  0.142E-04
 -18.876  0.141E-04  0.141E-04
 -18.866  0.140E-04  0.140E-04
 -18.856  0.139E-04  0.139E-04
 -18.846  0.138E-04  0.138E-04
 -18.836  0.137E-04  0.137E-04
 -18.826  0.135E-04  0.135E-04
 -18.816  0.134E-04  0.134E-04
 -18.806  0.132E-04  0.132E-04
 -18.796  0.130E-04  0.130E-04
 -18.786  0.128E-04  0.128E-04
 -18.776  0.127E-04  0.127E-04
 -18.766  0.125E-04  0.125E-04
 -18.756  0.122E-04  0.122E-04
 -18.746  0.120E-04  0.120E-04
 -18.736  0.118E-04  0.118E-04
 -18.726  0.116E-04  0.116E-04
 -18.716  0.113E-04  0.113E-04
 -18.706  0.111E-04  0.111E-04
 -18.696  0.108E-04  0.108E-04
 -18.686  0.106E-04  0.106E-04
 -18.676  0.103E-04  0.103E-04
 -18.666  0.100E-04  0.100E-04
 -18.656  0.977E-05  0.977E-05
 -18.646  0.950E-05  0.950E-05
 -18.636  0.922E-05  0.922E-05
 -18.626  0.894E-05  0.894E-05
 -18.616  0.865E-05  0.865E-05
 -18.606  0.836E-05  0.836E-05
 -18.596  0.807E-05  0.807E-05
 -18.586  0.778E-05  0.778E-05
 -18.576  0.749E-05  0.749E-05
 -18.566  0.720E-05  0.720E-05
 -18.556  0.690E-05  0.690E-05
 -18.546  0.661E-05  0.661E-05
 -18.536  0.631E-05  0.631E-05
 -18.526  0.602E-05  0.602E-05
 -18.516  0.573E-05  0.573E-05
 -18.506  0.543E-05  0.543E-05
 -18.496  0.514E-05  0.514E-05
 -18.486  0.485E-05  0.485E-05
 -18.476  0.456E-05  0.456E-05
 -18.466  0.428E-05  0.428E-05
 -18.456  0.399E-05  0.399E-05
 -18.446  0.371E-05  0.371E-05
 -18.436  0.343E-05  0.343E-05
 -18.426  0.315E-05  0.315E-05
 -18.416  0.288E-05  0.288E-05
 -18.406  0.261E-05  0.261E-05
 -18.396  0.234E-05  0.234E-05
 -18.386  0.208E-05  0.208E-05
 -18.376  0.182E-05  0.182E-05
 -18.366  0.157E-05  0.157E-05
 -18.356  0.131E-05  0.131E-05
 -18.346  0.107E-05  0.107E-05
 -18.336  0.821E-06  0.821E-06
 -18.326  0.581E-06  0.581E-06
 -18.316  0.345E-06  0.345E-06
 -18.306  0.114E-06  0.114E-06
 -18.296 -0.113E-06 -0.113E-06
 -18.286 -0.336E-06 -0.336E-06
 -18.276 -0.554E-06 -0.554E-06
 -18.266 -0.768E-06 -0.768E-06
 -18.256 -0.977E-06 -0.977E-06
 -18.246 -0.118E-05 -0.118E-05
 -18.236 -0.138E-05 -0.138E-05
 -18.226 -0.158E-05 -0.158E-05
 -18.216 -0.177E-05 -0.177E-05
 -18.206 -0.195E-05 -0.195E-05
 -18.196 -0.213E-05 -0.213E-05
 -18.186 -0.231E-05 -0.231E-05
 -18.176 -0.248E-05 -0.248E-05
 -18.166 -0.264E-05 -0.264E-05
 -18.156 -0.280E-05 -0.280E-05
 -18.146 -0.296E-05 -0.296E-05
 -18.136 -0.311E-05 -0.311E-05
 -18.126 -0.325E-05 -0.325E-05
 -18.116 -0.339E-05 -0.339E-05
 -18.106 -0.352E-05 -0.352E-05
 -18.096 -0.365E-05 -0.365E-05
 -18.086 -0.377E-05 -0.377E-05
 -18.076 -0.388E-05 -0.388E-05
 -18.066 -0.399E-05 -0.399E-05
 -18.056 -0.409E-05 -0.409E-05
 -18.046 -0.418E-05 -0.418E-05
 -18.036 -0.427E-05 -0.427E-05
 -18.026 -0.435E-05 -0.435E-05
 -18.016 -0.442E-05 -0.442E-05
 -18.006 -0.448E-05 -0.448E-05
 -17.996 -0.454E-05 -0.454E-05
 -17.986 -0.459E-05 -0.459E-05
 -17.976 -0.463E-05 -0.463E-05
 -17.966 -0.466E-05 -0.466E-05
 -17.956 -0.468E-05 -0.468E-05
 -17.946 -0.469E-05 -0.469E-05
 -17.936 -0.469E-05 -0.469E-05
 -17.926 -0.468E-05 -0.468E-05
 -17.916 -0.466E-05 -0.466E-05
 -17.906 -0.462E-05 -0.462E-05
 -17.896 -0.458E-05 -0.458E-05
 -17.886 -0.452E-05 -0.452E-05
 -17.876 -0.445E-05 -0.445E-05
 -17.866 -0.437E-05 -0.437E-05
 -17.856 -0.427E-05 -0.427E-05
 -17.846 -0.416E-05 -0.416E-05
 -17.836 -0.404E-05 -0.404E-05
 -17.826 -0.389E-05 -0.389E-05
 -17.816 -0.374E-05 -0.374E-05
 -17.806 -0.356E-05 -0.356E-05
 -17.796 -0.337E-05 -0.337E-05
 -17.786 -0.317E-05 -0.317E-05
 -17.776 -0.294E-05 -0.294E-05
 -17.766 -0.270E-05 -0.270E-05
 -17.756 -0.244E-05 -0.244E-05
 -17.746 -0.216E-05 -0.216E-05
 -17.736 -0.186E-05 -0.186E-05
 -17.726 -0.153E-05 -0.153E-05
 -17.716 -0.119E-05 -0.119E-05
 -17.706 -0.828E-06 -0.828E-06
 -17.696 -0.443E-06 -0.443E-06
 -17.686 -0.364E-07 -0.364E-07
 -17.676  0.393E-06  0.393E-06
 -17.666  0.845E-06  0.845E-06
 -17.656  0.132E-05  0.132E-05
 -17.646  0.182E-05  0.182E-05
 -17.636  0.234E-05  0.234E-05
 -17.626  0.289E-05  0.289E-05
 -17.616  0.346E-05  0.346E-05
 -17.606  0.406E-05  0.406E-05
 -17.596  0.468E-05  0.468E-05
 -17.586  0.532E-05  0.532E-05
 -17.576  0.599E-05  0.599E-05
 -17.566  0.668E-05  0.668E-05
 -17.556  0.740E-05  0.740E-05
 -17.546  0.815E-05  0.815E-05
 -17.536  0.891E-05  0.891E-05
 -17.526  0.971E-05  0.971E-05
 -17.516  0.105E-04  0.105E-04
 -17.506  0.114E-04  0.114E-04
 -17.496  0.122E-04  0.122E-04
 -17.486  0.131E-04  0.131E-04
 -17.476  0.140E-04  0.140E-04
 -17.466  0.150E-04  0.150E-04
 -17.456  0.159E-04  0.159E-04
 -17.446  0.169E-04  0.169E-04
 -17.436  0.179E-04  0.179E-04
 -17.426  0.189E-04  0.189E-04
 -17.416  0.199E-04  0.199E-04
 -17.406  0.210E-04  0.210E-04
 -17.396  0.221E-04  0.221E-04
 -17.386  0.232E-04  0.232E-04
 -17.376  0.243E-04  0.243E-04
 -17.366  0.254E-04  0.254E-04
 -17.356  0.265E-04  0.265E-04
 -17.346  0.276E-04  0.276E-04
 -17.336  0.288E-04  0.288E-04
 -17.326  0.300E-04  0.300E-04
 -17.316  0.311E-04  0.311E-04
 -17.306  0.323E-04  0.323E-04
 -17.296  0.335E-04  0.335E-04
 -17.286  0.347E-04  0.347E-04
 -17.276  0.359E-04  0.359E-04
 -17.266  0.371E-04  0.371E-04
 -17.256  0.383E-04  0.383E-04
 -17.246  0.395E-04  0.395E-04
 -17.236  0.407E-04  0.407E-04
 -17.226  0.419E-04  0.419E-04
 -17.216  0.430E-04  0.430E-04
 -17.206  0.442E-04  0.442E-04
 -17.196  0.454E-04  0.454E-04
 -17.186  0.465E-04  0.465E-04
 -17.176  0.477E-04  0.477E-04
 -17.166  0.488E-04  0.488E-04
 -17.156  0.499E-04  0.499E-04
 -17.146  0.510E-04  0.510E-04
 -17.136  0.521E-04  0.521E-04
 -17.126  0.531E-04  0.531E-04
 -17.116  0.542E-04  0.542E-04
 -17.106  0.552E-04  0.552E-04
 -17.096  0.562E-04  0.562E-04
 -17.086  0.571E-04  0.571E-04
 -17.076  0.580E-04  0.580E-04
 -17.066  0.589E-04  0.589E-04
 -17.056  0.598E-04  0.598E-04
 -17.046  0.607E-04  0.607E-04
 -17.036  0.615E-04  0.615E-04
 -17.026  0.622E-04  0.622E-04
 -17.016  0.630E-04  0.630E-04
 -17.006  0.637E-04  0.637E-04
 -16.996  0.643E-04  0.643E-04
 -16.986  0.650E-04  0.650E-04
 -16.976  0.655E-04  0.655E-04
 -16.966  0.661E-04  0.661E-04
 -16.956  0.666E-04  0.666E-04
 -16.946  0.670E-04  0.670E-04
 -16.936  0.675E-04  0.675E-04
 -16.926  0.678E-04  0.678E-04
 -16.916  0.682E-04  0.682E-04
 -16.906  0.685E-04  0.685E-04
 -16.896  0.687E-04  0.687E-04
 -16.886  0.689E-04  0.689E-04
 -16.876  0.691E-04  0.691E-04
 -16.866  0.692E-04  0.692E-04
 -16.856  0.693E-04  0.693E-04
 -16.846  0.693E-04  0.693E-04
 -16.836  0.693E-04  0.693E-04
 -16.826  0.693E-04  0.693E-04
 -16.816  0.692E-04  0.692E-04
 -16.806  0.690E-04  0.690E-04
 -16.796  0.688E-04  0.688E-04
 -16.786  0.686E-04  0.686E-04
 -16.776  0.684E-04  0.684E-04
 -16.766  0.681E-04  0.681E-04
 -16.756  0.677E-04  0.677E-04
 -16.746  0.673E-04  0.673E-04
 -16.736  0.669E-04  0.669E-04
 -16.726  0.665E-04  0.665E-04
 -16.716  0.660E-04  0.660E-04
 -16.706  0.655E-04  0.655E-04
 -16.696  0.649E-04  0.649E-04
 -16.686  0.644E-04  0.644E-04
 -16.676  0.637E-04  0.637E-04
 -16.666  0.631E-04  0.631E-04
 -16.656  0.624E-04  0.624E-04
 -16.646  0.618E-04  0.618E-04
 -16.636  0.610E-04  0.610E-04
 -16.626  0.603E-04  0.603E-04
 -16.616  0.595E-04  0.595E-04
 -16.606  0.588E-04  0.588E-04
 -16.596  0.580E-04  0.580E-04
 -16.586  0.571E-04  0.571E-04
 -16.576  0.563E-04  0.563E-04
 -16.566  0.554E-04  0.554E-04
 -16.556  0.546E-04  0.546E-04
 -16.546  0.537E-04  0.537E-04
 -16.536  0.528E-04  0.528E-04
 -16.526  0.519E-04  0.519E-04
 -16.516  0.510E-04  0.510E-04
 -16.506  0.501E-04  0.501E-04
 -16.496  0.492E-04  0.492E-04
 -16.486  0.483E-04  0.483E-04
 -16.476  0.474E-04  0.474E-04
 -16.466  0.465E-04  0.465E-04
 -16.456  0.455E-04  0.455E-04
 -16.446  0.446E-04  0.446E-04
 -16.436  0.437E-04  0.437E-04
 -16.426  0.428E-04  0.428E-04
 -16.416  0.419E-04  0.419E-04
 -16.406  0.410E-04  0.410E-04
 -16.396  0.401E-04  0.401E-04
 -16.386  0.392E-04  0.392E-04
 -16.376  0.383E-04  0.383E-04
 -16.366  0.374E-04  0.374E-04
 -16.356  0.366E-04  0.366E-04
 -16.346  0.357E-04  0.357E-04
 -16.336  0.349E-04  0.349E-04
 -16.326  0.340E-04  0.340E-04
 -16.316  0.332E-04  0.332E-04
 -16.306  0.324E-04  0.324E-04
 -16.296  0.316E-04  0.316E-04
 -16.286  0.308E-04  0.308E-04
 -16.276  0.301E-04  0.301E-04
 -16.266  0.293E-04  0.293E-04
 -16.256  0.286E-04  0.286E-04
 -16.246  0.279E-04  0.279E-04
 -16.236  0.271E-04  0.271E-04
 -16.226  0.265E-04  0.265E-04
 -16.216  0.258E-04  0.258E-04
 -16.206  0.251E-04  0.251E-04
 -16.196  0.244E-04  0.244E-04
 -16.186  0.238E-04  0.238E-04
 -16.176  0.232E-04  0.232E-04
 -16.166  0.226E-04  0.226E-04
 -16.156  0.220E-04  0.220E-04
 -16.146  0.214E-04  0.214E-04
 -16.136  0.208E-04  0.208E-04
 -16.126  0.203E-04  0.203E-04
 -16.116  0.197E-04  0.197E-04
 -16.106  0.192E-04  0.192E-04
 -16.096  0.187E-04  0.187E-04
 -16.086  0.182E-04  0.182E-04
 -16.076  0.177E-04  0.177E-04
 -16.066  0.172E-04  0.172E-04
 -16.056  0.168E-04  0.168E-04
 -16.046  0.163E-04  0.163E-04
 -16.036  0.159E-04  0.159E-04
 -16.026  0.154E-04  0.154E-04
 -16.016  0.150E-04  0.150E-04
 -16.006  0.146E-04  0.146E-04
 -15.996  0.142E-04  0.142E-04
 -15.986  0.138E-04  0.138E-04
 -15.976  0.134E-04  0.134E-04
 -15.966  0.131E-04  0.131E-04
 -15.956  0.127E-04  0.127E-04
 -15.946  0.123E-04  0.123E-04
 -15.936  0.120E-04  0.120E-04
 -15.926  0.116E-04  0.116E-04
 -15.916  0.113E-04  0.113E-04
 -15.906  0.110E-04  0.110E-04
 -15.896  0.106E-04  0.106E-04
 -15.886  0.103E-04  0.103E-04
 -15.876  0.100E-04  0.100E-04
 -15.866  0.969E-05  0.969E-05
 -15.856  0.939E-05  0.939E-05
 -15.846  0.909E-05  0.909E-05
 -15.836  0.879E-05  0.879E-05
 -15.826  0.851E-05  0.851E-05
 -15.816  0.822E-05  0.822E-05
 -15.806  0.794E-05  0.794E-05
 -15.796  0.767E-05  0.767E-05
 -15.786  0.740E-05  0.740E-05
 -15.776  0.713E-05  0.713E-05
 -15.766  0.686E-05  0.686E-05
 -15.756  0.660E-05  0.660E-05
 -15.746  0.635E-05  0.635E-05
 -15.736  0.609E-05  0.609E-05
 -15.726  0.584E-05  0.584E-05
 -15.716  0.560E-05  0.560E-05
 -15.706  0.535E-05  0.535E-05
 -15.696  0.511E-05  0.511E-05
 -15.686  0.488E-05  0.488E-05
 -15.676  0.464E-05  0.464E-05
 -15.666  0.441E-05  0.441E-05
 -15.656  0.419E-05  0.419E-05
 -15.646  0.396E-05  0.396E-05
 -15.636  0.374E-05  0.374E-05
 -15.626  0.352E-05  0.352E-05
 -15.616  0.331E-05  0.331E-05
 -15.606  0.310E-05  0.310E-05
 -15.596  0.289E-05  0.289E-05
 -15.586  0.268E-05  0.268E-05
 -15.576  0.248E-05  0.248E-05
 -15.566  0.228E-05  0.228E-05
 -15.556  0.208E-05  0.208E-05
 -15.546  0.189E-05  0.189E-05
 -15.536  0.170E-05  0.170E-05
 -15.526  0.151E-05  0.151E-05
 -15.516  0.132E-05  0.132E-05
 -15.506  0.114E-05  0.114E-05
 -15.496  0.962E-06  0.962E-06
 -15.486  0.786E-06  0.786E-06
 -15.476  0.612E-06  0.612E-06
 -15.466  0.441E-06  0.441E-06
 -15.456  0.273E-06  0.273E-06
 -15.446  0.108E-06  0.108E-06
 -15.436 -0.546E-07 -0.546E-07
 -15.426 -0.215E-06 -0.215E-06
 -15.416 -0.372E-06 -0.372E-06
 -15.406 -0.527E-06 -0.527E-06
 -15.396 -0.679E-06 -0.679E-06
 -15.386 -0.829E-06 -0.829E-06
 -15.376 -0.977E-06 -0.977E-06
 -15.366 -0.112E-05 -0.112E-05
 -15.356 -0.127E-05 -0.127E-05
 -15.346 -0.141E-05 -0.141E-05
 -15.336 -0.155E-05 -0.155E-05
 -15.326 -0.168E-05 -0.168E-05
 -15.316 -0.182E-05 -0.182E-05
 -15.306 -0.195E-05 -0.195E-05
 -15.296 -0.208E-05 -0.208E-05
 -15.286 -0.222E-05 -0.222E-05
 -15.276 -0.234E-05 -0.234E-05
 -15.266 -0.247E-05 -0.247E-05
 -15.256 -0.260E-05 -0.260E-05
 -15.246 -0.272E-05 -0.272E-05
 -15.236 -0.285E-05 -0.285E-05
 -15.226 -0.297E-05 -0.297E-05
 -15.216 -0.309E-05 -0.309E-05
 -15.206 -0.321E-05 -0.321E-05
 -15.196 -0.333E-05 -0.333E-05
 -15.186 -0.345E-05 -0.345E-05
 -15.176 -0.356E-05 -0.356E-05
 -15.166 -0.368E-05 -0.368E-05
 -15.156 -0.380E-05 -0.380E-05
 -15.146 -0.391E-05 -0.391E-05
 -15.136 -0.402E-05 -0.402E-05
 -15.126 -0.414E-05 -0.414E-05
 -15.116 -0.425E-05 -0.425E-05
 -15.106 -0.436E-05 -0.436E-05
 -15.096 -0.447E-05 -0.447E-05
 -15.086 -0.457E-05 -0.457E-05
 -15.076 -0.468E-05 -0.468E-05
 -15.066 -0.478E-05 -0.478E-05
 -15.056 -0.489E-05 -0.489E-05
 -15.046 -0.499E-05 -0.499E-05
 -15.036 -0.509E-05 -0.509E-05
 -15.026 -0.519E-05 -0.519E-05
 -15.016 -0.528E-05 -0.528E-05
 -15.006 -0.537E-05 -0.537E-05
 -14.996 -0.546E-05 -0.546E-05
 -14.986 -0.555E-05 -0.555E-05
 -14.976 -0.563E-05 -0.563E-05
 -14.966 -0.571E-05 -0.571E-05
 -14.956 -0.578E-05 -0.578E-05
 -14.946 -0.585E-05 -0.585E-05
 -14.936 -0.591E-05 -0.591E-05
 -14.926 -0.597E-05 -0.597E-05
 -14.916 -0.603E-05 -0.603E-05
 -14.906 -0.607E-05 -0.607E-05
 -14.896 -0.611E-05 -0.611E-05
 -14.886 -0.615E-05 -0.615E-05
 -14.876 -0.617E-05 -0.617E-05
 -14.866 -0.619E-05 -0.619E-05
 -14.856 -0.619E-05 -0.619E-05
 -14.846 -0.619E-05 -0.619E-05
 -14.836 -0.618E-05 -0.618E-05
 -14.826 -0.616E-05 -0.616E-05
 -14.816 -0.612E-05 -0.612E-05
 -14.806 -0.608E-05 -0.608E-05
 -14.796 -0.602E-05 -0.602E-05
 -14.786 -0.595E-05 -0.595E-05
 -14.776 -0.586E-05 -0.586E-05
 -14.766 -0.576E-05 -0.576E-05
 -14.756 -0.564E-05 -0.564E-05
 -14.746 -0.551E-05 -0.551E-05
 -14.736 -0.536E-05 -0.536E-05
 -14.726 -0.520E-05 -0.520E-05
 -14.716 -0.501E-05 -0.501E-05
 -14.706 -0.481E-05 -0.481E-05
 -14.696 -0.459E-05 -0.459E-05
 -14.686 -0.434E-05 -0.434E-05
 -14.676 -0.408E-05 -0.408E-05
 -14.666 -0.379E-05 -0.379E-05
 -14.656 -0.349E-05 -0.349E-05
 -14.646 -0.316E-05 -0.316E-05
 -14.636 -0.280E-05 -0.280E-05
 -14.626 -0.242E-05 -0.242E-05
 -14.616 -0.202E-05 -0.202E-05
 -14.606 -0.159E-05 -0.159E-05
 -14.596 -0.114E-05 -0.114E-05
 -14.586 -0.657E-06 -0.657E-06
 -14.576 -0.149E-06 -0.149E-06
 -14.566  0.385E-06  0.385E-06
 -14.556  0.948E-06  0.948E-06
 -14.546  0.154E-05  0.154E-05
 -14.536  0.216E-05  0.216E-05
 -14.526  0.281E-05  0.281E-05
 -14.516  0.348E-05  0.348E-05
 -14.506  0.419E-05  0.419E-05
 -14.496  0.493E-05  0.493E-05
 -14.486  0.569E-05  0.569E-05
 -14.476  0.649E-05  0.649E-05
 -14.466  0.731E-05  0.731E-05
 -14.456  0.817E-05  0.817E-05
 -14.446  0.905E-05  0.905E-05
 -14.436  0.996E-05  0.996E-05
 -14.426  0.109E-04  0.109E-04
 -14.416  0.119E-04  0.119E-04
 -14.406  0.129E-04  0.129E-04
 -14.396  0.139E-04  0.139E-04
 -14.386  0.150E-04  0.150E-04
 -14.376  0.160E-04  0.160E-04
 -14.366  0.172E-04  0.172E-04
 -14.356  0.183E-04  0.183E-04
 -14.346  0.195E-04  0.195E-04
 -14.336  0.206E-04  0.206E-04
 -14.326  0.219E-04  0.219E-04
 -14.316  0.231E-04  0.231E-04
 -14.306  0.243E-04  0.243E-04
 -14.296  0.256E-04  0.256E-04
 -14.286  0.269E-04  0.269E-04
 -14.276  0.282E-04  0.282E-04
 -14.266  0.296E-04  0.296E-04
 -14.256  0.309E-04  0.309E-04
 -14.246  0.323E-04  0.323E-04
 -14.236  0.337E-04  0.337E-04
 -14.226  0.351E-04  0.351E-04
 -14.216  0.365E-04  0.365E-04
 -14.206  0.379E-04  0.379E-04
 -14.196  0.394E-04  0.394E-04
 -14.186  0.408E-04  0.408E-04
 -14.176  0.423E-04  0.423E-04
 -14.166  0.437E-04  0.437E-04
 -14.156  0.452E-04  0.452E-04
 -14.146  0.467E-04  0.467E-04
 -14.136  0.482E-04  0.482E-04
 -14.126  0.496E-04  0.496E-04
 -14.116  0.511E-04  0.511E-04
 -14.106  0.526E-04  0.526E-04
 -14.096  0.541E-04  0.541E-04
 -14.086  0.555E-04  0.555E-04
 -14.076  0.570E-04  0.570E-04
 -14.066  0.585E-04  0.585E-04
 -14.056  0.599E-04  0.599E-04
 -14.046  0.614E-04  0.614E-04
 -14.036  0.628E-04  0.628E-04
 -14.026  0.643E-04  0.643E-04
 -14.016  0.657E-04  0.657E-04
 -14.006  0.671E-04  0.671E-04
 -13.996  0.685E-04  0.685E-04
 -13.986  0.699E-04  0.699E-04
 -13.976  0.713E-04  0.713E-04
 -13.966  0.727E-04  0.727E-04
 -13.956  0.740E-04  0.740E-04
 -13.946  0.754E-04  0.754E-04
 -13.936  0.767E-04  0.767E-04
 -13.926  0.780E-04  0.780E-04
 -13.916  0.793E-04  0.793E-04
 -13.906  0.806E-04  0.806E-04
 -13.896  0.819E-04  0.819E-04
 -13.886  0.832E-04  0.832E-04
 -13.876  0.844E-04  0.844E-04
 -13.866  0.857E-04  0.857E-04
 -13.856  0.869E-04  0.869E-04
 -13.846  0.881E-04  0.881E-04
 -13.836  0.894E-04  0.894E-04
 -13.826  0.906E-04  0.906E-04
 -13.816  0.917E-04  0.917E-04
 -13.806  0.929E-04  0.929E-04
 -13.796  0.941E-04  0.941E-04
 -13.786  0.953E-04  0.953E-04
 -13.776  0.965E-04  0.965E-04
 -13.766  0.976E-04  0.976E-04
 -13.756  0.988E-04  0.988E-04
 -13.746  0.100E-03  0.100E-03
 -13.736  0.101E-03  0.101E-03
 -13.726  0.102E-03  0.102E-03
 -13.716  0.103E-03  0.103E-03
 -13.706  0.105E-03  0.105E-03
 -13.696  0.106E-03  0.106E-03
 -13.686  0.107E-03  0.107E-03
 -13.676  0.108E-03  0.108E-03
 -13.666  0.109E-03  0.109E-03
 -13.656  0.111E-03  0.111E-03
 -13.646  0.112E-03  0.112E-03
 -13.636  0.113E-03  0.113E-03
 -13.626  0.114E-03  0.114E-03
 -13.616  0.116E-03  0.116E-03
 -13.606  0.117E-03  0.117E-03
 -13.596  0.118E-03  0.118E-03
 -13.586  0.120E-03  0.120E-03
 -13.576  0.121E-03  0.121E-03
 -13.566  0.122E-03  0.122E-03
 -13.556  0.124E-03  0.124E-03
 -13.546  0.125E-03  0.125E-03
 -13.536  0.127E-03  0.127E-03
 -13.526  0.128E-03  0.128E-03
 -13.516  0.129E-03  0.129E-03
 -13.506  0.131E-03  0.131E-03
 -13.496  0.133E-03  0.133E-03
 -13.486  0.134E-03  0.134E-03
 -13.476  0.136E-03  0.136E-03
 -13.466  0.137E-03  0.137E-03
 -13.456  0.139E-03  0.139E-03
 -13.446  0.141E-03  0.141E-03
 -13.436  0.142E-03  0.142E-03
 -13.426  0.144E-03  0.144E-03
 -13.416  0.146E-03  0.146E-03
 -13.406  0.147E-03  0.147E-03
 -13.396  0.149E-03  0.149E-03
 -13.386  0.151E-03  0.151E-03
 -13.376  0.153E-03  0.153E-03
 -13.366  0.154E-03  0.154E-03
 -13.356  0.156E-03  0.156E-03
 -13.346  0.158E-03  0.158E-03
 -13.336  0.160E-03  0.160E-03
 -13.326  0.162E-03  0.162E-03
 -13.316  0.163E-03  0.163E-03
 -13.306  0.165E-03  0.165E-03
 -13.296  0.167E-03  0.167E-03
 -13.286  0.169E-03  0.169E-03
 -13.276  0.171E-03  0.171E-03
 -13.266  0.172E-03  0.172E-03
 -13.256  0.174E-03  0.174E-03
 -13.246  0.176E-03  0.176E-03
 -13.236  0.178E-03  0.178E-03
 -13.226  0.179E-03  0.179E-03
 -13.216  0.181E-03  0.181E-03
 -13.206  0.182E-03  0.182E-03
 -13.196  0.184E-03  0.184E-03
 -13.186  0.185E-03  0.185E-03
 -13.176  0.187E-03  0.187E-03
 -13.166  0.188E-03  0.188E-03
 -13.156  0.190E-03  0.190E-03
 -13.146  0.191E-03  0.191E-03
 -13.136  0.192E-03  0.192E-03
 -13.126  0.193E-03  0.193E-03
 -13.116  0.194E-03  0.194E-03
 -13.106  0.195E-03  0.195E-03
 -13.096  0.196E-03  0.196E-03
 -13.086  0.197E-03  0.197E-03
 -13.076  0.198E-03  0.198E-03
 -13.066  0.199E-03  0.199E-03
 -13.056  0.199E-03  0.199E-03
 -13.046  0.200E-03  0.200E-03
 -13.036  0.200E-03  0.200E-03
 -13.026  0.201E-03  0.201E-03
 -13.016  0.201E-03  0.201E-03
 -13.006  0.201E-03  0.201E-03
 -12.996  0.201E-03  0.201E-03
 -12.986  0.201E-03  0.201E-03
 -12.976  0.201E-03  0.201E-03
 -12.966  0.200E-03  0.200E-03
 -12.956  0.200E-03  0.200E-03
 -12.946  0.199E-03  0.199E-03
 -12.936  0.199E-03  0.199E-03
 -12.926  0.198E-03  0.198E-03
 -12.916  0.197E-03  0.197E-03
 -12.906  0.196E-03  0.196E-03
 -12.896  0.195E-03  0.195E-03
 -12.886  0.194E-03  0.194E-03
 -12.876  0.192E-03  0.192E-03
 -12.866  0.191E-03  0.191E-03
 -12.856  0.189E-03  0.189E-03
 -12.846  0.187E-03  0.187E-03
 -12.836  0.186E-03  0.186E-03
 -12.826  0.184E-03  0.184E-03
 -12.816  0.182E-03  0.182E-03
 -12.806  0.180E-03  0.180E-03
 -12.796  0.177E-03  0.177E-03
 -12.786  0.175E-03  0.175E-03
 -12.776  0.173E-03  0.173E-03
 -12.766  0.170E-03  0.170E-03
 -12.756  0.167E-03  0.167E-03
 -12.746  0.165E-03  0.165E-03
 -12.736  0.162E-03  0.162E-03
 -12.726  0.159E-03  0.159E-03
 -12.716  0.156E-03  0.156E-03
 -12.706  0.153E-03  0.153E-03
 -12.696  0.150E-03  0.150E-03
 -12.686  0.147E-03  0.147E-03
 -12.676  0.144E-03  0.144E-03
 -12.666  0.140E-03  0.140E-03
 -12.656  0.137E-03  0.137E-03
 -12.646  0.133E-03  0.133E-03
 -12.636  0.130E-03  0.130E-03
 -12.626  0.126E-03  0.126E-03
 -12.616  0.123E-03  0.123E-03
 -12.606  0.119E-03  0.119E-03
 -12.596  0.116E-03  0.116E-03
 -12.586  0.112E-03  0.112E-03
 -12.576  0.108E-03  0.108E-03
 -12.566  0.105E-03  0.105E-03
 -12.556  0.101E-03  0.101E-03
 -12.546  0.973E-04  0.973E-04
 -12.536  0.935E-04  0.935E-04
 -12.526  0.898E-04  0.898E-04
 -12.516  0.861E-04  0.861E-04
 -12.506  0.824E-04  0.824E-04
 -12.496  0.787E-04  0.787E-04
 -12.486  0.751E-04  0.751E-04
 -12.476  0.714E-04  0.714E-04
 -12.466  0.678E-04  0.678E-04
 -12.456  0.642E-04  0.642E-04
 -12.446  0.606E-04  0.606E-04
 -12.436  0.571E-04  0.571E-04
 -12.426  0.536E-04  0.536E-04
 -12.416  0.502E-04  0.502E-04
 -12.406  0.468E-04  0.468E-04
 -12.396  0.435E-04  0.435E-04
 -12.386  0.402E-04  0.402E-04
 -12.376  0.370E-04  0.370E-04
 -12.366  0.339E-04  0.339E-04
 -12.356  0.308E-04  0.308E-04
 -12.346  0.278E-04  0.278E-04
 -12.336  0.249E-04  0.249E-04
 -12.326  0.220E-04  0.220E-04
 -12.316  0.193E-04  0.193E-04
 -12.306  0.166E-04  0.166E-04
 -12.296  0.140E-04  0.140E-04
 -12.286  0.115E-04  0.115E-04
 -12.276  0.905E-05  0.905E-05
 -12.266  0.673E-05  0.673E-05
 -12.256  0.450E-05  0.450E-05
 -12.246  0.237E-05  0.237E-05
 -12.236  0.351E-06  0.351E-06
 -12.226 -0.157E-05 -0.157E-05
 -12.216 -0.338E-05 -0.338E-05
 -12.206 -0.509E-05 -0.509E-05
 -12.196 -0.668E-05 -0.668E-05
 -12.186 -0.816E-05 -0.816E-05
 -12.176 -0.952E-05 -0.952E-05
 -12.166 -0.108E-04 -0.108E-04
 -12.156 -0.119E-04 -0.119E-04
 -12.146 -0.129E-04 -0.129E-04
 -12.136 -0.138E-04 -0.138E-04
 -12.126 -0.146E-04 -0.146E-04
 -12.116 -0.152E-04 -0.152E-04
 -12.106 -0.157E-04 -0.157E-04
 -12.096 -0.161E-04 -0.161E-04
 -12.086 -0.164E-04 -0.164E-04
 -12.076 -0.165E-04 -0.165E-04
 -12.066 -0.165E-04 -0.165E-04
 -12.056 -0.164E-04 -0.164E-04
 -12.046 -0.161E-04 -0.161E-04
 -12.036 -0.157E-04 -0.157E-04
 -12.026 -0.152E-04 -0.152E-04
 -12.016 -0.145E-04 -0.145E-04
 -12.006 -0.137E-04 -0.137E-04
 -11.996 -0.127E-04 -0.127E-04
 -11.986 -0.117E-04 -0.117E-04
 -11.976 -0.104E-04 -0.104E-04
 -11.966 -0.908E-05 -0.908E-05
 -11.956 -0.758E-05 -0.758E-05
 -11.946 -0.595E-05 -0.595E-05
 -11.936 -0.418E-05 -0.418E-05
 -11.926 -0.227E-05 -0.227E-05
 -11.916 -0.223E-06 -0.223E-06
 -11.906  0.196E-05  0.196E-05
 -11.896  0.428E-05  0.428E-05
 -11.886  0.674E-05  0.674E-05
 -11.876  0.933E-05  0.933E-05
 -11.866  0.120E-04  0.120E-04
 -11.856  0.149E-04  0.149E-04
 -11.846  0.179E-04  0.179E-04
 -11.836  0.210E-04  0.210E-04
 -11.826  0.243E-04  0.243E-04
 -11.816  0.276E-04  0.276E-04
 -11.806  0.311E-04  0.311E-04
 -11.796  0.347E-04  0.347E-04
 -11.786  0.385E-04  0.385E-04
 -11.776  0.423E-04  0.423E-04
 -11.766  0.463E-04  0.463E-04
 -11.756  0.504E-04  0.504E-04
 -11.746  0.546E-04  0.546E-04
 -11.736  0.589E-04  0.589E-04
 -11.726  0.633E-04  0.633E-04
 -11.716  0.678E-04  0.678E-04
 -11.706  0.724E-04  0.724E-04
 -11.696  0.770E-04  0.770E-04
 -11.686  0.818E-04  0.818E-04
 -11.676  0.867E-04  0.867E-04
 -11.666  0.916E-04  0.916E-04
 -11.656  0.966E-04  0.966E-04
 -11.646  0.102E-03  0.102E-03
 -11.636  0.107E-03  0.107E-03
 -11.626  0.112E-03  0.112E-03
 -11.616  0.117E-03  0.117E-03
 -11.606  0.123E-03  0.123E-03
 -11.596  0.128E-03  0.128E-03
 -11.586  0.133E-03  0.133E-03
 -11.576  0.139E-03  0.139E-03
 -11.566  0.144E-03  0.144E-03
 -11.556  0.149E-03  0.149E-03
 -11.546  0.155E-03  0.155E-03
 -11.536  0.160E-03  0.160E-03
 -11.526  0.166E-03  0.166E-03
 -11.516  0.171E-03  0.171E-03
 -11.506  0.177E-03  0.177E-03
 -11.496  0.182E-03  0.182E-03
 -11.486  0.187E-03  0.187E-03
 -11.476  0.193E-03  0.193E-03
 -11.466  0.198E-03  0.198E-03
 -11.456  0.203E-03  0.203E-03
 -11.446  0.209E-03  0.209E-03
 -11.436  0.214E-03  0.214E-03
 -11.426  0.219E-03  0.219E-03
 -11.416  0.224E-03  0.224E-03
 -11.406  0.229E-03  0.229E-03
 -11.396  0.234E-03  0.234E-03
 -11.386  0.238E-03  0.238E-03
 -11.376  0.243E-03  0.243E-03
 -11.366  0.247E-03  0.247E-03
 -11.356  0.252E-03  0.252E-03
 -11.346  0.256E-03  0.256E-03
 -11.336  0.260E-03  0.260E-03
 -11.326  0.264E-03  0.264E-03
 -11.316  0.268E-03  0.268E-03
 -11.306  0.272E-03  0.272E-03
 -11.296  0.276E-03  0.276E-03
 -11.286  0.279E-03  0.279E-03
 -11.276  0.282E-03  0.282E-03
 -11.266  0.285E-03  0.285E-03
 -11.256  0.288E-03  0.288E-03
 -11.246  0.291E-03  0.291E-03
 -11.236  0.293E-03  0.293E-03
 -11.226  0.296E-03  0.296E-03
 -11.216  0.298E-03  0.298E-03
 -11.206  0.300E-03  0.300E-03
 -11.196  0.301E-03  0.301E-03
 -11.186  0.303E-03  0.303E-03
 -11.176  0.304E-03  0.304E-03
 -11.166  0.305E-03  0.305E-03
 -11.156  0.306E-03  0.306E-03
 -11.146  0.306E-03  0.306E-03
 -11.136  0.306E-03  0.306E-03
 -11.126  0.306E-03  0.306E-03
 -11.116  0.306E-03  0.306E-03
 -11.106  0.305E-03  0.305E-03
 -11.096  0.304E-03  0.304E-03
 -11.086  0.303E-03  0.303E-03
 -11.076  0.301E-03  0.301E-03
 -11.066  0.299E-03  0.299E-03
 -11.056  0.297E-03  0.297E-03
 -11.046  0.295E-03  0.295E-03
 -11.036  0.292E-03  0.292E-03
 -11.026  0.288E-03  0.288E-03
 -11.016  0.284E-03  0.284E-03
 -11.006  0.280E-03  0.280E-03
 -10.996  0.276E-03  0.276E-03
 -10.986  0.271E-03  0.271E-03
 -10.976  0.265E-03  0.265E-03
 -10.966  0.260E-03  0.260E-03
 -10.956  0.253E-03  0.253E-03
 -10.946  0.246E-03  0.246E-03
 -10.936  0.239E-03  0.239E-03
 -10.926  0.231E-03  0.231E-03
 -10.916  0.223E-03  0.223E-03
 -10.906  0.214E-03  0.214E-03
 -10.896  0.204E-03  0.204E-03
 -10.886  0.194E-03  0.194E-03
 -10.876  0.183E-03  0.183E-03
 -10.866  0.171E-03  0.171E-03
 -10.856  0.159E-03  0.159E-03
 -10.846  0.146E-03  0.146E-03
 -10.836  0.133E-03  0.133E-03
 -10.826  0.118E-03  0.118E-03
 -10.816  0.103E-03  0.103E-03
 -10.806  0.871E-04  0.871E-04
 -10.796  0.702E-04  0.702E-04
 -10.786  0.525E-04  0.525E-04
 -10.776  0.338E-04  0.338E-04
 -10.766  0.143E-04  0.143E-04
 -10.756 -0.626E-05 -0.626E-05
 -10.746 -0.278E-04 -0.278E-04
 -10.736 -0.503E-04 -0.503E-04
 -10.726 -0.739E-04 -0.739E-04
 -10.716 -0.986E-04 -0.986E-04
 -10.706 -0.124E-03 -0.124E-03
 -10.696 -0.151E-03 -0.151E-03
 -10.686 -0.180E-03 -0.180E-03
 -10.676 -0.209E-03 -0.209E-03
 -10.666 -0.240E-03 -0.240E-03
 -10.656 -0.271E-03 -0.271E-03
 -10.646 -0.305E-03 -0.305E-03
 -10.636 -0.339E-03 -0.339E-03
 -10.626 -0.375E-03 -0.375E-03
 -10.616 -0.412E-03 -0.412E-03
 -10.606 -0.451E-03 -0.451E-03
 -10.596 -0.491E-03 -0.491E-03
 -10.586 -0.532E-03 -0.532E-03
 -10.576 -0.575E-03 -0.575E-03
 -10.566 -0.619E-03 -0.619E-03
 -10.556 -0.665E-03 -0.665E-03
 -10.546 -0.713E-03 -0.713E-03
 -10.536 -0.761E-03 -0.761E-03
 -10.526 -0.812E-03 -0.812E-03
 -10.516 -0.864E-03 -0.864E-03
 -10.506 -0.917E-03 -0.917E-03
 -10.496 -0.972E-03 -0.972E-03
 -10.486 -0.103E-02 -0.103E-02
 -10.476 -0.109E-02 -0.109E-02
 -10.466 -0.114E-02 -0.114E-02
 -10.456 -0.121E-02 -0.121E-02
 -10.446 -0.127E-02 -0.127E-02
 -10.436 -0.133E-02 -0.133E-02
 -10.426 -0.139E-02 -0.139E-02
 -10.416 -0.146E-02 -0.146E-02
 -10.406 -0.153E-02 -0.153E-02
 -10.396 -0.159E-02 -0.159E-02
 -10.386 -0.166E-02 -0.166E-02
 -10.376 -0.173E-02 -0.173E-02
 -10.366 -0.180E-02 -0.180E-02
 -10.356 -0.188E-02 -0.188E-02
 -10.346 -0.195E-02 -0.195E-02
 -10.336 -0.202E-02 -0.202E-02
 -10.326 -0.209E-02 -0.209E-02
 -10.316 -0.217E-02 -0.217E-02
 -10.306 -0.224E-02 -0.224E-02
 -10.296 -0.231E-02 -0.231E-02
 -10.286 -0.238E-02 -0.238E-02
 -10.276 -0.246E-02 -0.246E-02
 -10.266 -0.253E-02 -0.253E-02
 -10.256 -0.260E-02 -0.260E-02
 -10.246 -0.267E-02 -0.267E-02
 -10.236 -0.273E-02 -0.273E-02
 -10.226 -0.280E-02 -0.280E-02
 -10.216 -0.287E-02 -0.287E-02
 -10.206 -0.293E-02 -0.293E-02
 -10.196 -0.299E-02 -0.299E-02
 -10.186 -0.305E-02 -0.305E-02
 -10.176 -0.310E-02 -0.310E-02
 -10.166 -0.315E-02 -0.315E-02
 -10.156 -0.320E-02 -0.320E-02
 -10.146 -0.324E-02 -0.324E-02
 -10.136 -0.328E-02 -0.328E-02
 -10.126 -0.332E-02 -0.332E-02
 -10.116 -0.335E-02 -0.335E-02
 -10.106 -0.337E-02 -0.337E-02
 -10.096 -0.339E-02 -0.339E-02
 -10.086 -0.340E-02 -0.340E-02
 -10.076 -0.341E-02 -0.341E-02
 -10.066 -0.341E-02 -0.341E-02
 -10.056 -0.340E-02 -0.340E-02
 -10.046 -0.338E-02 -0.338E-02
 -10.036 -0.335E-02 -0.335E-02
 -10.026 -0.332E-02 -0.332E-02
 -10.016 -0.327E-02 -0.327E-02
 -10.006 -0.322E-02 -0.322E-02
  -9.996 -0.315E-02 -0.315E-02
  -9.986 -0.308E-02 -0.308E-02
  -9.976 -0.299E-02 -0.299E-02
  -9.966 -0.289E-02 -0.289E-02
  -9.956 -0.278E-02 -0.278E-02
  -9.946 -0.265E-02 -0.265E-02
  -9.936 -0.251E-02 -0.251E-02
  -9.926 -0.236E-02 -0.236E-02
  -9.916 -0.219E-02 -0.219E-02
  -9.906 -0.201E-02 -0.201E-02
  -9.896 -0.181E-02 -0.181E-02
  -9.886 -0.160E-02 -0.160E-02
  -9.876 -0.137E-02 -0.137E-02
  -9.866 -0.112E-02 -0.112E-02
  -9.856 -0.853E-03 -0.853E-03
  -9.846 -0.568E-03 -0.568E-03
  -9.836 -0.266E-03 -0.266E-03
  -9.826  0.562E-04  0.562E-04
  -9.816  0.398E-03  0.398E-03
  -9.806  0.759E-03  0.759E-03
  -9.796  0.114E-02  0.114E-02
  -9.786  0.154E-02  0.154E-02
  -9.776  0.197E-02  0.197E-02
  -9.766  0.241E-02  0.241E-02
  -9.756  0.288E-02  0.288E-02
  -9.746  0.337E-02  0.337E-02
  -9.736  0.388E-02  0.388E-02
  -9.726  0.441E-02  0.441E-02
  -9.716  0.497E-02  0.497E-02
  -9.706  0.555E-02  0.555E-02
  -9.696  0.615E-02  0.615E-02
  -9.686  0.678E-02  0.678E-02
  -9.676  0.743E-02  0.743E-02
  -9.666  0.810E-02  0.810E-02
  -9.656  0.880E-02  0.880E-02
  -9.646  0.952E-02  0.952E-02
  -9.636  0.103E-01  0.103E-01
  -9.626  0.110E-01  0.110E-01
  -9.616  0.118E-01  0.118E-01
  -9.606  0.126E-01  0.126E-01
  -9.596  0.135E-01  0.135E-01
  -9.586  0.143E-01  0.143E-01
  -9.576  0.152E-01  0.152E-01
  -9.566  0.161E-01  0.161E-01
  -9.556  0.171E-01  0.171E-01
  -9.546  0.180E-01  0.180E-01
  -9.536  0.190E-01  0.190E-01
  -9.526  0.200E-01  0.200E-01
  -9.516  0.210E-01  0.210E-01
  -9.506  0.220E-01  0.220E-01
  -9.496  0.231E-01  0.231E-01
  -9.486  0.241E-01  0.241E-01
  -9.476  0.252E-01  0.252E-01
  -9.466  0.263E-01  0.263E-01
  -9.456  0.274E-01  0.274E-01
  -9.446  0.286E-01  0.286E-01
  -9.436  0.297E-01  0.297E-01
  -9.426  0.309E-01  0.309E-01
  -9.416  0.321E-01  0.321E-01
  -9.406  0.333E-01  0.333E-01
  -9.396  0.345E-01  0.345E-01
  -9.386  0.357E-01  0.357E-01
  -9.376  0.369E-01  0.369E-01
  -9.366  0.381E-01  0.381E-01
  -9.356  0.394E-01  0.394E-01
  -9.346  0.406E-01  0.406E-01
  -9.336  0.418E-01  0.418E-01
  -9.326  0.431E-01  0.431E-01
  -9.316  0.443E-01  0.443E-01
  -9.306  0.456E-01  0.456E-01
  -9.296  0.468E-01  0.468E-01
  -9.286  0.481E-01  0.481E-01
  -9.276  0.494E-01  0.494E-01
  -9.266  0.506E-01  0.506E-01
  -9.256  0.519E-01  0.519E-01
  -9.246  0.531E-01  0.531E-01
  -9.236  0.543E-01  0.543E-01
  -9.226  0.556E-01  0.556E-01
  -9.216  0.568E-01  0.568E-01
  -9.206  0.580E-01  0.580E-01
  -9.196  0.592E-01  0.592E-01
  -9.186  0.604E-01  0.604E-01
  -9.176  0.616E-01  0.616E-01
  -9.166  0.627E-01  0.627E-01
  -9.156  0.639E-01  0.639E-01
  -9.146  0.650E-01  0.650E-01
  -9.136  0.661E-01  0.661E-01
  -9.126  0.672E-01  0.672E-01
  -9.116  0.683E-01  0.683E-01
  -9.106  0.694E-01  0.694E-01
  -9.096  0.704E-01  0.704E-01
  -9.086  0.715E-01  0.715E-01
  -9.076  0.725E-01  0.725E-01
  -9.066  0.735E-01  0.735E-01
  -9.056  0.744E-01  0.744E-01
  -9.046  0.754E-01  0.754E-01
  -9.036  0.763E-01  0.763E-01
  -9.026  0.772E-01  0.772E-01
  -9.016  0.781E-01  0.781E-01
  -9.006  0.789E-01  0.789E-01
  -8.996  0.797E-01  0.797E-01
  -8.986  0.805E-01  0.805E-01
  -8.976  0.813E-01  0.813E-01
  -8.966  0.820E-01  0.820E-01
  -8.956  0.828E-01  0.828E-01
  -8.946  0.835E-01  0.835E-01
  -8.936  0.841E-01  0.841E-01
  -8.926  0.848E-01  0.848E-01
  -8.916  0.854E-01  0.854E-01
  -8.906  0.860E-01  0.860E-01
  -8.896  0.865E-01  0.865E-01
  -8.886  0.871E-01  0.871E-01
  -8.876  0.876E-01  0.876E-01
  -8.866  0.881E-01  0.881E-01
  -8.856  0.885E-01  0.885E-01
  -8.846  0.889E-01  0.889E-01
  -8.836  0.893E-01  0.893E-01
  -8.826  0.897E-01  0.897E-01
  -8.816  0.901E-01  0.901E-01
  -8.806  0.904E-01  0.904E-01
  -8.796  0.907E-01  0.907E-01
  -8.786  0.910E-01  0.910E-01
  -8.776  0.912E-01  0.912E-01
  -8.766  0.914E-01  0.914E-01
  -8.756  0.916E-01  0.916E-01
  -8.746  0.918E-01  0.918E-01
  -8.736  0.920E-01  0.920E-01
  -8.726  0.921E-01  0.921E-01
  -8.716  0.922E-01  0.922E-01
  -8.706  0.923E-01  0.923E-01
  -8.696  0.924E-01  0.924E-01
  -8.686  0.924E-01  0.924E-01
  -8.676  0.924E-01  0.924E-01
  -8.666  0.924E-01  0.924E-01
  -8.656  0.924E-01  0.924E-01
  -8.646  0.923E-01  0.923E-01
  -8.636  0.923E-01  0.923E-01
  -8.626  0.922E-01  0.922E-01
  -8.616  0.921E-01  0.921E-01
  -8.606  0.919E-01  0.919E-01
  -8.596  0.918E-01  0.918E-01
  -8.586  0.916E-01  0.916E-01
  -8.576  0.914E-01  0.914E-01
  -8.566  0.912E-01  0.912E-01
  -8.556  0.910E-01  0.910E-01
  -8.546  0.907E-01  0.907E-01
  -8.536  0.905E-01  0.905E-01
  -8.526  0.902E-01  0.902E-01
  -8.516  0.899E-01  0.899E-01
  -8.506  0.896E-01  0.896E-01
  -8.496  0.892E-01  0.892E-01
  -8.486  0.889E-01  0.889E-01
  -8.476  0.885E-01  0.885E-01
  -8.466  0.881E-01  0.881E-01
  -8.456  0.877E-01  0.877E-01
  -8.446  0.872E-01  0.872E-01
  -8.436  0.868E-01  0.868E-01
  -8.426  0.863E-01  0.863E-01
  -8.416  0.859E-01  0.859E-01
  -8.406  0.854E-01  0.854E-01
  -8.396  0.848E-01  0.848E-01
  -8.386  0.843E-01  0.843E-01
  -8.376  0.838E-01  0.838E-01
  -8.366  0.832E-01  0.832E-01
  -8.356  0.826E-01  0.826E-01
  -8.346  0.821E-01  0.821E-01
  -8.336  0.815E-01  0.815E-01
  -8.326  0.808E-01  0.808E-01
  -8.316  0.802E-01  0.802E-01
  -8.306  0.796E-01  0.796E-01
  -8.296  0.789E-01  0.789E-01
  -8.286  0.783E-01  0.783E-01
  -8.276  0.776E-01  0.776E-01
  -8.266  0.769E-01  0.769E-01
  -8.256  0.762E-01  0.762E-01
  -8.246  0.755E-01  0.755E-01
  -8.236  0.748E-01  0.748E-01
  -8.226  0.741E-01  0.741E-01
  -8.216  0.734E-01  0.734E-01
  -8.206  0.727E-01  0.727E-01
  -8.196  0.720E-01  0.720E-01
  -8.186  0.712E-01  0.712E-01
  -8.176  0.705E-01  0.705E-01
  -8.166  0.698E-01  0.698E-01
  -8.156  0.690E-01  0.690E-01
  -8.146  0.683E-01  0.683E-01
  -8.136  0.676E-01  0.676E-01
  -8.126  0.669E-01  0.669E-01
  -8.116  0.661E-01  0.661E-01
  -8.106  0.654E-01  0.654E-01
  -8.096  0.647E-01  0.647E-01
  -8.086  0.640E-01  0.640E-01
  -8.076  0.633E-01  0.633E-01
  -8.066  0.627E-01  0.627E-01
  -8.056  0.620E-01  0.620E-01
  -8.046  0.614E-01  0.614E-01
  -8.036  0.607E-01  0.607E-01
  -8.026  0.601E-01  0.601E-01
  -8.016  0.595E-01  0.595E-01
  -8.006  0.589E-01  0.589E-01
  -7.996  0.583E-01  0.583E-01
  -7.986  0.578E-01  0.578E-01
  -7.976  0.573E-01  0.573E-01
  -7.966  0.568E-01  0.568E-01
  -7.956  0.563E-01  0.563E-01
  -7.946  0.559E-01  0.559E-01
  -7.936  0.555E-01  0.555E-01
  -7.926  0.551E-01  0.551E-01
  -7.916  0.547E-01  0.547E-01
  -7.906  0.544E-01  0.544E-01
  -7.896  0.541E-01  0.541E-01
  -7.886  0.538E-01  0.538E-01
  -7.876  0.536E-01  0.536E-01
  -7.866  0.534E-01  0.534E-01
  -7.856  0.532E-01  0.532E-01
  -7.846  0.531E-01  0.531E-01
  -7.836  0.530E-01  0.530E-01
  -7.826  0.530E-01  0.530E-01
  -7.816  0.529E-01  0.529E-01
  -7.806  0.530E-01  0.530E-01
  -7.796  0.530E-01  0.530E-01
  -7.786  0.531E-01  0.531E-01
  -7.776  0.532E-01  0.532E-01
  -7.766  0.534E-01  0.534E-01
  -7.756  0.536E-01  0.536E-01
  -7.746  0.539E-01  0.539E-01
  -7.736  0.542E-01  0.542E-01
  -7.726  0.545E-01  0.545E-01
  -7.716  0.548E-01  0.548E-01
  -7.706  0.552E-01  0.552E-01
  -7.696  0.557E-01  0.557E-01
  -7.686  0.561E-01  0.561E-01
  -7.676  0.566E-01  0.566E-01
  -7.666  0.572E-01  0.572E-01
  -7.656  0.577E-01  0.577E-01
  -7.646  0.584E-01  0.584E-01
  -7.636  0.590E-01  0.590E-01
  -7.626  0.597E-01  0.597E-01
  -7.616  0.603E-01  0.603E-01
  -7.606  0.611E-01  0.611E-01
  -7.596  0.618E-01  0.618E-01
  -7.586  0.626E-01  0.626E-01
  -7.576  0.634E-01  0.634E-01
  -7.566  0.642E-01  0.642E-01
  -7.556  0.651E-01  0.651E-01
  -7.546  0.659E-01  0.659E-01
  -7.536  0.668E-01  0.668E-01
  -7.526  0.677E-01  0.677E-01
  -7.516  0.686E-01  0.686E-01
  -7.506  0.695E-01  0.695E-01
  -7.496  0.705E-01  0.705E-01
  -7.486  0.714E-01  0.714E-01
  -7.476  0.723E-01  0.723E-01
  -7.466  0.733E-01  0.733E-01
  -7.456  0.742E-01  0.742E-01
  -7.446  0.752E-01  0.752E-01
  -7.436  0.761E-01  0.761E-01
  -7.426  0.771E-01  0.771E-01
  -7.416  0.780E-01  0.780E-01
  -7.406  0.790E-01  0.790E-01
  -7.396  0.799E-01  0.799E-01
  -7.386  0.808E-01  0.808E-01
  -7.376  0.817E-01  0.817E-01
  -7.366  0.826E-01  0.826E-01
  -7.356  0.834E-01  0.834E-01
  -7.346  0.843E-01  0.843E-01
  -7.336  0.851E-01  0.851E-01
  -7.326  0.859E-01  0.859E-01
  -7.316  0.866E-01  0.866E-01
  -7.306  0.874E-01  0.874E-01
  -7.296  0.881E-01  0.881E-01
  -7.286  0.887E-01  0.887E-01
  -7.276  0.894E-01  0.894E-01
  -7.266  0.900E-01  0.900E-01
  -7.256  0.906E-01  0.906E-01
  -7.246  0.911E-01  0.911E-01
  -7.236  0.916E-01  0.916E-01
  -7.226  0.921E-01  0.921E-01
  -7.216  0.925E-01  0.925E-01
  -7.206  0.928E-01  0.928E-01
  -7.196  0.932E-01  0.932E-01
  -7.186  0.934E-01  0.934E-01
  -7.176  0.937E-01  0.937E-01
  -7.166  0.939E-01  0.939E-01
  -7.156  0.940E-01  0.940E-01
  -7.146  0.941E-01  0.941E-01
  -7.136  0.941E-01  0.941E-01
  -7.126  0.941E-01  0.941E-01
  -7.116  0.941E-01  0.941E-01
  -7.106  0.940E-01  0.940E-01
  -7.096  0.938E-01  0.938E-01
  -7.086  0.936E-01  0.936E-01
  -7.076  0.933E-01  0.933E-01
  -7.066  0.930E-01  0.930E-01
  -7.056  0.927E-01  0.927E-01
  -7.046  0.923E-01  0.923E-01
  -7.036  0.918E-01  0.918E-01
  -7.026  0.913E-01  0.913E-01
  -7.016  0.907E-01  0.907E-01
  -7.006  0.901E-01  0.901E-01
  -6.996  0.895E-01  0.895E-01
  -6.986  0.887E-01  0.887E-01
  -6.976  0.880E-01  0.880E-01
  -6.966  0.872E-01  0.872E-01
  -6.956  0.864E-01  0.864E-01
  -6.946  0.855E-01  0.855E-01
  -6.936  0.846E-01  0.846E-01
  -6.926  0.836E-01  0.836E-01
  -6.916  0.826E-01  0.826E-01
  -6.906  0.815E-01  0.815E-01
  -6.896  0.805E-01  0.805E-01
  -6.886  0.794E-01  0.794E-01
  -6.876  0.782E-01  0.782E-01
  -6.866  0.770E-01  0.770E-01
  -6.856  0.758E-01  0.758E-01
  -6.846  0.746E-01  0.746E-01
  -6.836  0.733E-01  0.733E-01
  -6.826  0.720E-01  0.720E-01
  -6.816  0.707E-01  0.707E-01
  -6.806  0.694E-01  0.694E-01
  -6.796  0.681E-01  0.681E-01
  -6.786  0.667E-01  0.667E-01
  -6.776  0.653E-01  0.653E-01
  -6.766  0.639E-01  0.639E-01
  -6.756  0.625E-01  0.625E-01
  -6.746  0.611E-01  0.611E-01
  -6.736  0.597E-01  0.597E-01
  -6.726  0.583E-01  0.583E-01
  -6.716  0.568E-01  0.568E-01
  -6.706  0.554E-01  0.554E-01
  -6.696  0.540E-01  0.540E-01
  -6.686  0.526E-01  0.526E-01
  -6.676  0.511E-01  0.511E-01
  -6.666  0.497E-01  0.497E-01
  -6.656  0.483E-01  0.483E-01
  -6.646  0.469E-01  0.469E-01
  -6.636  0.456E-01  0.456E-01
  -6.626  0.442E-01  0.442E-01
  -6.616  0.429E-01  0.429E-01
  -6.606  0.415E-01  0.415E-01
  -6.596  0.402E-01  0.402E-01
  -6.586  0.389E-01  0.389E-01
  -6.576  0.377E-01  0.377E-01
  -6.566  0.364E-01  0.364E-01
  -6.556  0.352E-01  0.352E-01
  -6.546  0.340E-01  0.340E-01
  -6.536  0.329E-01  0.329E-01
  -6.526  0.318E-01  0.318E-01
  -6.516  0.307E-01  0.307E-01
  -6.506  0.296E-01  0.296E-01
  -6.496  0.286E-01  0.286E-01
  -6.486  0.276E-01  0.276E-01
  -6.476  0.267E-01  0.267E-01
  -6.466  0.258E-01  0.258E-01
  -6.456  0.249E-01  0.249E-01
  -6.446  0.241E-01  0.241E-01
  -6.436  0.233E-01  0.233E-01
  -6.426  0.225E-01  0.225E-01
  -6.416  0.218E-01  0.218E-01
  -6.406  0.211E-01  0.211E-01
  -6.396  0.205E-01  0.205E-01
  -6.386  0.199E-01  0.199E-01
  -6.376  0.194E-01  0.194E-01
  -6.366  0.188E-01  0.188E-01
  -6.356  0.184E-01  0.184E-01
  -6.346  0.180E-01  0.180E-01
  -6.336  0.176E-01  0.176E-01
  -6.326  0.173E-01  0.173E-01
  -6.316  0.170E-01  0.170E-01
  -6.306  0.167E-01  0.167E-01
  -6.296  0.165E-01  0.165E-01
  -6.286  0.164E-01  0.164E-01
  -6.276  0.162E-01  0.162E-01
  -6.266  0.161E-01  0.161E-01
  -6.256  0.161E-01  0.161E-01
  -6.246  0.161E-01  0.161E-01
  -6.236  0.161E-01  0.161E-01
  -6.226  0.162E-01  0.162E-01
  -6.216  0.163E-01  0.163E-01
  -6.206  0.164E-01  0.164E-01
  -6.196  0.166E-01  0.166E-01
  -6.186  0.168E-01  0.168E-01
  -6.176  0.171E-01  0.171E-01
  -6.166  0.173E-01  0.173E-01
  -6.156  0.176E-01  0.176E-01
  -6.146  0.180E-01  0.180E-01
  -6.136  0.183E-01  0.183E-01
  -6.126  0.187E-01  0.187E-01
  -6.116  0.191E-01  0.191E-01
  -6.106  0.196E-01  0.196E-01
  -6.096  0.200E-01  0.200E-01
  -6.086  0.205E-01  0.205E-01
  -6.076  0.210E-01  0.210E-01
  -6.066  0.215E-01  0.215E-01
  -6.056  0.221E-01  0.221E-01
  -6.046  0.226E-01  0.226E-01
  -6.036  0.232E-01  0.232E-01
  -6.026  0.238E-01  0.238E-01
  -6.016  0.244E-01  0.244E-01
  -6.006  0.250E-01  0.250E-01
  -5.996  0.256E-01  0.256E-01
  -5.986  0.262E-01  0.262E-01
  -5.976  0.268E-01  0.268E-01
  -5.966  0.274E-01  0.274E-01
  -5.956  0.281E-01  0.281E-01
  -5.946  0.287E-01  0.287E-01
  -5.936  0.293E-01  0.293E-01
  -5.926  0.299E-01  0.299E-01
  -5.916  0.306E-01  0.306E-01
  -5.906  0.312E-01  0.312E-01
  -5.896  0.318E-01  0.318E-01
  -5.886  0.324E-01  0.324E-01
  -5.876  0.330E-01  0.330E-01
  -5.866  0.336E-01  0.336E-01
  -5.856  0.342E-01  0.342E-01
  -5.846  0.348E-01  0.348E-01
  -5.836  0.354E-01  0.354E-01
  -5.826  0.359E-01  0.359E-01
  -5.816  0.364E-01  0.364E-01
  -5.806  0.370E-01  0.370E-01
  -5.796  0.375E-01  0.375E-01
  -5.786  0.380E-01  0.380E-01
  -5.776  0.385E-01  0.385E-01
  -5.766  0.389E-01  0.389E-01
  -5.756  0.394E-01  0.394E-01
  -5.746  0.398E-01  0.398E-01
  -5.736  0.402E-01  0.402E-01
  -5.726  0.406E-01  0.406E-01
  -5.716  0.410E-01  0.410E-01
  -5.706  0.414E-01  0.414E-01
  -5.696  0.417E-01  0.417E-01
  -5.686  0.420E-01  0.420E-01
  -5.676  0.423E-01  0.423E-01
  -5.666  0.426E-01  0.426E-01
  -5.656  0.428E-01  0.428E-01
  -5.646  0.431E-01  0.431E-01
  -5.636  0.433E-01  0.433E-01
  -5.626  0.435E-01  0.435E-01
  -5.616  0.437E-01  0.437E-01
  -5.606  0.439E-01  0.439E-01
  -5.596  0.440E-01  0.440E-01
  -5.586  0.441E-01  0.441E-01
  -5.576  0.442E-01  0.442E-01
  -5.566  0.443E-01  0.443E-01
  -5.556  0.444E-01  0.444E-01
  -5.546  0.445E-01  0.445E-01
  -5.536  0.445E-01  0.445E-01
  -5.526  0.445E-01  0.445E-01
  -5.516  0.445E-01  0.445E-01
  -5.506  0.445E-01  0.445E-01
  -5.496  0.445E-01  0.445E-01
  -5.486  0.445E-01  0.445E-01
  -5.476  0.444E-01  0.444E-01
  -5.466  0.444E-01  0.444E-01
  -5.456  0.443E-01  0.443E-01
  -5.446  0.442E-01  0.442E-01
  -5.436  0.442E-01  0.442E-01
  -5.426  0.441E-01  0.441E-01
  -5.416  0.440E-01  0.440E-01
  -5.406  0.438E-01  0.438E-01
  -5.396  0.437E-01  0.437E-01
  -5.386  0.436E-01  0.436E-01
  -5.376  0.435E-01  0.435E-01
  -5.366  0.433E-01  0.433E-01
  -5.356  0.432E-01  0.432E-01
  -5.346  0.431E-01  0.431E-01
  -5.336  0.429E-01  0.429E-01
  -5.326  0.428E-01  0.428E-01
  -5.316  0.426E-01  0.426E-01
  -5.306  0.425E-01  0.425E-01
  -5.296  0.423E-01  0.423E-01
  -5.286  0.422E-01  0.422E-01
  -5.276  0.421E-01  0.421E-01
  -5.266  0.419E-01  0.419E-01
  -5.256  0.418E-01  0.418E-01
  -5.246  0.416E-01  0.416E-01
  -5.236  0.415E-01  0.415E-01
  -5.226  0.414E-01  0.414E-01
  -5.216  0.413E-01  0.413E-01
  -5.206  0.412E-01  0.412E-01
  -5.196  0.411E-01  0.411E-01
  -5.186  0.410E-01  0.410E-01
  -5.176  0.409E-01  0.409E-01
  -5.166  0.408E-01  0.408E-01
  -5.156  0.407E-01  0.407E-01
  -5.146  0.406E-01  0.406E-01
  -5.136  0.406E-01  0.406E-01
  -5.126  0.405E-01  0.405E-01
  -5.116  0.405E-01  0.405E-01
  -5.106  0.404E-01  0.404E-01
  -5.096  0.404E-01  0.404E-01
  -5.086  0.404E-01  0.404E-01
  -5.076  0.404E-01  0.404E-01
  -5.066  0.404E-01  0.404E-01
  -5.056  0.404E-01  0.404E-01
  -5.046  0.405E-01  0.405E-01
  -5.036  0.405E-01  0.405E-01
  -5.026  0.406E-01  0.406E-01
  -5.016  0.406E-01  0.406E-01
  -5.006  0.407E-01  0.407E-01
  -4.996  0.408E-01  0.408E-01
  -4.986  0.409E-01  0.409E-01
  -4.976  0.410E-01  0.410E-01
  -4.966  0.412E-01  0.412E-01
  -4.956  0.413E-01  0.413E-01
  -4.946  0.414E-01  0.414E-01
  -4.936  0.416E-01  0.416E-01
  -4.926  0.418E-01  0.418E-01
  -4.916  0.420E-01  0.420E-01
  -4.906  0.422E-01  0.422E-01
  -4.896  0.424E-01  0.424E-01
  -4.886  0.426E-01  0.426E-01
  -4.876  0.428E-01  0.428E-01
  -4.866  0.431E-01  0.431E-01
  -4.856  0.434E-01  0.434E-01
  -4.846  0.436E-01  0.436E-01
  -4.836  0.439E-01  0.439E-01
  -4.826  0.442E-01  0.442E-01
  -4.816  0.445E-01  0.445E-01
  -4.806  0.449E-01  0.449E-01
  -4.796  0.452E-01  0.452E-01
  -4.786  0.455E-01  0.455E-01
  -4.776  0.459E-01  0.459E-01
  -4.766  0.463E-01  0.463E-01
  -4.756  0.467E-01  0.467E-01
  -4.746  0.470E-01  0.470E-01
  -4.736  0.475E-01  0.475E-01
  -4.726  0.479E-01  0.479E-01
  -4.716  0.483E-01  0.483E-01
  -4.706  0.487E-01  0.487E-01
  -4.696  0.492E-01  0.492E-01
  -4.686  0.497E-01  0.497E-01
  -4.676  0.501E-01  0.501E-01
  -4.666  0.506E-01  0.506E-01
  -4.656  0.511E-01  0.511E-01
  -4.646  0.516E-01  0.516E-01
  -4.636  0.521E-01  0.521E-01
  -4.626  0.527E-01  0.527E-01
  -4.616  0.532E-01  0.532E-01
  -4.606  0.538E-01  0.538E-01
  -4.596  0.543E-01  0.543E-01
  -4.586  0.549E-01  0.549E-01
  -4.576  0.555E-01  0.555E-01
  -4.566  0.560E-01  0.560E-01
  -4.556  0.566E-01  0.566E-01
  -4.546  0.572E-01  0.572E-01
  -4.536  0.578E-01  0.578E-01
  -4.526  0.585E-01  0.585E-01
  -4.516  0.591E-01  0.591E-01
  -4.506  0.597E-01  0.597E-01
  -4.496  0.604E-01  0.604E-01
  -4.486  0.610E-01  0.610E-01
  -4.476  0.617E-01  0.617E-01
  -4.466  0.623E-01  0.623E-01
  -4.456  0.630E-01  0.630E-01
  -4.446  0.637E-01  0.637E-01
  -4.436  0.643E-01  0.643E-01
  -4.426  0.650E-01  0.650E-01
  -4.416  0.657E-01  0.657E-01
  -4.406  0.664E-01  0.664E-01
  -4.396  0.671E-01  0.671E-01
  -4.386  0.678E-01  0.678E-01
  -4.376  0.684E-01  0.684E-01
  -4.366  0.691E-01  0.691E-01
  -4.356  0.698E-01  0.698E-01
  -4.346  0.705E-01  0.705E-01
  -4.336  0.712E-01  0.712E-01
  -4.326  0.719E-01  0.719E-01
  -4.316  0.726E-01  0.726E-01
  -4.306  0.733E-01  0.733E-01
  -4.296  0.740E-01  0.740E-01
  -4.286  0.747E-01  0.747E-01
  -4.276  0.753E-01  0.753E-01
  -4.266  0.760E-01  0.760E-01
  -4.256  0.767E-01  0.767E-01
  -4.246  0.774E-01  0.774E-01
  -4.236  0.780E-01  0.780E-01
  -4.226  0.787E-01  0.787E-01
  -4.216  0.793E-01  0.793E-01
  -4.206  0.800E-01  0.800E-01
  -4.196  0.806E-01  0.806E-01
  -4.186  0.812E-01  0.812E-01
  -4.176  0.818E-01  0.818E-01
  -4.166  0.824E-01  0.824E-01
  -4.156  0.830E-01  0.830E-01
  -4.146  0.836E-01  0.836E-01
  -4.136  0.842E-01  0.842E-01
  -4.126  0.848E-01  0.848E-01
  -4.116  0.853E-01  0.853E-01
  -4.106  0.858E-01  0.858E-01
  -4.096  0.864E-01  0.864E-01
  -4.086  0.869E-01  0.869E-01
  -4.076  0.874E-01  0.874E-01
  -4.066  0.879E-01  0.879E-01
  -4.056  0.884E-01  0.884E-01
  -4.046  0.888E-01  0.888E-01
  -4.036  0.893E-01  0.893E-01
  -4.026  0.897E-01  0.897E-01
  -4.016  0.901E-01  0.901E-01
  -4.006  0.905E-01  0.905E-01
  -3.996  0.909E-01  0.909E-01
  -3.986  0.913E-01  0.913E-01
  -3.976  0.916E-01  0.916E-01
  -3.966  0.920E-01  0.920E-01
  -3.956  0.923E-01  0.923E-01
  -3.946  0.926E-01  0.926E-01
  -3.936  0.929E-01  0.929E-01
  -3.926  0.932E-01  0.932E-01
  -3.916  0.935E-01  0.935E-01
  -3.906  0.937E-01  0.937E-01
  -3.896  0.939E-01  0.939E-01
  -3.886  0.941E-01  0.941E-01
  -3.876  0.943E-01  0.943E-01
  -3.866  0.945E-01  0.945E-01
  -3.856  0.947E-01  0.947E-01
  -3.846  0.948E-01  0.948E-01
  -3.836  0.950E-01  0.950E-01
  -3.826  0.951E-01  0.951E-01
  -3.816  0.952E-01  0.952E-01
  -3.806  0.953E-01  0.953E-01
  -3.796  0.954E-01  0.954E-01
  -3.786  0.954E-01  0.954E-01
  -3.776  0.955E-01  0.955E-01
  -3.766  0.955E-01  0.955E-01
  -3.756  0.955E-01  0.955E-01
  -3.746  0.956E-01  0.956E-01
  -3.736  0.955E-01  0.955E-01
  -3.726  0.955E-01  0.955E-01
  -3.716  0.955E-01  0.955E-01
  -3.706  0.954E-01  0.954E-01
  -3.696  0.954E-01  0.954E-01
  -3.686  0.953E-01  0.953E-01
  -3.676  0.952E-01  0.952E-01
  -3.666  0.951E-01  0.951E-01
  -3.656  0.950E-01  0.950E-01
  -3.646  0.949E-01  0.949E-01
  -3.636  0.948E-01  0.948E-01
  -3.626  0.946E-01  0.946E-01
  -3.616  0.945E-01  0.945E-01
  -3.606  0.943E-01  0.943E-01
  -3.596  0.942E-01  0.942E-01
  -3.586  0.940E-01  0.940E-01
  -3.576  0.938E-01  0.938E-01
  -3.566  0.936E-01  0.936E-01
  -3.556  0.934E-01  0.934E-01
  -3.546  0.932E-01  0.932E-01
  -3.536  0.930E-01  0.930E-01
  -3.526  0.927E-01  0.927E-01
  -3.516  0.925E-01  0.925E-01
  -3.506  0.922E-01  0.922E-01
  -3.496  0.920E-01  0.920E-01
  -3.486  0.917E-01  0.917E-01
  -3.476  0.915E-01  0.915E-01
  -3.466  0.912E-01  0.912E-01
  -3.456  0.909E-01  0.909E-01
  -3.446  0.906E-01  0.906E-01
  -3.436  0.903E-01  0.903E-01
  -3.426  0.900E-01  0.900E-01
  -3.416  0.897E-01  0.897E-01
  -3.406  0.894E-01  0.894E-01
  -3.396  0.891E-01  0.891E-01
  -3.386  0.888E-01  0.888E-01
  -3.376  0.885E-01  0.885E-01
  -3.366  0.882E-01  0.882E-01
  -3.356  0.879E-01  0.879E-01
  -3.346  0.875E-01  0.875E-01
  -3.336  0.872E-01  0.872E-01
  -3.326  0.869E-01  0.869E-01
  -3.316  0.865E-01  0.865E-01
  -3.306  0.862E-01  0.862E-01
  -3.296  0.859E-01  0.859E-01
  -3.286  0.855E-01  0.855E-01
  -3.276  0.852E-01  0.852E-01
  -3.266  0.848E-01  0.848E-01
  -3.256  0.845E-01  0.845E-01
  -3.246  0.842E-01  0.842E-01
  -3.236  0.838E-01  0.838E-01
  -3.226  0.835E-01  0.835E-01
  -3.216  0.832E-01  0.832E-01
  -3.206  0.828E-01  0.828E-01
  -3.196  0.825E-01  0.825E-01
  -3.186  0.822E-01  0.822E-01
  -3.176  0.819E-01  0.819E-01
  -3.166  0.816E-01  0.816E-01
  -3.156  0.813E-01  0.813E-01
  -3.146  0.810E-01  0.810E-01
  -3.136  0.807E-01  0.807E-01
  -3.126  0.804E-01  0.804E-01
  -3.116  0.801E-01  0.801E-01
  -3.106  0.799E-01  0.799E-01
  -3.096  0.796E-01  0.796E-01
  -3.086  0.794E-01  0.794E-01
  -3.076  0.791E-01  0.791E-01
  -3.066  0.789E-01  0.789E-01
  -3.056  0.787E-01  0.787E-01
  -3.046  0.785E-01  0.785E-01
  -3.036  0.783E-01  0.783E-01
  -3.026  0.782E-01  0.782E-01
  -3.016  0.780E-01  0.780E-01
  -3.006  0.779E-01  0.779E-01
  -2.996  0.778E-01  0.778E-01
  -2.986  0.777E-01  0.777E-01
  -2.976  0.777E-01  0.777E-01
  -2.966  0.776E-01  0.776E-01
  -2.956  0.776E-01  0.776E-01
  -2.946  0.776E-01  0.776E-01
  -2.936  0.776E-01  0.776E-01
  -2.926  0.776E-01  0.776E-01
  -2.916  0.777E-01  0.777E-01
  -2.906  0.778E-01  0.778E-01
  -2.896  0.779E-01  0.779E-01
  -2.886  0.781E-01  0.781E-01
  -2.876  0.783E-01  0.783E-01
  -2.866  0.785E-01  0.785E-01
  -2.856  0.787E-01  0.787E-01
  -2.846  0.790E-01  0.790E-01
  -2.836  0.793E-01  0.793E-01
  -2.826  0.796E-01  0.796E-01
  -2.816  0.800E-01  0.800E-01
  -2.806  0.804E-01  0.804E-01
  -2.796  0.808E-01  0.808E-01
  -2.786  0.813E-01  0.813E-01
  -2.776  0.818E-01  0.818E-01
  -2.766  0.823E-01  0.823E-01
  -2.756  0.829E-01  0.829E-01
  -2.746  0.835E-01  0.835E-01
  -2.736  0.842E-01  0.842E-01
  -2.726  0.848E-01  0.848E-01
  -2.716  0.855E-01  0.855E-01
  -2.706  0.863E-01  0.863E-01
  -2.696  0.871E-01  0.871E-01
  -2.686  0.879E-01  0.879E-01
  -2.676  0.887E-01  0.887E-01
  -2.666  0.896E-01  0.896E-01
  -2.656  0.905E-01  0.905E-01
  -2.646  0.915E-01  0.915E-01
  -2.636  0.925E-01  0.925E-01
  -2.626  0.935E-01  0.935E-01
  -2.616  0.945E-01  0.945E-01
  -2.606  0.956E-01  0.956E-01
  -2.596  0.967E-01  0.967E-01
  -2.586  0.978E-01  0.978E-01
  -2.576  0.990E-01  0.990E-01
  -2.566  0.100E+00  0.100E+00
  -2.556  0.101E+00  0.101E+00
  -2.546  0.103E+00  0.103E+00
  -2.536  0.104E+00  0.104E+00
  -2.526  0.105E+00  0.105E+00
  -2.516  0.106E+00  0.106E+00
  -2.506  0.108E+00  0.108E+00
  -2.496  0.109E+00  0.109E+00
  -2.486  0.110E+00  0.110E+00
  -2.476  0.112E+00  0.112E+00
  -2.466  0.113E+00  0.113E+00
  -2.456  0.114E+00  0.114E+00
  -2.446  0.116E+00  0.116E+00
  -2.436  0.117E+00  0.117E+00
  -2.426  0.119E+00  0.119E+00
  -2.416  0.120E+00  0.120E+00
  -2.406  0.121E+00  0.121E+00
  -2.396  0.123E+00  0.123E+00
  -2.386  0.124E+00  0.124E+00
  -2.376  0.125E+00  0.125E+00
  -2.366  0.127E+00  0.127E+00
  -2.356  0.128E+00  0.128E+00
  -2.346  0.129E+00  0.129E+00
  -2.336  0.131E+00  0.131E+00
  -2.326  0.132E+00  0.132E+00
  -2.316  0.133E+00  0.133E+00
  -2.306  0.134E+00  0.134E+00
  -2.296  0.136E+00  0.136E+00
  -2.286  0.137E+00  0.137E+00
  -2.276  0.138E+00  0.138E+00
  -2.266  0.139E+00  0.139E+00
  -2.256  0.140E+00  0.140E+00
  -2.246  0.141E+00  0.141E+00
  -2.236  0.142E+00  0.142E+00
  -2.226  0.143E+00  0.143E+00
  -2.216  0.144E+00  0.144E+00
  -2.206  0.145E+00  0.145E+00
  -2.196  0.145E+00  0.145E+00
  -2.186  0.146E+00  0.146E+00
  -2.176  0.147E+00  0.147E+00
  -2.166  0.148E+00  0.148E+00
  -2.156  0.148E+00  0.148E+00
  -2.146  0.149E+00  0.149E+00
  -2.136  0.149E+00  0.149E+00
  -2.126  0.149E+00  0.149E+00
  -2.116  0.150E+00  0.150E+00
  -2.106  0.150E+00  0.150E+00
  -2.096  0.150E+00  0.150E+00
  -2.086  0.151E+00  0.151E+00
  -2.076  0.151E+00  0.151E+00
  -2.066  0.151E+00  0.151E+00
  -2.056  0.151E+00  0.151E+00
  -2.046  0.151E+00  0.151E+00
  -2.036  0.150E+00  0.150E+00
  -2.026  0.150E+00  0.150E+00
  -2.016  0.150E+00  0.150E+00
  -2.006  0.150E+00  0.150E+00
  -1.996  0.149E+00  0.149E+00
  -1.986  0.149E+00  0.149E+00
  -1.976  0.148E+00  0.148E+00
  -1.966  0.148E+00  0.148E+00
  -1.956  0.147E+00  0.147E+00
  -1.946  0.146E+00  0.146E+00
  -1.936  0.145E+00  0.145E+00
  -1.926  0.144E+00  0.144E+00
  -1.916  0.144E+00  0.144E+00
  -1.906  0.143E+00  0.143E+00
  -1.896  0.142E+00  0.142E+00
  -1.886  0.141E+00  0.141E+00
  -1.876  0.139E+00  0.139E+00
  -1.866  0.138E+00  0.138E+00
  -1.856  0.137E+00  0.137E+00
  -1.846  0.136E+00  0.136E+00
  -1.836  0.135E+00  0.135E+00
  -1.826  0.133E+00  0.133E+00
  -1.816  0.132E+00  0.132E+00
  -1.806  0.130E+00  0.130E+00
  -1.796  0.129E+00  0.129E+00
  -1.786  0.127E+00  0.127E+00
  -1.776  0.126E+00  0.126E+00
  -1.766  0.124E+00  0.124E+00
  -1.756  0.123E+00  0.123E+00
  -1.746  0.121E+00  0.121E+00
  -1.736  0.119E+00  0.119E+00
  -1.726  0.118E+00  0.118E+00
  -1.716  0.116E+00  0.116E+00
  -1.706  0.114E+00  0.114E+00
  -1.696  0.113E+00  0.113E+00
  -1.686  0.111E+00  0.111E+00
  -1.676  0.109E+00  0.109E+00
  -1.666  0.107E+00  0.107E+00
  -1.656  0.106E+00  0.106E+00
  -1.646  0.104E+00  0.104E+00
  -1.636  0.102E+00  0.102E+00
  -1.626  0.100E+00  0.100E+00
  -1.616  0.986E-01  0.986E-01
  -1.606  0.968E-01  0.968E-01
  -1.596  0.950E-01  0.950E-01
  -1.586  0.933E-01  0.933E-01
  -1.576  0.916E-01  0.916E-01
  -1.566  0.899E-01  0.899E-01
  -1.556  0.881E-01  0.881E-01
  -1.546  0.865E-01  0.865E-01
  -1.536  0.848E-01  0.848E-01
  -1.526  0.831E-01  0.831E-01
  -1.516  0.815E-01  0.815E-01
  -1.506  0.799E-01  0.799E-01
  -1.496  0.783E-01  0.783E-01
  -1.486  0.767E-01  0.767E-01
  -1.476  0.752E-01  0.752E-01
  -1.466  0.737E-01  0.737E-01
  -1.456  0.722E-01  0.722E-01
  -1.446  0.707E-01  0.707E-01
  -1.436  0.693E-01  0.693E-01
  -1.426  0.679E-01  0.679E-01
  -1.416  0.665E-01  0.665E-01
  -1.406  0.652E-01  0.652E-01
  -1.396  0.639E-01  0.639E-01
  -1.386  0.626E-01  0.626E-01
  -1.376  0.614E-01  0.614E-01
  -1.366  0.601E-01  0.601E-01
  -1.356  0.590E-01  0.590E-01
  -1.346  0.578E-01  0.578E-01
  -1.336  0.567E-01  0.567E-01
  -1.326  0.556E-01  0.556E-01
  -1.316  0.546E-01  0.546E-01
  -1.306  0.536E-01  0.536E-01
  -1.296  0.526E-01  0.526E-01
  -1.286  0.517E-01  0.517E-01
  -1.276  0.507E-01  0.507E-01
  -1.266  0.499E-01  0.499E-01
  -1.256  0.490E-01  0.490E-01
  -1.246  0.482E-01  0.482E-01
  -1.236  0.474E-01  0.474E-01
  -1.226  0.466E-01  0.466E-01
  -1.216  0.459E-01  0.459E-01
  -1.206  0.452E-01  0.452E-01
  -1.196  0.445E-01  0.445E-01
  -1.186  0.438E-01  0.438E-01
  -1.176  0.432E-01  0.432E-01
  -1.166  0.426E-01  0.426E-01
  -1.156  0.420E-01  0.420E-01
  -1.146  0.415E-01  0.415E-01
  -1.136  0.409E-01  0.409E-01
  -1.126  0.404E-01  0.404E-01
  -1.116  0.399E-01  0.399E-01
  -1.106  0.395E-01  0.395E-01
  -1.096  0.390E-01  0.390E-01
  -1.086  0.386E-01  0.386E-01
  -1.076  0.381E-01  0.381E-01
  -1.066  0.377E-01  0.377E-01
  -1.056  0.373E-01  0.373E-01
  -1.046  0.370E-01  0.370E-01
  -1.036  0.366E-01  0.366E-01
  -1.026  0.363E-01  0.363E-01
  -1.016  0.359E-01  0.359E-01
  -1.006  0.356E-01  0.356E-01
  -0.996  0.353E-01  0.353E-01
  -0.986  0.350E-01  0.350E-01
  -0.976  0.347E-01  0.347E-01
  -0.966  0.344E-01  0.344E-01
  -0.956  0.341E-01  0.341E-01
  -0.946  0.338E-01  0.338E-01
  -0.936  0.335E-01  0.335E-01
  -0.926  0.332E-01  0.332E-01
  -0.916  0.330E-01  0.330E-01
  -0.906  0.327E-01  0.327E-01
  -0.896  0.324E-01  0.324E-01
  -0.886  0.322E-01  0.322E-01
  -0.876  0.319E-01  0.319E-01
  -0.866  0.317E-01  0.317E-01
  -0.856  0.314E-01  0.314E-01
  -0.846  0.312E-01  0.312E-01
  -0.836  0.309E-01  0.309E-01
  -0.826  0.307E-01  0.307E-01
  -0.816  0.304E-01  0.304E-01
  -0.806  0.302E-01  0.302E-01
  -0.796  0.299E-01  0.299E-01
  -0.786  0.297E-01  0.297E-01
  -0.776  0.294E-01  0.294E-01
  -0.766  0.292E-01  0.292E-01
  -0.756  0.289E-01  0.289E-01
  -0.746  0.287E-01  0.287E-01
  -0.736  0.284E-01  0.284E-01
  -0.726  0.282E-01  0.282E-01
  -0.716  0.279E-01  0.279E-01
  -0.706  0.277E-01  0.277E-01
  -0.696  0.275E-01  0.275E-01
  -0.686  0.272E-01  0.272E-01
  -0.676  0.270E-01  0.270E-01
  -0.666  0.268E-01  0.268E-01
  -0.656  0.265E-01  0.265E-01
  -0.646  0.263E-01  0.263E-01
  -0.636  0.261E-01  0.261E-01
  -0.626  0.259E-01  0.259E-01
  -0.616  0.256E-01  0.256E-01
  -0.606  0.254E-01  0.254E-01
  -0.596  0.252E-01  0.252E-01
  -0.586  0.250E-01  0.250E-01
  -0.576  0.249E-01  0.249E-01
  -0.566  0.247E-01  0.247E-01
  -0.556  0.245E-01  0.245E-01
  -0.546  0.244E-01  0.244E-01
  -0.536  0.242E-01  0.242E-01
  -0.526  0.241E-01  0.241E-01
  -0.516  0.239E-01  0.239E-01
  -0.506  0.238E-01  0.238E-01
  -0.496  0.237E-01  0.237E-01
  -0.486  0.236E-01  0.236E-01
  -0.476  0.235E-01  0.235E-01
  -0.466  0.235E-01  0.235E-01
  -0.456  0.234E-01  0.234E-01
  -0.446  0.234E-01  0.234E-01
  -0.436  0.234E-01  0.234E-01
  -0.426  0.233E-01  0.233E-01
  -0.416  0.234E-01  0.234E-01
  -0.406  0.234E-01  0.234E-01
  -0.396  0.234E-01  0.234E-01
  -0.386  0.235E-01  0.235E-01
  -0.376  0.236E-01  0.236E-01
  -0.366  0.237E-01  0.237E-01
  -0.356  0.238E-01  0.238E-01
  -0.346  0.239E-01  0.239E-01
  -0.336  0.241E-01  0.241E-01
  -0.326  0.242E-01  0.242E-01
  -0.316  0.244E-01  0.244E-01
  -0.306  0.246E-01  0.246E-01
  -0.296  0.248E-01  0.248E-01
  -0.286  0.251E-01  0.251E-01
  -0.276  0.254E-01  0.254E-01
  -0.266  0.256E-01  0.256E-01
  -0.256  0.259E-01  0.259E-01
  -0.246  0.263E-01  0.263E-01
  -0.236  0.266E-01  0.266E-01
  -0.226  0.270E-01  0.270E-01
  -0.216  0.273E-01  0.273E-01
  -0.206  0.277E-01  0.277E-01
  -0.196  0.282E-01  0.282E-01
  -0.186  0.286E-01  0.286E-01
  -0.176  0.290E-01  0.290E-01
  -0.166  0.295E-01  0.295E-01
  -0.156  0.300E-01  0.300E-01
  -0.146  0.305E-01  0.305E-01
  -0.136  0.310E-01  0.310E-01
  -0.126  0.315E-01  0.315E-01
  -0.116  0.321E-01  0.321E-01
  -0.106  0.326E-01  0.326E-01
  -0.096  0.332E-01  0.332E-01
  -0.086  0.338E-01  0.338E-01
  -0.076  0.343E-01  0.343E-01
  -0.066  0.349E-01  0.349E-01
  -0.056  0.355E-01  0.355E-01
  -0.046  0.362E-01  0.362E-01
  -0.036  0.368E-01  0.368E-01
  -0.026  0.374E-01  0.374E-01
  -0.016  0.381E-01  0.381E-01
  -0.006  0.387E-01  0.387E-01
   0.004  0.394E-01  0.394E-01
   0.014  0.400E-01  0.400E-01
   0.024  0.407E-01  0.407E-01
   0.034  0.413E-01  0.413E-01
   0.044  0.420E-01  0.420E-01
   0.054  0.426E-01  0.426E-01
   0.064  0.433E-01  0.433E-01
   0.074  0.440E-01  0.440E-01
   0.084  0.446E-01  0.446E-01
   0.094  0.453E-01  0.453E-01
   0.104  0.459E-01  0.459E-01
   0.114  0.466E-01  0.466E-01
   0.124  0.472E-01  0.472E-01
   0.134  0.479E-01  0.479E-01
   0.144  0.485E-01  0.485E-01
   0.154  0.491E-01  0.491E-01
   0.164  0.497E-01  0.497E-01
   0.174  0.503E-01  0.503E-01
   0.184  0.509E-01  0.509E-01
   0.194  0.515E-01  0.515E-01
   0.204  0.521E-01  0.521E-01
   0.214  0.527E-01  0.527E-01
   0.224  0.532E-01  0.532E-01
   0.234  0.538E-01  0.538E-01
   0.244  0.543E-01  0.543E-01
   0.254  0.548E-01  0.548E-01
   0.264  0.554E-01  0.554E-01
   0.274  0.559E-01  0.559E-01
   0.284  0.563E-01  0.563E-01
   0.294  0.568E-01  0.568E-01
   0.304  0.573E-01  0.573E-01
   0.314  0.577E-01  0.577E-01
   0.324  0.582E-01  0.582E-01
   0.334  0.586E-01  0.586E-01
   0.344  0.590E-01  0.590E-01
   0.354  0.594E-01  0.594E-01
   0.364  0.598E-01  0.598E-01
   0.374  0.602E-01  0.602E-01
   0.384  0.605E-01  0.605E-01
   0.394  0.609E-01  0.609E-01
   0.404  0.612E-01  0.612E-01
   0.414  0.616E-01  0.616E-01
   0.424  0.619E-01  0.619E-01
   0.434  0.622E-01  0.622E-01
   0.444  0.625E-01  0.625E-01
   0.454  0.628E-01  0.628E-01
   0.464  0.631E-01  0.631E-01
   0.474  0.634E-01  0.634E-01
   0.484  0.636E-01  0.636E-01
   0.494  0.639E-01  0.639E-01
   0.504  0.642E-01  0.642E-01
   0.514  0.644E-01  0.644E-01
   0.524  0.646E-01  0.646E-01
   0.534  0.649E-01  0.649E-01
   0.544  0.651E-01  0.651E-01
   0.554  0.654E-01  0.654E-01
   0.564  0.656E-01  0.656E-01
   0.574  0.658E-01  0.658E-01
   0.584  0.660E-01  0.660E-01
   0.594  0.662E-01  0.662E-01
   0.604  0.665E-01  0.665E-01
   0.614  0.667E-01  0.667E-01
   0.624  0.669E-01  0.669E-01
   0.634  0.671E-01  0.671E-01
   0.644  0.673E-01  0.673E-01
   0.654  0.676E-01  0.676E-01
   0.664  0.678E-01  0.678E-01
   0.674  0.680E-01  0.680E-01
   0.684  0.682E-01  0.682E-01
   0.694  0.685E-01  0.685E-01
   0.704  0.687E-01  0.687E-01
   0.714  0.690E-01  0.690E-01
   0.724  0.692E-01  0.692E-01
   0.734  0.694E-01  0.694E-01
   0.744  0.697E-01  0.697E-01
   0.754  0.699E-01  0.699E-01
   0.764  0.702E-01  0.702E-01
   0.774  0.704E-01  0.704E-01
   0.784  0.707E-01  0.707E-01
   0.794  0.710E-01  0.710E-01
   0.804  0.712E-01  0.712E-01
   0.814  0.715E-01  0.715E-01
   0.824  0.718E-01  0.718E-01
   0.834  0.721E-01  0.721E-01
   0.844  0.724E-01  0.724E-01
   0.854  0.726E-01  0.726E-01
   0.864  0.729E-01  0.729E-01
   0.874  0.732E-01  0.732E-01
   0.884  0.735E-01  0.735E-01
   0.894  0.738E-01  0.738E-01
   0.904  0.741E-01  0.741E-01
   0.914  0.744E-01  0.744E-01
   0.924  0.746E-01  0.746E-01
   0.934  0.749E-01  0.749E-01
   0.944  0.752E-01  0.752E-01
   0.954  0.755E-01  0.755E-01
   0.964  0.758E-01  0.758E-01
   0.974  0.760E-01  0.760E-01
   0.984  0.763E-01  0.763E-01
   0.994  0.766E-01  0.766E-01
   1.004  0.768E-01  0.768E-01
   1.014  0.770E-01  0.770E-01
   1.024  0.773E-01  0.773E-01
   1.034  0.775E-01  0.775E-01
   1.044  0.777E-01  0.777E-01
   1.054  0.779E-01  0.779E-01
   1.064  0.781E-01  0.781E-01
   1.074  0.783E-01  0.783E-01
   1.084  0.785E-01  0.785E-01
   1.094  0.786E-01  0.786E-01
   1.104  0.787E-01  0.787E-01
   1.114  0.789E-01  0.789E-01
   1.124  0.790E-01  0.790E-01
   1.134  0.790E-01  0.790E-01
   1.144  0.791E-01  0.791E-01
   1.154  0.792E-01  0.792E-01
   1.164  0.792E-01  0.792E-01
   1.174  0.792E-01  0.792E-01
   1.184  0.792E-01  0.792E-01
   1.194  0.791E-01  0.791E-01
   1.204  0.791E-01  0.791E-01
   1.214  0.790E-01  0.790E-01
   1.224  0.789E-01  0.789E-01
   1.234  0.788E-01  0.788E-01
   1.244  0.786E-01  0.786E-01
   1.254  0.785E-01  0.785E-01
   1.264  0.783E-01  0.783E-01
   1.274  0.780E-01  0.780E-01
   1.284  0.778E-01  0.778E-01
   1.294  0.775E-01  0.775E-01
   1.304  0.772E-01  0.772E-01
   1.314  0.769E-01  0.769E-01
   1.324  0.765E-01  0.765E-01
   1.334  0.762E-01  0.762E-01
   1.344  0.758E-01  0.758E-01
   1.354  0.753E-01  0.753E-01
   1.364  0.749E-01  0.749E-01
   1.374  0.744E-01  0.744E-01
   1.384  0.739E-01  0.739E-01
   1.394  0.734E-01  0.734E-01
   1.404  0.728E-01  0.728E-01
   1.414  0.723E-01  0.723E-01
   1.424  0.717E-01  0.717E-01
   1.434  0.711E-01  0.711E-01
   1.444  0.704E-01  0.704E-01
   1.454  0.698E-01  0.698E-01
   1.464  0.691E-01  0.691E-01
   1.474  0.684E-01  0.684E-01
   1.484  0.677E-01  0.677E-01
   1.494  0.669E-01  0.669E-01
   1.504  0.662E-01  0.662E-01
   1.514  0.654E-01  0.654E-01
   1.524  0.646E-01  0.646E-01
   1.534  0.638E-01  0.638E-01
   1.544  0.630E-01  0.630E-01
   1.554  0.621E-01  0.621E-01
   1.564  0.613E-01  0.613E-01
   1.574  0.604E-01  0.604E-01
   1.584  0.595E-01  0.595E-01
   1.594  0.586E-01  0.586E-01
   1.604  0.577E-01  0.577E-01
   1.614  0.568E-01  0.568E-01
   1.624  0.559E-01  0.559E-01
   1.634  0.550E-01  0.550E-01
   1.644  0.541E-01  0.541E-01
   1.654  0.532E-01  0.532E-01
   1.664  0.522E-01  0.522E-01
   1.674  0.513E-01  0.513E-01
   1.684  0.504E-01  0.504E-01
   1.694  0.494E-01  0.494E-01
   1.704  0.485E-01  0.485E-01
   1.714  0.476E-01  0.476E-01
   1.724  0.467E-01  0.467E-01
   1.734  0.457E-01  0.457E-01
   1.744  0.448E-01  0.448E-01
   1.754  0.439E-01  0.439E-01
   1.764  0.430E-01  0.430E-01
   1.774  0.421E-01  0.421E-01
   1.784  0.412E-01  0.412E-01
   1.794  0.403E-01  0.403E-01
   1.804  0.395E-01  0.395E-01
   1.814  0.386E-01  0.386E-01
   1.824  0.378E-01  0.378E-01
   1.834  0.370E-01  0.370E-01
   1.844  0.362E-01  0.362E-01
   1.854  0.354E-01  0.354E-01
   1.864  0.346E-01  0.346E-01
   1.874  0.338E-01  0.338E-01
   1.884  0.331E-01  0.331E-01
   1.894  0.324E-01  0.324E-01
   1.904  0.317E-01  0.317E-01
   1.914  0.310E-01  0.310E-01
   1.924  0.304E-01  0.304E-01
   1.934  0.297E-01  0.297E-01
   1.944  0.291E-01  0.291E-01
   1.954  0.285E-01  0.285E-01
   1.964  0.280E-01  0.280E-01
   1.974  0.275E-01  0.275E-01
   1.984  0.270E-01  0.270E-01
   1.994  0.265E-01  0.265E-01
   2.004  0.261E-01  0.261E-01
   2.014  0.256E-01  0.256E-01
   2.024  0.253E-01  0.253E-01
   2.034  0.249E-01  0.249E-01
   2.044  0.246E-01  0.246E-01
   2.054  0.243E-01  0.243E-01
   2.064  0.241E-01  0.241E-01
   2.074  0.238E-01  0.238E-01
   2.084  0.237E-01  0.237E-01
   2.094  0.235E-01  0.235E-01
   2.104  0.234E-01  0.234E-01
   2.114  0.233E-01  0.233E-01
   2.124  0.233E-01  0.233E-01
   2.134  0.232E-01  0.232E-01
   2.144  0.233E-01  0.233E-01
   2.154  0.233E-01  0.233E-01
   2.164  0.234E-01  0.234E-01
   2.174  0.236E-01  0.236E-01
   2.184  0.237E-01  0.237E-01
   2.194  0.239E-01  0.239E-01
   2.204  0.242E-01  0.242E-01
   2.214  0.245E-01  0.245E-01
   2.224  0.248E-01  0.248E-01
   2.234  0.251E-01  0.251E-01
   2.244  0.255E-01  0.255E-01
   2.254  0.259E-01  0.259E-01
   2.264  0.264E-01  0.264E-01
   2.274  0.269E-01  0.269E-01
   2.284  0.274E-01  0.274E-01
   2.294  0.280E-01  0.280E-01
   2.304  0.286E-01  0.286E-01
   2.314  0.293E-01  0.293E-01
   2.324  0.299E-01  0.299E-01
   2.334  0.306E-01  0.306E-01
   2.344  0.314E-01  0.314E-01
   2.354  0.321E-01  0.321E-01
   2.364  0.329E-01  0.329E-01
   2.374  0.338E-01  0.338E-01
   2.384  0.346E-01  0.346E-01
   2.394  0.355E-01  0.355E-01
   2.404  0.364E-01  0.364E-01
   2.414  0.373E-01  0.373E-01
   2.424  0.383E-01  0.383E-01
   2.434  0.393E-01  0.393E-01
   2.444  0.403E-01  0.403E-01
   2.454  0.413E-01  0.413E-01
   2.464  0.424E-01  0.424E-01
   2.474  0.434E-01  0.434E-01
   2.484  0.445E-01  0.445E-01
   2.494  0.456E-01  0.456E-01
   2.504  0.467E-01  0.467E-01
   2.514  0.479E-01  0.479E-01
   2.524  0.490E-01  0.490E-01
   2.534  0.502E-01  0.502E-01
   2.544  0.513E-01  0.513E-01
   2.554  0.525E-01  0.525E-01
   2.564  0.536E-01  0.536E-01
   2.574  0.548E-01  0.548E-01
   2.584  0.560E-01  0.560E-01
   2.594  0.571E-01  0.571E-01
   2.604  0.583E-01  0.583E-01
   2.614  0.594E-01  0.594E-01
   2.624  0.606E-01  0.606E-01
   2.634  0.617E-01  0.617E-01
   2.644  0.629E-01  0.629E-01
   2.654  0.640E-01  0.640E-01
   2.664  0.651E-01  0.651E-01
   2.674  0.662E-01  0.662E-01
   2.684  0.673E-01  0.673E-01
   2.694  0.683E-01  0.683E-01
   2.704  0.693E-01  0.693E-01
   2.714  0.703E-01  0.703E-01
   2.724  0.713E-01  0.713E-01
   2.734  0.723E-01  0.723E-01
   2.744  0.732E-01  0.732E-01
   2.754  0.741E-01  0.741E-01
   2.764  0.750E-01  0.750E-01
   2.774  0.758E-01  0.758E-01
   2.784  0.766E-01  0.766E-01
   2.794  0.774E-01  0.774E-01
   2.804  0.781E-01  0.781E-01
   2.814  0.788E-01  0.788E-01
   2.824  0.794E-01  0.794E-01
   2.834  0.800E-01  0.800E-01
   2.844  0.806E-01  0.806E-01
   2.854  0.811E-01  0.811E-01
   2.864  0.815E-01  0.815E-01
   2.874  0.820E-01  0.820E-01
   2.884  0.823E-01  0.823E-01
   2.894  0.827E-01  0.827E-01
   2.904  0.830E-01  0.830E-01
   2.914  0.832E-01  0.832E-01
   2.924  0.834E-01  0.834E-01
   2.934  0.835E-01  0.835E-01
   2.944  0.836E-01  0.836E-01
   2.954  0.836E-01  0.836E-01
   2.964  0.836E-01  0.836E-01
   2.974  0.835E-01  0.835E-01
   2.984  0.834E-01  0.834E-01
   2.994  0.833E-01  0.833E-01
   3.004  0.830E-01  0.830E-01
   3.014  0.828E-01  0.828E-01
   3.024  0.824E-01  0.824E-01
   3.034  0.821E-01  0.821E-01
   3.044  0.817E-01  0.817E-01
   3.054  0.812E-01  0.812E-01
   3.064  0.807E-01  0.807E-01
   3.074  0.801E-01  0.801E-01
   3.084  0.795E-01  0.795E-01
   3.094  0.788E-01  0.788E-01
   3.104  0.781E-01  0.781E-01
   3.114  0.774E-01  0.774E-01
   3.124  0.766E-01  0.766E-01
   3.134  0.758E-01  0.758E-01
   3.144  0.749E-01  0.749E-01
   3.154  0.740E-01  0.740E-01
   3.164  0.730E-01  0.730E-01
   3.174  0.721E-01  0.721E-01
   3.184  0.710E-01  0.710E-01
   3.194  0.700E-01  0.700E-01
   3.204  0.689E-01  0.689E-01
   3.214  0.678E-01  0.678E-01
   3.224  0.666E-01  0.666E-01
   3.234  0.655E-01  0.655E-01
   3.244  0.643E-01  0.643E-01
   3.254  0.631E-01  0.631E-01
   3.264  0.618E-01  0.618E-01
   3.274  0.606E-01  0.606E-01
   3.284  0.593E-01  0.593E-01
   3.294  0.580E-01  0.580E-01
   3.304  0.567E-01  0.567E-01
   3.314  0.554E-01  0.554E-01
   3.324  0.540E-01  0.540E-01
   3.334  0.527E-01  0.527E-01
   3.344  0.513E-01  0.513E-01
   3.354  0.500E-01  0.500E-01
   3.364  0.486E-01  0.486E-01
   3.374  0.472E-01  0.472E-01
   3.384  0.459E-01  0.459E-01
   3.394  0.445E-01  0.445E-01
   3.404  0.431E-01  0.431E-01
   3.414  0.418E-01  0.418E-01
   3.424  0.404E-01  0.404E-01
   3.434  0.390E-01  0.390E-01
   3.444  0.377E-01  0.377E-01
   3.454  0.364E-01  0.364E-01
   3.464  0.350E-01  0.350E-01
   3.474  0.337E-01  0.337E-01
   3.484  0.324E-01  0.324E-01
   3.494  0.311E-01  0.311E-01
   3.504  0.299E-01  0.299E-01
   3.514  0.286E-01  0.286E-01
   3.524  0.274E-01  0.274E-01
   3.534  0.262E-01  0.262E-01
   3.544  0.250E-01  0.250E-01
   3.554  0.238E-01  0.238E-01
   3.564  0.226E-01  0.226E-01
   3.574  0.215E-01  0.215E-01
   3.584  0.204E-01  0.204E-01
   3.594  0.193E-01  0.193E-01
   3.604  0.182E-01  0.182E-01
   3.614  0.172E-01  0.172E-01
   3.624  0.162E-01  0.162E-01
   3.634  0.152E-01  0.152E-01
   3.644  0.142E-01  0.142E-01
   3.654  0.133E-01  0.133E-01
   3.664  0.124E-01  0.124E-01
   3.674  0.115E-01  0.115E-01
   3.684  0.107E-01  0.107E-01
   3.694  0.983E-02  0.983E-02
   3.704  0.903E-02  0.903E-02
   3.714  0.826E-02  0.826E-02
   3.724  0.751E-02  0.751E-02
   3.734  0.680E-02  0.680E-02
   3.744  0.611E-02  0.611E-02
   3.754  0.545E-02  0.545E-02
   3.764  0.481E-02  0.481E-02
   3.774  0.420E-02  0.420E-02
   3.784  0.362E-02  0.362E-02
   3.794  0.306E-02  0.306E-02
   3.804  0.253E-02  0.253E-02
   3.814  0.202E-02  0.202E-02
   3.824  0.154E-02  0.154E-02
   3.834  0.108E-02  0.108E-02
   3.844  0.651E-03  0.651E-03
   3.854  0.242E-03  0.242E-03
   3.864 -0.144E-03 -0.144E-03
   3.874 -0.508E-03 -0.508E-03
   3.884 -0.849E-03 -0.849E-03
   3.894 -0.117E-02 -0.117E-02
   3.904 -0.147E-02 -0.147E-02
   3.914 -0.175E-02 -0.175E-02
   3.924 -0.201E-02 -0.201E-02
   3.934 -0.225E-02 -0.225E-02
   3.944 -0.247E-02 -0.247E-02
   3.954 -0.267E-02 -0.267E-02
   3.964 -0.286E-02 -0.286E-02
   3.974 -0.303E-02 -0.303E-02
   3.984 -0.318E-02 -0.318E-02
   3.994 -0.332E-02 -0.332E-02
   4.004 -0.345E-02 -0.345E-02
   4.014 -0.355E-02 -0.355E-02
   4.024 -0.365E-02 -0.365E-02
   4.034 -0.373E-02 -0.373E-02
   4.044 -0.380E-02 -0.380E-02
   4.054 -0.386E-02 -0.386E-02
   4.064 -0.391E-02 -0.391E-02
   4.074 -0.395E-02 -0.395E-02
   4.084 -0.397E-02 -0.397E-02
   4.094 -0.399E-02 -0.399E-02
   4.104 -0.400E-02 -0.400E-02
   4.114 -0.400E-02 -0.400E-02
   4.124 -0.399E-02 -0.399E-02
   4.134 -0.398E-02 -0.398E-02
   4.144 -0.395E-02 -0.395E-02
   4.154 -0.393E-02 -0.393E-02
   4.164 -0.389E-02 -0.389E-02
   4.174 -0.385E-02 -0.385E-02
   4.184 -0.381E-02 -0.381E-02
   4.194 -0.376E-02 -0.376E-02
   4.204 -0.370E-02 -0.370E-02
   4.214 -0.364E-02 -0.364E-02
   4.224 -0.358E-02 -0.358E-02
   4.234 -0.352E-02 -0.352E-02
   4.244 -0.345E-02 -0.345E-02
   4.254 -0.338E-02 -0.338E-02
   4.264 -0.331E-02 -0.331E-02
   4.274 -0.324E-02 -0.324E-02
   4.284 -0.316E-02 -0.316E-02
   4.294 -0.308E-02 -0.308E-02
   4.304 -0.301E-02 -0.301E-02
   4.314 -0.293E-02 -0.293E-02
   4.324 -0.285E-02 -0.285E-02
   4.334 -0.277E-02 -0.277E-02
   4.344 -0.269E-02 -0.269E-02
   4.354 -0.261E-02 -0.261E-02
   4.364 -0.253E-02 -0.253E-02
   4.374 -0.245E-02 -0.245E-02
   4.384 -0.238E-02 -0.238E-02
   4.394 -0.230E-02 -0.230E-02
   4.404 -0.222E-02 -0.222E-02
   4.414 -0.215E-02 -0.215E-02
   4.424 -0.207E-02 -0.207E-02
   4.434 -0.200E-02 -0.200E-02
   4.444 -0.193E-02 -0.193E-02
   4.454 -0.185E-02 -0.185E-02
   4.464 -0.178E-02 -0.178E-02
   4.474 -0.172E-02 -0.172E-02
   4.484 -0.165E-02 -0.165E-02
   4.494 -0.158E-02 -0.158E-02
   4.504 -0.152E-02 -0.152E-02
   4.514 -0.146E-02 -0.146E-02
   4.524 -0.140E-02 -0.140E-02
   4.534 -0.134E-02 -0.134E-02
   4.544 -0.128E-02 -0.128E-02
   4.554 -0.123E-02 -0.123E-02
   4.564 -0.117E-02 -0.117E-02
   4.574 -0.112E-02 -0.112E-02
   4.584 -0.107E-02 -0.107E-02
   4.594 -0.102E-02 -0.102E-02
   4.604 -0.974E-03 -0.974E-03
   4.614 -0.929E-03 -0.929E-03
   4.624 -0.885E-03 -0.885E-03
   4.634 -0.842E-03 -0.842E-03
   4.644 -0.801E-03 -0.801E-03
   4.654 -0.762E-03 -0.762E-03
   4.664 -0.724E-03 -0.724E-03
   4.674 -0.688E-03 -0.688E-03
   4.684 -0.653E-03 -0.653E-03
   4.694 -0.620E-03 -0.620E-03
   4.704 -0.588E-03 -0.588E-03
   4.714 -0.557E-03 -0.557E-03
   4.724 -0.527E-03 -0.527E-03
   4.734 -0.499E-03 -0.499E-03
   4.744 -0.472E-03 -0.472E-03
   4.754 -0.447E-03 -0.447E-03
   4.764 -0.422E-03 -0.422E-03
   4.774 -0.399E-03 -0.399E-03
   4.784 -0.376E-03 -0.376E-03
   4.794 -0.355E-03 -0.355E-03
   4.804 -0.335E-03 -0.335E-03
   4.814 -0.316E-03 -0.316E-03
   4.824 -0.297E-03 -0.297E-03
   4.834 -0.280E-03 -0.280E-03
   4.844 -0.264E-03 -0.264E-03
   4.854 -0.248E-03 -0.248E-03
   4.864 -0.233E-03 -0.233E-03
   4.874 -0.219E-03 -0.219E-03
   4.884 -0.206E-03 -0.206E-03
   4.894 -0.193E-03 -0.193E-03
   4.904 -0.181E-03 -0.181E-03
   4.914 -0.170E-03 -0.170E-03
   4.924 -0.159E-03 -0.159E-03
   4.934 -0.149E-03 -0.149E-03
   4.944 -0.139E-03 -0.139E-03
   4.954 -0.131E-03 -0.131E-03
   4.964 -0.122E-03 -0.122E-03
   4.974 -0.114E-03 -0.114E-03
   4.984 -0.107E-03 -0.107E-03
   4.994 -0.996E-04 -0.996E-04
   5.004 -0.929E-04 -0.929E-04
   5.014 -0.867E-04 -0.867E-04
   5.024 -0.808E-04 -0.808E-04
   5.034 -0.753E-04 -0.753E-04
   5.044 -0.702E-04 -0.702E-04
   5.054 -0.653E-04 -0.653E-04
   5.064 -0.608E-04 -0.608E-04
   5.074 -0.566E-04 -0.566E-04
   5.084 -0.526E-04 -0.526E-04
   5.094 -0.489E-04 -0.489E-04
   5.104 -0.454E-04 -0.454E-04
   5.114 -0.421E-04 -0.421E-04
   5.124 -0.391E-04 -0.391E-04
   5.134 -0.363E-04 -0.363E-04
   5.144 -0.336E-04 -0.336E-04
   5.154 -0.311E-04 -0.311E-04
   5.164 -0.288E-04 -0.288E-04
   5.174 -0.267E-04 -0.267E-04
   5.184 -0.247E-04 -0.247E-04
   5.194 -0.228E-04 -0.228E-04
   5.204 -0.211E-04 -0.211E-04
   5.214 -0.195E-04 -0.195E-04
   5.224 -0.180E-04 -0.180E-04
   5.234 -0.166E-04 -0.166E-04
   5.244 -0.153E-04 -0.153E-04
   5.254 -0.141E-04 -0.141E-04
   5.264 -0.130E-04 -0.130E-04
   5.274 -0.120E-04 -0.120E-04
   5.284 -0.111E-04 -0.111E-04
   5.294 -0.102E-04 -0.102E-04
