# E (eV)   ldos(E)   pdos(E)   
 -27.116 -0.242E-05 -0.242E-05
 -27.106 -0.262E-05 -0.262E-05
 -27.096 -0.282E-05 -0.282E-05
 -27.086 -0.304E-05 -0.304E-05
 -27.076 -0.328E-05 -0.328E-05
 -27.066 -0.353E-05 -0.353E-05
 -27.056 -0.380E-05 -0.380E-05
 -27.046 -0.409E-05 -0.409E-05
 -27.036 -0.439E-05 -0.439E-05
 -27.026 -0.472E-05 -0.472E-05
 -27.016 -0.507E-05 -0.507E-05
 -27.006 -0.545E-05 -0.545E-05
 -26.996 -0.584E-05 -0.584E-05
 -26.986 -0.627E-05 -0.627E-05
 -26.976 -0.672E-05 -0.672E-05
 -26.966 -0.720E-05 -0.720E-05
 -26.956 -0.770E-05 -0.770E-05
 -26.946 -0.824E-05 -0.824E-05
 -26.936 -0.882E-05 -0.882E-05
 -26.926 -0.943E-05 -0.943E-05
 -26.916 -0.101E-04 -0.101E-04
 -26.906 -0.108E-04 -0.108E-04
 -26.896 -0.115E-04 -0.115E-04
 -26.886 -0.122E-04 -0.122E-04
 -26.876 -0.131E-04 -0.131E-04
 -26.866 -0.139E-04 -0.139E-04
 -26.856 -0.148E-04 -0.148E-04
 -26.846 -0.158E-04 -0.158E-04
 -26.836 -0.168E-04 -0.168E-04
 -26.826 -0.178E-04 -0.178E-04
 -26.816 -0.189E-04 -0.189E-04
 -26.806 -0.201E-04 -0.201E-04
 -26.796 -0.213E-04 -0.213E-04
 -26.786 -0.226E-04 -0.226E-04
 -26.776 -0.240E-04 -0.240E-04
 -26.766 -0.254E-04 -0.254E-04
 -26.756 -0.269E-04 -0.269E-04
 -26.746 -0.285E-04 -0.285E-04
 -26.736 -0.301E-04 -0.301E-04
 -26.726 -0.318E-04 -0.318E-04
 -26.716 -0.336E-04 -0.336E-04
 -26.706 -0.355E-04 -0.355E-04
 -26.696 -0.375E-04 -0.375E-04
 -26.686 -0.395E-04 -0.395E-04
 -26.676 -0.416E-04 -0.416E-04
 -26.666 -0.438E-04 -0.438E-04
 -26.656 -0.461E-04 -0.461E-04
 -26.646 -0.485E-04 -0.485E-04
 -26.636 -0.510E-04 -0.510E-04
 -26.626 -0.536E-04 -0.536E-04
 -26.616 -0.562E-04 -0.562E-04
 -26.606 -0.590E-04 -0.590E-04
 -26.596 -0.618E-04 -0.618E-04
 -26.586 -0.648E-04 -0.648E-04
 -26.576 -0.678E-04 -0.678E-04
 -26.566 -0.710E-04 -0.710E-04
 -26.556 -0.742E-04 -0.742E-04
 -26.546 -0.775E-04 -0.775E-04
 -26.536 -0.810E-04 -0.810E-04
 -26.526 -0.845E-04 -0.845E-04
 -26.516 -0.881E-04 -0.881E-04
 -26.506 -0.918E-04 -0.918E-04
 -26.496 -0.956E-04 -0.956E-04
 -26.486 -0.994E-04 -0.994E-04
 -26.476 -0.103E-03 -0.103E-03
 -26.466 -0.107E-03 -0.107E-03
 -26.456 -0.111E-03 -0.111E-03
 -26.446 -0.116E-03 -0.116E-03
 -26.436 -0.120E-03 -0.120E-03
 -26.426 -0.124E-03 -0.124E-03
 -26.416 -0.128E-03 -0.128E-03
 -26.406 -0.133E-03 -0.133E-03
 -26.396 -0.137E-03 -0.137E-03
 -26.386 -0.141E-03 -0.141E-03
 -26.376 -0.146E-03 -0.146E-03
 -26.366 -0.150E-03 -0.150E-03
 -26.356 -0.155E-03 -0.155E-03
 -26.346 -0.159E-03 -0.159E-03
 -26.336 -0.163E-03 -0.163E-03
 -26.326 -0.168E-03 -0.168E-03
 -26.316 -0.172E-03 -0.172E-03
 -26.306 -0.176E-03 -0.176E-03
 -26.296 -0.180E-03 -0.180E-03
 -26.286 -0.184E-03 -0.184E-03
 -26.276 -0.188E-03 -0.188E-03
 -26.266 -0.191E-03 -0.191E-03
 -26.256 -0.195E-03 -0.195E-03
 -26.246 -0.198E-03 -0.198E-03
 -26.236 -0.201E-03 -0.201E-03
 -26.226 -0.204E-03 -0.204E-03
 -26.216 -0.206E-03 -0.206E-03
 -26.206 -0.209E-03 -0.209E-03
 -26.196 -0.211E-03 -0.211E-03
 -26.186 -0.212E-03 -0.212E-03
 -26.176 -0.214E-03 -0.214E-03
 -26.166 -0.214E-03 -0.214E-03
 -26.156 -0.215E-03 -0.215E-03
 -26.146 -0.215E-03 -0.215E-03
 -26.136 -0.214E-03 -0.214E-03
 -26.126 -0.213E-03 -0.213E-03
 -26.116 -0.212E-03 -0.212E-03
 -26.106 -0.210E-03 -0.210E-03
 -26.096 -0.207E-03 -0.207E-03
 -26.086 -0.204E-03 -0.204E-03
 -26.076 -0.200E-03 -0.200E-03
 -26.066 -0.195E-03 -0.195E-03
 -26.056 -0.190E-03 -0.190E-03
 -26.046 -0.183E-03 -0.183E-03
 -26.036 -0.176E-03 -0.176E-03
 -26.026 -0.168E-03 -0.168E-03
 -26.016 -0.160E-03 -0.160E-03
 -26.006 -0.150E-03 -0.150E-03
 -25.996 -0.139E-03 -0.139E-03
 -25.986 -0.128E-03 -0.128E-03
 -25.976 -0.115E-03 -0.115E-03
 -25.966 -0.101E-03 -0.101E-03
 -25.956 -0.865E-04 -0.865E-04
 -25.946 -0.706E-04 -0.706E-04
 -25.936 -0.535E-04 -0.535E-04
 -25.926 -0.352E-04 -0.352E-04
 -25.916 -0.158E-04 -0.158E-04
 -25.906  0.492E-05  0.492E-05
 -25.896  0.269E-04  0.269E-04
 -25.886  0.502E-04  0.502E-04
 -25.876  0.747E-04  0.747E-04
 -25.866  0.101E-03  0.101E-03
 -25.856  0.128E-03  0.128E-03
 -25.846  0.157E-03  0.157E-03
 -25.836  0.187E-03  0.187E-03
 -25.826  0.218E-03  0.218E-03
 -25.816  0.251E-03  0.251E-03
 -25.806  0.286E-03  0.286E-03
 -25.796  0.321E-03  0.321E-03
 -25.786  0.359E-03  0.359E-03
 -25.776  0.397E-03  0.397E-03
 -25.766  0.438E-03  0.438E-03
 -25.756  0.479E-03  0.479E-03
 -25.746  0.522E-03  0.522E-03
 -25.736  0.567E-03  0.567E-03
 -25.726  0.613E-03  0.613E-03
 -25.716  0.660E-03  0.660E-03
 -25.706  0.709E-03  0.709E-03
 -25.696  0.760E-03  0.760E-03
 -25.686  0.811E-03  0.811E-03
 -25.676  0.864E-03  0.864E-03
 -25.666  0.918E-03  0.918E-03
 -25.656  0.974E-03  0.974E-03
 -25.646  0.103E-02  0.103E-02
 -25.636  0.109E-02  0.109E-02
 -25.626  0.115E-02  0.115E-02
 -25.616  0.121E-02  0.121E-02
 -25.606  0.127E-02  0.127E-02
 -25.596  0.133E-02  0.133E-02
 -25.586  0.139E-02  0.139E-02
 -25.576  0.146E-02  0.146E-02
 -25.566  0.152E-02  0.152E-02
 -25.556  0.159E-02  0.159E-02
 -25.546  0.166E-02  0.166E-02
 -25.536  0.172E-02  0.172E-02
 -25.526  0.179E-02  0.179E-02
 -25.516  0.186E-02  0.186E-02
 -25.506  0.193E-02  0.193E-02
 -25.496  0.200E-02  0.200E-02
 -25.486  0.206E-02  0.206E-02
 -25.476  0.213E-02  0.213E-02
 -25.466  0.220E-02  0.220E-02
 -25.456  0.227E-02  0.227E-02
 -25.446  0.234E-02  0.234E-02
 -25.436  0.241E-02  0.241E-02
 -25.426  0.248E-02  0.248E-02
 -25.416  0.254E-02  0.254E-02
 -25.406  0.261E-02  0.261E-02
 -25.396  0.268E-02  0.268E-02
 -25.386  0.274E-02  0.274E-02
 -25.376  0.281E-02  0.281E-02
 -25.366  0.287E-02  0.287E-02
 -25.356  0.294E-02  0.294E-02
 -25.346  0.300E-02  0.300E-02
 -25.336  0.306E-02  0.306E-02
 -25.326  0.312E-02  0.312E-02
 -25.316  0.318E-02  0.318E-02
 -25.306  0.323E-02  0.323E-02
 -25.296  0.329E-02  0.329E-02
 -25.286  0.334E-02  0.334E-02
 -25.276  0.339E-02  0.339E-02
 -25.266  0.344E-02  0.344E-02
 -25.256  0.349E-02  0.349E-02
 -25.246  0.353E-02  0.353E-02
 -25.236  0.358E-02  0.358E-02
 -25.226  0.362E-02  0.362E-02
 -25.216  0.366E-02  0.366E-02
 -25.206  0.369E-02  0.369E-02
 -25.196  0.373E-02  0.373E-02
 -25.186  0.376E-02  0.376E-02
 -25.176  0.379E-02  0.379E-02
 -25.166  0.381E-02  0.381E-02
 -25.156  0.384E-02  0.384E-02
 -25.146  0.386E-02  0.386E-02
 -25.136  0.388E-02  0.388E-02
 -25.126  0.389E-02  0.389E-02
 -25.116  0.390E-02  0.390E-02
 -25.106  0.391E-02  0.391E-02
 -25.096  0.392E-02  0.392E-02
 -25.086  0.393E-02  0.393E-02
 -25.076  0.393E-02  0.393E-02
 -25.066  0.393E-02  0.393E-02
 -25.056  0.392E-02  0.392E-02
 -25.046  0.392E-02  0.392E-02
 -25.036  0.391E-02  0.391E-02
 -25.026  0.389E-02  0.389E-02
 -25.016  0.388E-02  0.388E-02
 -25.006  0.386E-02  0.386E-02
 -24.996  0.384E-02  0.384E-02
 -24.986  0.382E-02  0.382E-02
 -24.976  0.379E-02  0.379E-02
 -24.966  0.376E-02  0.376E-02
 -24.956  0.373E-02  0.373E-02
 -24.946  0.370E-02  0.370E-02
 -24.936  0.366E-02  0.366E-02
 -24.926  0.362E-02  0.362E-02
 -24.916  0.358E-02  0.358E-02
 -24.906  0.354E-02  0.354E-02
 -24.896  0.350E-02  0.350E-02
 -24.886  0.345E-02  0.345E-02
 -24.876  0.340E-02  0.340E-02
 -24.866  0.335E-02  0.335E-02
 -24.856  0.330E-02  0.330E-02
 -24.846  0.324E-02  0.324E-02
 -24.836  0.319E-02  0.319E-02
 -24.826  0.313E-02  0.313E-02
 -24.816  0.307E-02  0.307E-02
 -24.806  0.301E-02  0.301E-02
 -24.796  0.295E-02  0.295E-02
 -24.786  0.288E-02  0.288E-02
 -24.776  0.282E-02  0.282E-02
 -24.766  0.276E-02  0.276E-02
 -24.756  0.269E-02  0.269E-02
 -24.746  0.262E-02  0.262E-02
 -24.736  0.256E-02  0.256E-02
 -24.726  0.249E-02  0.249E-02
 -24.716  0.242E-02  0.242E-02
 -24.706  0.235E-02  0.235E-02
 -24.696  0.228E-02  0.228E-02
 -24.686  0.221E-02  0.221E-02
 -24.676  0.215E-02  0.215E-02
 -24.666  0.208E-02  0.208E-02
 -24.656  0.201E-02  0.201E-02
 -24.646  0.194E-02  0.194E-02
 -24.636  0.187E-02  0.187E-02
 -24.626  0.180E-02  0.180E-02
 -24.616  0.173E-02  0.173E-02
 -24.606  0.167E-02  0.167E-02
 -24.596  0.160E-02  0.160E-02
 -24.586  0.153E-02  0.153E-02
 -24.576  0.147E-02  0.147E-02
 -24.566  0.141E-02  0.141E-02
 -24.556  0.134E-02  0.134E-02
 -24.546  0.128E-02  0.128E-02
 -24.536  0.122E-02  0.122E-02
 -24.526  0.116E-02  0.116E-02
 -24.516  0.110E-02  0.110E-02
 -24.506  0.104E-02  0.104E-02
 -24.496  0.983E-03  0.983E-03
 -24.486  0.928E-03  0.928E-03
 -24.476  0.873E-03  0.873E-03
 -24.466  0.820E-03  0.820E-03
 -24.456  0.768E-03  0.768E-03
 -24.446  0.718E-03  0.718E-03
 -24.436  0.669E-03  0.669E-03
 -24.426  0.621E-03  0.621E-03
 -24.416  0.575E-03  0.575E-03
 -24.406  0.530E-03  0.530E-03
 -24.396  0.487E-03  0.487E-03
 -24.386  0.445E-03  0.445E-03
 -24.376  0.404E-03  0.404E-03
 -24.366  0.365E-03  0.365E-03
 -24.356  0.328E-03  0.328E-03
 -24.346  0.292E-03  0.292E-03
 -24.336  0.257E-03  0.257E-03
 -24.326  0.224E-03  0.224E-03
 -24.316  0.192E-03  0.192E-03
 -24.306  0.162E-03  0.162E-03
 -24.296  0.133E-03  0.133E-03
 -24.286  0.105E-03  0.105E-03
 -24.276  0.791E-04  0.791E-04
 -24.266  0.543E-04  0.543E-04
 -24.256  0.308E-04  0.308E-04
 -24.246  0.858E-05  0.858E-05
 -24.236 -0.123E-04 -0.123E-04
 -24.226 -0.320E-04 -0.320E-04
 -24.216 -0.505E-04 -0.505E-04
 -24.206 -0.677E-04 -0.677E-04
 -24.196 -0.838E-04 -0.838E-04
 -24.186 -0.988E-04 -0.988E-04
 -24.176 -0.113E-03 -0.113E-03
 -24.166 -0.126E-03 -0.126E-03
 -24.156 -0.137E-03 -0.137E-03
 -24.146 -0.148E-03 -0.148E-03
 -24.136 -0.158E-03 -0.158E-03
 -24.126 -0.167E-03 -0.167E-03
 -24.116 -0.175E-03 -0.175E-03
 -24.106 -0.182E-03 -0.182E-03
 -24.096 -0.189E-03 -0.189E-03
 -24.086 -0.194E-03 -0.194E-03
 -24.076 -0.199E-03 -0.199E-03
 -24.066 -0.203E-03 -0.203E-03
 -24.056 -0.207E-03 -0.207E-03
 -24.046 -0.209E-03 -0.209E-03
 -24.036 -0.212E-03 -0.212E-03
 -24.026 -0.213E-03 -0.213E-03
 -24.016 -0.214E-03 -0.214E-03
 -24.006 -0.215E-03 -0.215E-03
 -23.996 -0.215E-03 -0.215E-03
 -23.986 -0.215E-03 -0.215E-03
 -23.976 -0.214E-03 -0.214E-03
 -23.966 -0.213E-03 -0.213E-03
 -23.956 -0.211E-03 -0.211E-03
 -23.946 -0.209E-03 -0.209E-03
 -23.936 -0.207E-03 -0.207E-03
 -23.926 -0.204E-03 -0.204E-03
 -23.916 -0.202E-03 -0.202E-03
 -23.906 -0.199E-03 -0.199E-03
 -23.896 -0.195E-03 -0.195E-03
 -23.886 -0.192E-03 -0.192E-03
 -23.876 -0.188E-03 -0.188E-03
 -23.866 -0.184E-03 -0.184E-03
 -23.856 -0.181E-03 -0.181E-03
 -23.846 -0.177E-03 -0.177E-03
 -23.836 -0.172E-03 -0.172E-03
 -23.826 -0.168E-03 -0.168E-03
 -23.816 -0.164E-03 -0.164E-03
 -23.806 -0.160E-03 -0.160E-03
 -23.796 -0.155E-03 -0.155E-03
 -23.786 -0.151E-03 -0.151E-03
 -23.776 -0.147E-03 -0.147E-03
 -23.766 -0.142E-03 -0.142E-03
 -23.756 -0.138E-03 -0.138E-03
 -23.746 -0.133E-03 -0.133E-03
 -23.736 -0.129E-03 -0.129E-03
 -23.726 -0.125E-03 -0.125E-03
 -23.716 -0.121E-03 -0.121E-03
 -23.706 -0.116E-03 -0.116E-03
 -23.696 -0.112E-03 -0.112E-03
 -23.686 -0.108E-03 -0.108E-03
 -23.676 -0.104E-03 -0.104E-03
 -23.666 -0.100E-03 -0.100E-03
 -23.656 -0.962E-04 -0.962E-04
 -23.646 -0.924E-04 -0.924E-04
 -23.636 -0.887E-04 -0.887E-04
 -23.626 -0.851E-04 -0.851E-04
 -23.616 -0.816E-04 -0.816E-04
 -23.606 -0.781E-04 -0.781E-04
 -23.596 -0.748E-04 -0.748E-04
 -23.586 -0.715E-04 -0.715E-04
 -23.576 -0.684E-04 -0.684E-04
 -23.566 -0.653E-04 -0.653E-04
 -23.556 -0.623E-04 -0.623E-04
 -23.546 -0.595E-04 -0.595E-04
 -23.536 -0.567E-04 -0.567E-04
 -23.526 -0.540E-04 -0.540E-04
 -23.516 -0.514E-04 -0.514E-04
 -23.506 -0.489E-04 -0.489E-04
 -23.496 -0.465E-04 -0.465E-04
 -23.486 -0.442E-04 -0.442E-04
 -23.476 -0.420E-04 -0.420E-04
 -23.466 -0.398E-04 -0.398E-04
 -23.456 -0.378E-04 -0.378E-04
 -23.446 -0.358E-04 -0.358E-04
 -23.436 -0.339E-04 -0.339E-04
 -23.426 -0.321E-04 -0.321E-04
 -23.416 -0.304E-04 -0.304E-04
 -23.406 -0.288E-04 -0.288E-04
 -23.396 -0.272E-04 -0.272E-04
 -23.386 -0.257E-04 -0.257E-04
 -23.376 -0.242E-04 -0.242E-04
 -23.366 -0.229E-04 -0.229E-04
 -23.356 -0.216E-04 -0.216E-04
 -23.346 -0.203E-04 -0.203E-04
 -23.336 -0.191E-04 -0.191E-04
 -23.326 -0.180E-04 -0.180E-04
 -23.316 -0.169E-04 -0.169E-04
 -23.306 -0.159E-04 -0.159E-04
 -23.296 -0.150E-04 -0.150E-04
 -23.286 -0.141E-04 -0.141E-04
 -23.276 -0.132E-04 -0.132E-04
 -23.266 -0.124E-04 -0.124E-04
 -23.256 -0.116E-04 -0.116E-04
 -23.246 -0.109E-04 -0.109E-04
 -23.236 -0.102E-04 -0.102E-04
 -23.226 -0.953E-05 -0.953E-05
 -23.216 -0.892E-05 -0.892E-05
 -23.206 -0.834E-05 -0.834E-05
 -23.196 -0.779E-05 -0.779E-05
 -23.186 -0.728E-05 -0.728E-05
 -23.176 -0.680E-05 -0.680E-05
 -23.166 -0.634E-05 -0.634E-05
 -23.156 -0.591E-05 -0.591E-05
 -23.146 -0.551E-05 -0.551E-05
 -23.136 -0.514E-05 -0.514E-05
 -23.126 -0.478E-05 -0.478E-05
 -23.116 -0.445E-05 -0.445E-05
 -23.106 -0.414E-05 -0.414E-05
 -23.096 -0.385E-05 -0.385E-05
 -23.086 -0.358E-05 -0.358E-05
 -23.076 -0.332E-05 -0.332E-05
 -23.066 -0.308E-05 -0.308E-05
 -23.056 -0.286E-05 -0.286E-05
 -23.046 -0.265E-05 -0.265E-05
 -23.036 -0.246E-05 -0.246E-05
 -23.026 -0.228E-05 -0.228E-05
 -23.016 -0.211E-05 -0.211E-05
 -23.006 -0.196E-05 -0.196E-05
 -22.996 -0.181E-05 -0.181E-05
 -22.986 -0.167E-05 -0.167E-05
 -22.976 -0.155E-05 -0.155E-05
 -22.966 -0.143E-05 -0.143E-05
 -22.956 -0.132E-05 -0.132E-05
 -22.946 -0.122E-05 -0.122E-05
 -22.936 -0.113E-05 -0.113E-05
 -22.926 -0.104E-05 -0.104E-05
 -22.916 -0.964E-06 -0.964E-06
 -22.906 -0.891E-06 -0.891E-06
 -22.896 -0.824E-06 -0.824E-06
 -22.886 -0.762E-06 -0.762E-06
 -22.876 -0.705E-06 -0.705E-06
 -22.866 -0.653E-06 -0.653E-06
 -22.856 -0.605E-06 -0.605E-06
 -22.846 -0.561E-06 -0.561E-06
 -22.836 -0.522E-06 -0.522E-06
 -22.826 -0.486E-06 -0.486E-06
 -22.816 -0.454E-06 -0.454E-06
 -22.806 -0.425E-06 -0.425E-06
 -22.796 -0.399E-06 -0.399E-06
 -22.786 -0.377E-06 -0.377E-06
 -22.776 -0.357E-06 -0.357E-06
 -22.766 -0.340E-06 -0.340E-06
 -22.756 -0.326E-06 -0.326E-06
 -22.746 -0.314E-06 -0.314E-06
 -22.736 -0.305E-06 -0.305E-06
 -22.726 -0.299E-06 -0.299E-06
 -22.716 -0.295E-06 -0.295E-06
 -22.706 -0.293E-06 -0.293E-06
 -22.696 -0.294E-06 -0.294E-06
 -22.686 -0.297E-06 -0.297E-06
 -22.676 -0.303E-06 -0.303E-06
 -22.666 -0.311E-06 -0.311E-06
 -22.656 -0.322E-06 -0.322E-06
 -22.646 -0.336E-06 -0.336E-06
 -22.636 -0.352E-06 -0.352E-06
 -22.626 -0.371E-06 -0.371E-06
 -22.616 -0.393E-06 -0.393E-06
 -22.606 -0.418E-06 -0.418E-06
 -22.596 -0.447E-06 -0.447E-06
 -22.586 -0.479E-06 -0.479E-06
 -22.576 -0.514E-06 -0.514E-06
 -22.566 -0.554E-06 -0.554E-06
 -22.556 -0.598E-06 -0.598E-06
 -22.546 -0.646E-06 -0.646E-06
 -22.536 -0.699E-06 -0.699E-06
 -22.526 -0.756E-06 -0.756E-06
 -22.516 -0.819E-06 -0.819E-06
 -22.506 -0.888E-06 -0.888E-06
 -22.496 -0.963E-06 -0.963E-06
 -22.486 -0.104E-05 -0.104E-05
 -22.476 -0.113E-05 -0.113E-05
 -22.466 -0.123E-05 -0.123E-05
 -22.456 -0.133E-05 -0.133E-05
 -22.446 -0.145E-05 -0.145E-05
 -22.436 -0.157E-05 -0.157E-05
 -22.426 -0.170E-05 -0.170E-05
 -22.416 -0.184E-05 -0.184E-05
 -22.406 -0.199E-05 -0.199E-05
 -22.396 -0.216E-05 -0.216E-05
 -22.386 -0.234E-05 -0.234E-05
 -22.376 -0.253E-05 -0.253E-05
 -22.366 -0.273E-05 -0.273E-05
 -22.356 -0.295E-05 -0.295E-05
 -22.346 -0.319E-05 -0.319E-05
 -22.336 -0.344E-05 -0.344E-05
 -22.326 -0.372E-05 -0.372E-05
 -22.316 -0.401E-05 -0.401E-05
 -22.306 -0.433E-05 -0.433E-05
 -22.296 -0.466E-05 -0.466E-05
 -22.286 -0.502E-05 -0.502E-05
 -22.276 -0.541E-05 -0.541E-05
 -22.266 -0.582E-05 -0.582E-05
 -22.256 -0.626E-05 -0.626E-05
 -22.246 -0.673E-05 -0.673E-05
 -22.236 -0.723E-05 -0.723E-05
 -22.226 -0.776E-05 -0.776E-05
 -22.216 -0.833E-05 -0.833E-05
 -22.206 -0.894E-05 -0.894E-05
 -22.196 -0.959E-05 -0.959E-05
 -22.186 -0.103E-04 -0.103E-04
 -22.176 -0.110E-04 -0.110E-04
 -22.166 -0.118E-04 -0.118E-04
 -22.156 -0.126E-04 -0.126E-04
 -22.146 -0.135E-04 -0.135E-04
 -22.136 -0.144E-04 -0.144E-04
 -22.126 -0.154E-04 -0.154E-04
 -22.116 -0.164E-04 -0.164E-04
 -22.106 -0.175E-04 -0.175E-04
 -22.096 -0.187E-04 -0.187E-04
 -22.086 -0.199E-04 -0.199E-04
 -22.076 -0.212E-04 -0.212E-04
 -22.066 -0.226E-04 -0.226E-04
 -22.056 -0.241E-04 -0.241E-04
 -22.046 -0.256E-04 -0.256E-04
 -22.036 -0.272E-04 -0.272E-04
 -22.026 -0.289E-04 -0.289E-04
 -22.016 -0.307E-04 -0.307E-04
 -22.006 -0.326E-04 -0.326E-04
 -21.996 -0.345E-04 -0.345E-04
 -21.986 -0.366E-04 -0.366E-04
 -21.976 -0.388E-04 -0.388E-04
 -21.966 -0.410E-04 -0.410E-04
 -21.956 -0.434E-04 -0.434E-04
 -21.946 -0.459E-04 -0.459E-04
 -21.936 -0.485E-04 -0.485E-04
 -21.926 -0.512E-04 -0.512E-04
 -21.916 -0.541E-04 -0.541E-04
 -21.906 -0.571E-04 -0.571E-04
 -21.896 -0.602E-04 -0.602E-04
 -21.886 -0.634E-04 -0.634E-04
 -21.876 -0.667E-04 -0.667E-04
 -21.866 -0.702E-04 -0.702E-04
 -21.856 -0.739E-04 -0.739E-04
 -21.846 -0.776E-04 -0.776E-04
 -21.836 -0.815E-04 -0.815E-04
 -21.826 -0.856E-04 -0.856E-04
 -21.816 -0.898E-04 -0.898E-04
 -21.806 -0.941E-04 -0.941E-04
 -21.796 -0.986E-04 -0.986E-04
 -21.786 -0.103E-03 -0.103E-03
 -21.776 -0.108E-03 -0.108E-03
 -21.766 -0.113E-03 -0.113E-03
 -21.756 -0.118E-03 -0.118E-03
 -21.746 -0.123E-03 -0.123E-03
 -21.736 -0.128E-03 -0.128E-03
 -21.726 -0.134E-03 -0.134E-03
 -21.716 -0.140E-03 -0.140E-03
 -21.706 -0.145E-03 -0.145E-03
 -21.696 -0.151E-03 -0.151E-03
 -21.686 -0.157E-03 -0.157E-03
 -21.676 -0.163E-03 -0.163E-03
 -21.666 -0.169E-03 -0.169E-03
 -21.656 -0.176E-03 -0.176E-03
 -21.646 -0.182E-03 -0.182E-03
 -21.636 -0.189E-03 -0.189E-03
 -21.626 -0.195E-03 -0.195E-03
 -21.616 -0.202E-03 -0.202E-03
 -21.606 -0.208E-03 -0.208E-03
 -21.596 -0.215E-03 -0.215E-03
 -21.586 -0.222E-03 -0.222E-03
 -21.576 -0.228E-03 -0.228E-03
 -21.566 -0.235E-03 -0.235E-03
 -21.556 -0.242E-03 -0.242E-03
 -21.546 -0.248E-03 -0.248E-03
 -21.536 -0.255E-03 -0.255E-03
 -21.526 -0.261E-03 -0.261E-03
 -21.516 -0.268E-03 -0.268E-03
 -21.506 -0.274E-03 -0.274E-03
 -21.496 -0.280E-03 -0.280E-03
 -21.486 -0.286E-03 -0.286E-03
 -21.476 -0.292E-03 -0.292E-03
 -21.466 -0.297E-03 -0.297E-03
 -21.456 -0.302E-03 -0.302E-03
 -21.446 -0.307E-03 -0.307E-03
 -21.436 -0.312E-03 -0.312E-03
 -21.426 -0.316E-03 -0.316E-03
 -21.416 -0.320E-03 -0.320E-03
 -21.406 -0.324E-03 -0.324E-03
 -21.396 -0.327E-03 -0.327E-03
 -21.386 -0.329E-03 -0.329E-03
 -21.376 -0.331E-03 -0.331E-03
 -21.366 -0.332E-03 -0.332E-03
 -21.356 -0.333E-03 -0.333E-03
 -21.346 -0.333E-03 -0.333E-03
 -21.336 -0.333E-03 -0.333E-03
 -21.326 -0.332E-03 -0.332E-03
 -21.316 -0.329E-03 -0.329E-03
 -21.306 -0.327E-03 -0.327E-03
 -21.296 -0.323E-03 -0.323E-03
 -21.286 -0.318E-03 -0.318E-03
 -21.276 -0.313E-03 -0.313E-03
 -21.266 -0.307E-03 -0.307E-03
 -21.256 -0.299E-03 -0.299E-03
 -21.246 -0.291E-03 -0.291E-03
 -21.236 -0.281E-03 -0.281E-03
 -21.226 -0.270E-03 -0.270E-03
 -21.216 -0.259E-03 -0.259E-03
 -21.206 -0.246E-03 -0.246E-03
 -21.196 -0.232E-03 -0.232E-03
 -21.186 -0.216E-03 -0.216E-03
 -21.176 -0.199E-03 -0.199E-03
 -21.166 -0.181E-03 -0.181E-03
 -21.156 -0.162E-03 -0.162E-03
 -21.146 -0.141E-03 -0.141E-03
 -21.136 -0.119E-03 -0.119E-03
 -21.126 -0.958E-04 -0.958E-04
 -21.116 -0.710E-04 -0.710E-04
 -21.106 -0.448E-04 -0.448E-04
 -21.096 -0.172E-04 -0.172E-04
 -21.086  0.118E-04  0.118E-04
 -21.076  0.422E-04  0.422E-04
 -21.066  0.740E-04  0.740E-04
 -21.056  0.107E-03  0.107E-03
 -21.046  0.142E-03  0.142E-03
 -21.036  0.177E-03  0.177E-03
 -21.026  0.215E-03  0.215E-03
 -21.016  0.253E-03  0.253E-03
 -21.006  0.293E-03  0.293E-03
 -20.996  0.333E-03  0.333E-03
 -20.986  0.375E-03  0.375E-03
 -20.976  0.418E-03  0.418E-03
 -20.966  0.462E-03  0.462E-03
 -20.956  0.506E-03  0.506E-03
 -20.946  0.552E-03  0.552E-03
 -20.936  0.598E-03  0.598E-03
 -20.926  0.645E-03  0.645E-03
 -20.916  0.692E-03  0.692E-03
 -20.906  0.740E-03  0.740E-03
 -20.896  0.788E-03  0.788E-03
 -20.886  0.836E-03  0.836E-03
 -20.876  0.884E-03  0.884E-03
 -20.866  0.932E-03  0.932E-03
 -20.856  0.979E-03  0.979E-03
 -20.846  0.103E-02  0.103E-02
 -20.836  0.107E-02  0.107E-02
 -20.826  0.112E-02  0.112E-02
 -20.816  0.116E-02  0.116E-02
 -20.806  0.121E-02  0.121E-02
 -20.796  0.125E-02  0.125E-02
 -20.786  0.129E-02  0.129E-02
 -20.776  0.133E-02  0.133E-02
 -20.766  0.136E-02  0.136E-02
 -20.756  0.139E-02  0.139E-02
 -20.746  0.143E-02  0.143E-02
 -20.736  0.145E-02  0.145E-02
 -20.726  0.148E-02  0.148E-02
 -20.716  0.150E-02  0.150E-02
 -20.706  0.152E-02  0.152E-02
 -20.696  0.153E-02  0.153E-02
 -20.686  0.154E-02  0.154E-02
 -20.676  0.155E-02  0.155E-02
 -20.666  0.155E-02  0.155E-02
 -20.656  0.154E-02  0.154E-02
 -20.646  0.153E-02  0.153E-02
 -20.636  0.152E-02  0.152E-02
 -20.626  0.150E-02  0.150E-02
 -20.616  0.147E-02  0.147E-02
 -20.606  0.143E-02  0.143E-02
 -20.596  0.139E-02  0.139E-02
 -20.586  0.135E-02  0.135E-02
 -20.576  0.129E-02  0.129E-02
 -20.566  0.123E-02  0.123E-02
 -20.556  0.116E-02  0.116E-02
 -20.546  0.108E-02  0.108E-02
 -20.536  0.100E-02  0.100E-02
 -20.526  0.907E-03  0.907E-03
 -20.516  0.805E-03  0.805E-03
 -20.506  0.695E-03  0.695E-03
 -20.496  0.577E-03  0.577E-03
 -20.486  0.450E-03  0.450E-03
 -20.476  0.314E-03  0.314E-03
 -20.466  0.169E-03  0.169E-03
 -20.456  0.153E-04  0.153E-04
 -20.446 -0.147E-03 -0.147E-03
 -20.436 -0.319E-03 -0.319E-03
 -20.426 -0.499E-03 -0.499E-03
 -20.416 -0.687E-03 -0.687E-03
 -20.406 -0.885E-03 -0.885E-03
 -20.396 -0.109E-02 -0.109E-02
 -20.386 -0.130E-02 -0.130E-02
 -20.376 -0.153E-02 -0.153E-02
 -20.366 -0.176E-02 -0.176E-02
 -20.356 -0.199E-02 -0.199E-02
 -20.346 -0.224E-02 -0.224E-02
 -20.336 -0.249E-02 -0.249E-02
 -20.326 -0.274E-02 -0.274E-02
 -20.316 -0.300E-02 -0.300E-02
 -20.306 -0.327E-02 -0.327E-02
 -20.296 -0.354E-02 -0.354E-02
 -20.286 -0.382E-02 -0.382E-02
 -20.276 -0.409E-02 -0.409E-02
 -20.266 -0.437E-02 -0.437E-02
 -20.256 -0.465E-02 -0.465E-02
 -20.246 -0.493E-02 -0.493E-02
 -20.236 -0.521E-02 -0.521E-02
 -20.226 -0.549E-02 -0.549E-02
 -20.216 -0.576E-02 -0.576E-02
 -20.206 -0.603E-02 -0.603E-02
 -20.196 -0.630E-02 -0.630E-02
 -20.186 -0.656E-02 -0.656E-02
 -20.176 -0.681E-02 -0.681E-02
 -20.166 -0.705E-02 -0.705E-02
 -20.156 -0.727E-02 -0.727E-02
 -20.146 -0.749E-02 -0.749E-02
 -20.136 -0.769E-02 -0.769E-02
 -20.126 -0.788E-02 -0.788E-02
 -20.116 -0.805E-02 -0.805E-02
 -20.106 -0.820E-02 -0.820E-02
 -20.096 -0.833E-02 -0.833E-02
 -20.086 -0.843E-02 -0.843E-02
 -20.076 -0.851E-02 -0.851E-02
 -20.066 -0.856E-02 -0.856E-02
 -20.056 -0.858E-02 -0.858E-02
 -20.046 -0.857E-02 -0.857E-02
 -20.036 -0.853E-02 -0.853E-02
 -20.026 -0.845E-02 -0.845E-02
 -20.016 -0.833E-02 -0.833E-02
 -20.006 -0.818E-02 -0.818E-02
 -19.996 -0.798E-02 -0.798E-02
 -19.986 -0.773E-02 -0.773E-02
 -19.976 -0.744E-02 -0.744E-02
 -19.966 -0.710E-02 -0.710E-02
 -19.956 -0.670E-02 -0.670E-02
 -19.946 -0.625E-02 -0.625E-02
 -19.936 -0.575E-02 -0.575E-02
 -19.926 -0.518E-02 -0.518E-02
 -19.916 -0.456E-02 -0.456E-02
 -19.906 -0.387E-02 -0.387E-02
 -19.896 -0.311E-02 -0.311E-02
 -19.886 -0.229E-02 -0.229E-02
 -19.876 -0.140E-02 -0.140E-02
 -19.866 -0.430E-03 -0.430E-03
 -19.856  0.611E-03  0.611E-03
 -19.846  0.173E-02  0.173E-02
 -19.836  0.292E-02  0.292E-02
 -19.826  0.420E-02  0.420E-02
 -19.816  0.556E-02  0.556E-02
 -19.806  0.700E-02  0.700E-02
 -19.796  0.853E-02  0.853E-02
 -19.786  0.101E-01  0.101E-01
 -19.776  0.118E-01  0.118E-01
 -19.766  0.136E-01  0.136E-01
 -19.756  0.155E-01  0.155E-01
 -19.746  0.175E-01  0.175E-01
 -19.736  0.196E-01  0.196E-01
 -19.726  0.217E-01  0.217E-01
 -19.716  0.240E-01  0.240E-01
 -19.706  0.263E-01  0.263E-01
 -19.696  0.288E-01  0.288E-01
 -19.686  0.313E-01  0.313E-01
 -19.676  0.339E-01  0.339E-01
 -19.666  0.366E-01  0.366E-01
 -19.656  0.394E-01  0.394E-01
 -19.646  0.424E-01  0.424E-01
 -19.636  0.453E-01  0.453E-01
 -19.626  0.484E-01  0.484E-01
 -19.616  0.516E-01  0.516E-01
 -19.606  0.549E-01  0.549E-01
 -19.596  0.582E-01  0.582E-01
 -19.586  0.616E-01  0.616E-01
 -19.576  0.651E-01  0.651E-01
 -19.566  0.687E-01  0.687E-01
 -19.556  0.724E-01  0.724E-01
 -19.546  0.761E-01  0.761E-01
 -19.536  0.799E-01  0.799E-01
 -19.526  0.838E-01  0.838E-01
 -19.516  0.877E-01  0.877E-01
 -19.506  0.917E-01  0.917E-01
 -19.496  0.957E-01  0.957E-01
 -19.486  0.998E-01  0.998E-01
 -19.476  0.104E+00  0.104E+00
 -19.466  0.108E+00  0.108E+00
 -19.456  0.112E+00  0.112E+00
 -19.446  0.117E+00  0.117E+00
 -19.436  0.121E+00  0.121E+00
 -19.426  0.125E+00  0.125E+00
 -19.416  0.129E+00  0.129E+00
 -19.406  0.134E+00  0.134E+00
 -19.396  0.138E+00  0.138E+00
 -19.386  0.142E+00  0.142E+00
 -19.376  0.147E+00  0.147E+00
 -19.366  0.151E+00  0.151E+00
 -19.356  0.155E+00  0.155E+00
 -19.346  0.159E+00  0.159E+00
 -19.336  0.164E+00  0.164E+00
 -19.326  0.168E+00  0.168E+00
 -19.316  0.172E+00  0.172E+00
 -19.306  0.176E+00  0.176E+00
 -19.296  0.180E+00  0.180E+00
 -19.286  0.184E+00  0.184E+00
 -19.276  0.188E+00  0.188E+00
 -19.266  0.192E+00  0.192E+00
 -19.256  0.195E+00  0.195E+00
 -19.246  0.199E+00  0.199E+00
 -19.236  0.203E+00  0.203E+00
 -19.226  0.206E+00  0.206E+00
 -19.216  0.209E+00  0.209E+00
 -19.206  0.213E+00  0.213E+00
 -19.196  0.216E+00  0.216E+00
 -19.186  0.219E+00  0.219E+00
 -19.176  0.222E+00  0.222E+00
 -19.166  0.224E+00  0.224E+00
 -19.156  0.227E+00  0.227E+00
 -19.146  0.229E+00  0.229E+00
 -19.136  0.232E+00  0.232E+00
 -19.126  0.234E+00  0.234E+00
 -19.116  0.236E+00  0.236E+00
 -19.106  0.238E+00  0.238E+00
 -19.096  0.239E+00  0.239E+00
 -19.086  0.241E+00  0.241E+00
 -19.076  0.242E+00  0.242E+00
 -19.066  0.243E+00  0.243E+00
 -19.056  0.244E+00  0.244E+00
 -19.046  0.245E+00  0.245E+00
 -19.036  0.246E+00  0.246E+00
 -19.026  0.246E+00  0.246E+00
 -19.016  0.246E+00  0.246E+00
 -19.006  0.247E+00  0.247E+00
 -18.996  0.247E+00  0.247E+00
 -18.986  0.246E+00  0.246E+00
 -18.976  0.246E+00  0.246E+00
 -18.966  0.245E+00  0.245E+00
 -18.956  0.245E+00  0.245E+00
 -18.946  0.244E+00  0.244E+00
 -18.936  0.242E+00  0.242E+00
 -18.926  0.241E+00  0.241E+00
 -18.916  0.240E+00  0.240E+00
 -18.906  0.238E+00  0.238E+00
 -18.896  0.236E+00  0.236E+00
 -18.886  0.234E+00  0.234E+00
 -18.876  0.232E+00  0.232E+00
 -18.866  0.230E+00  0.230E+00
 -18.856  0.228E+00  0.228E+00
 -18.846  0.225E+00  0.225E+00
 -18.836  0.222E+00  0.222E+00
 -18.826  0.220E+00  0.220E+00
 -18.816  0.217E+00  0.217E+00
 -18.806  0.214E+00  0.214E+00
 -18.796  0.210E+00  0.210E+00
 -18.786  0.207E+00  0.207E+00
 -18.776  0.204E+00  0.204E+00
 -18.766  0.200E+00  0.200E+00
 -18.756  0.197E+00  0.197E+00
 -18.746  0.193E+00  0.193E+00
 -18.736  0.189E+00  0.189E+00
 -18.726  0.185E+00  0.185E+00
 -18.716  0.181E+00  0.181E+00
 -18.706  0.177E+00  0.177E+00
 -18.696  0.173E+00  0.173E+00
 -18.686  0.169E+00  0.169E+00
 -18.676  0.165E+00  0.165E+00
 -18.666  0.161E+00  0.161E+00
 -18.656  0.156E+00  0.156E+00
 -18.646  0.152E+00  0.152E+00
 -18.636  0.148E+00  0.148E+00
 -18.626  0.143E+00  0.143E+00
 -18.616  0.139E+00  0.139E+00
 -18.606  0.135E+00  0.135E+00
 -18.596  0.130E+00  0.130E+00
 -18.586  0.126E+00  0.126E+00
 -18.576  0.122E+00  0.122E+00
 -18.566  0.117E+00  0.117E+00
 -18.556  0.113E+00  0.113E+00
 -18.546  0.109E+00  0.109E+00
 -18.536  0.105E+00  0.105E+00
 -18.526  0.100E+00  0.100E+00
 -18.516  0.963E-01  0.963E-01
 -18.506  0.922E-01  0.922E-01
 -18.496  0.882E-01  0.882E-01
 -18.486  0.841E-01  0.841E-01
 -18.476  0.802E-01  0.802E-01
 -18.466  0.763E-01  0.763E-01
 -18.456  0.725E-01  0.725E-01
 -18.446  0.687E-01  0.687E-01
 -18.436  0.651E-01  0.651E-01
 -18.426  0.615E-01  0.615E-01
 -18.416  0.579E-01  0.579E-01
 -18.406  0.545E-01  0.545E-01
 -18.396  0.511E-01  0.511E-01
 -18.386  0.478E-01  0.478E-01
 -18.376  0.446E-01  0.446E-01
 -18.366  0.415E-01  0.415E-01
 -18.356  0.385E-01  0.385E-01
 -18.346  0.355E-01  0.355E-01
 -18.336  0.327E-01  0.327E-01
 -18.326  0.299E-01  0.299E-01
 -18.316  0.272E-01  0.272E-01
 -18.306  0.246E-01  0.246E-01
 -18.296  0.222E-01  0.222E-01
 -18.286  0.198E-01  0.198E-01
 -18.276  0.174E-01  0.174E-01
 -18.266  0.152E-01  0.152E-01
 -18.256  0.131E-01  0.131E-01
 -18.246  0.110E-01  0.110E-01
 -18.236  0.908E-02  0.908E-02
 -18.226  0.722E-02  0.722E-02
 -18.216  0.543E-02  0.543E-02
 -18.206  0.374E-02  0.374E-02
 -18.196  0.212E-02  0.212E-02
 -18.186  0.588E-03  0.588E-03
 -18.176 -0.865E-03 -0.865E-03
 -18.166 -0.224E-02 -0.224E-02
 -18.156 -0.354E-02 -0.354E-02
 -18.146 -0.476E-02 -0.476E-02
 -18.136 -0.591E-02 -0.591E-02
 -18.126 -0.698E-02 -0.698E-02
 -18.116 -0.799E-02 -0.799E-02
 -18.106 -0.893E-02 -0.893E-02
 -18.096 -0.980E-02 -0.980E-02
 -18.086 -0.106E-01 -0.106E-01
 -18.076 -0.114E-01 -0.114E-01
 -18.066 -0.121E-01 -0.121E-01
 -18.056 -0.127E-01 -0.127E-01
 -18.046 -0.133E-01 -0.133E-01
 -18.036 -0.138E-01 -0.138E-01
 -18.026 -0.143E-01 -0.143E-01
 -18.016 -0.147E-01 -0.147E-01
 -18.006 -0.151E-01 -0.151E-01
 -17.996 -0.154E-01 -0.154E-01
 -17.986 -0.157E-01 -0.157E-01
 -17.976 -0.160E-01 -0.160E-01
 -17.966 -0.162E-01 -0.162E-01
 -17.956 -0.164E-01 -0.164E-01
 -17.946 -0.165E-01 -0.165E-01
 -17.936 -0.166E-01 -0.166E-01
 -17.926 -0.167E-01 -0.167E-01
 -17.916 -0.168E-01 -0.168E-01
 -17.906 -0.168E-01 -0.168E-01
 -17.896 -0.168E-01 -0.168E-01
 -17.886 -0.168E-01 -0.168E-01
 -17.876 -0.168E-01 -0.168E-01
 -17.866 -0.167E-01 -0.167E-01
 -17.856 -0.166E-01 -0.166E-01
 -17.846 -0.166E-01 -0.166E-01
 -17.836 -0.165E-01 -0.165E-01
 -17.826 -0.163E-01 -0.163E-01
 -17.816 -0.162E-01 -0.162E-01
 -17.806 -0.161E-01 -0.161E-01
 -17.796 -0.159E-01 -0.159E-01
 -17.786 -0.158E-01 -0.158E-01
 -17.776 -0.156E-01 -0.156E-01
 -17.766 -0.154E-01 -0.154E-01
 -17.756 -0.153E-01 -0.153E-01
 -17.746 -0.151E-01 -0.151E-01
 -17.736 -0.149E-01 -0.149E-01
 -17.726 -0.147E-01 -0.147E-01
 -17.716 -0.145E-01 -0.145E-01
 -17.706 -0.144E-01 -0.144E-01
 -17.696 -0.142E-01 -0.142E-01
 -17.686 -0.140E-01 -0.140E-01
 -17.676 -0.138E-01 -0.138E-01
 -17.666 -0.136E-01 -0.136E-01
 -17.656 -0.134E-01 -0.134E-01
 -17.646 -0.133E-01 -0.133E-01
 -17.636 -0.131E-01 -0.131E-01
 -17.626 -0.129E-01 -0.129E-01
 -17.616 -0.128E-01 -0.128E-01
 -17.606 -0.126E-01 -0.126E-01
 -17.596 -0.124E-01 -0.124E-01
 -17.586 -0.123E-01 -0.123E-01
 -17.576 -0.121E-01 -0.121E-01
 -17.566 -0.120E-01 -0.120E-01
 -17.556 -0.119E-01 -0.119E-01
 -17.546 -0.117E-01 -0.117E-01
 -17.536 -0.116E-01 -0.116E-01
 -17.526 -0.115E-01 -0.115E-01
 -17.516 -0.113E-01 -0.113E-01
 -17.506 -0.112E-01 -0.112E-01
 -17.496 -0.111E-01 -0.111E-01
 -17.486 -0.110E-01 -0.110E-01
 -17.476 -0.109E-01 -0.109E-01
 -17.466 -0.108E-01 -0.108E-01
 -17.456 -0.107E-01 -0.107E-01
 -17.446 -0.106E-01 -0.106E-01
 -17.436 -0.105E-01 -0.105E-01
 -17.426 -0.104E-01 -0.104E-01
 -17.416 -0.103E-01 -0.103E-01
 -17.406 -0.102E-01 -0.102E-01
 -17.396 -0.101E-01 -0.101E-01
 -17.386 -0.994E-02 -0.994E-02
 -17.376 -0.982E-02 -0.982E-02
 -17.366 -0.970E-02 -0.970E-02
 -17.356 -0.957E-02 -0.957E-02
 -17.346 -0.943E-02 -0.943E-02
 -17.336 -0.928E-02 -0.928E-02
 -17.326 -0.912E-02 -0.912E-02
 -17.316 -0.894E-02 -0.894E-02
 -17.306 -0.875E-02 -0.875E-02
 -17.296 -0.854E-02 -0.854E-02
 -17.286 -0.832E-02 -0.832E-02
 -17.276 -0.807E-02 -0.807E-02
 -17.266 -0.780E-02 -0.780E-02
 -17.256 -0.751E-02 -0.751E-02
 -17.246 -0.718E-02 -0.718E-02
 -17.236 -0.683E-02 -0.683E-02
 -17.226 -0.645E-02 -0.645E-02
 -17.216 -0.603E-02 -0.603E-02
 -17.206 -0.557E-02 -0.557E-02
 -17.196 -0.508E-02 -0.508E-02
 -17.186 -0.454E-02 -0.454E-02
 -17.176 -0.395E-02 -0.395E-02
 -17.166 -0.332E-02 -0.332E-02
 -17.156 -0.263E-02 -0.263E-02
 -17.146 -0.189E-02 -0.189E-02
 -17.136 -0.109E-02 -0.109E-02
 -17.126 -0.225E-03 -0.225E-03
 -17.116  0.703E-03  0.703E-03
 -17.106  0.170E-02  0.170E-02
 -17.096  0.277E-02  0.277E-02
 -17.086  0.392E-02  0.392E-02
 -17.076  0.514E-02  0.514E-02
 -17.066  0.645E-02  0.645E-02
 -17.056  0.785E-02  0.785E-02
 -17.046  0.933E-02  0.933E-02
 -17.036  0.109E-01  0.109E-01
 -17.026  0.126E-01  0.126E-01
 -17.016  0.144E-01  0.144E-01
 -17.006  0.163E-01  0.163E-01
 -16.996  0.183E-01  0.183E-01
 -16.986  0.204E-01  0.204E-01
 -16.976  0.226E-01  0.226E-01
 -16.966  0.250E-01  0.250E-01
 -16.956  0.274E-01  0.274E-01
 -16.946  0.300E-01  0.300E-01
 -16.936  0.328E-01  0.328E-01
 -16.926  0.356E-01  0.356E-01
 -16.916  0.387E-01  0.387E-01
 -16.906  0.418E-01  0.418E-01
 -16.896  0.451E-01  0.451E-01
 -16.886  0.485E-01  0.485E-01
 -16.876  0.521E-01  0.521E-01
 -16.866  0.558E-01  0.558E-01
 -16.856  0.597E-01  0.597E-01
 -16.846  0.638E-01  0.638E-01
 -16.836  0.680E-01  0.680E-01
 -16.826  0.723E-01  0.723E-01
 -16.816  0.768E-01  0.768E-01
 -16.806  0.815E-01  0.815E-01
 -16.796  0.863E-01  0.863E-01
 -16.786  0.913E-01  0.913E-01
 -16.776  0.965E-01  0.965E-01
 -16.766  0.102E+00  0.102E+00
 -16.756  0.107E+00  0.107E+00
 -16.746  0.113E+00  0.113E+00
 -16.736  0.119E+00  0.119E+00
 -16.726  0.125E+00  0.125E+00
 -16.716  0.131E+00  0.131E+00
 -16.706  0.137E+00  0.137E+00
 -16.696  0.143E+00  0.143E+00
 -16.686  0.150E+00  0.150E+00
 -16.676  0.156E+00  0.156E+00
 -16.666  0.163E+00  0.163E+00
 -16.656  0.170E+00  0.170E+00
 -16.646  0.177E+00  0.177E+00
 -16.636  0.184E+00  0.184E+00
 -16.626  0.192E+00  0.192E+00
 -16.616  0.199E+00  0.199E+00
 -16.606  0.207E+00  0.207E+00
 -16.596  0.214E+00  0.214E+00
 -16.586  0.222E+00  0.222E+00
 -16.576  0.229E+00  0.229E+00
 -16.566  0.237E+00  0.237E+00
 -16.556  0.245E+00  0.245E+00
 -16.546  0.253E+00  0.253E+00
 -16.536  0.261E+00  0.261E+00
 -16.526  0.269E+00  0.269E+00
 -16.516  0.277E+00  0.277E+00
 -16.506  0.285E+00  0.285E+00
 -16.496  0.293E+00  0.293E+00
 -16.486  0.301E+00  0.301E+00
 -16.476  0.309E+00  0.309E+00
 -16.466  0.317E+00  0.317E+00
 -16.456  0.325E+00  0.325E+00
 -16.446  0.333E+00  0.333E+00
 -16.436  0.341E+00  0.341E+00
 -16.426  0.348E+00  0.348E+00
 -16.416  0.356E+00  0.356E+00
 -16.406  0.364E+00  0.364E+00
 -16.396  0.371E+00  0.371E+00
 -16.386  0.378E+00  0.378E+00
 -16.376  0.386E+00  0.386E+00
 -16.366  0.393E+00  0.393E+00
 -16.356  0.399E+00  0.399E+00
 -16.346  0.406E+00  0.406E+00
 -16.336  0.413E+00  0.413E+00
 -16.326  0.419E+00  0.419E+00
 -16.316  0.425E+00  0.425E+00
 -16.306  0.431E+00  0.431E+00
 -16.296  0.437E+00  0.437E+00
 -16.286  0.442E+00  0.442E+00
 -16.276  0.447E+00  0.447E+00
 -16.266  0.452E+00  0.452E+00
 -16.256  0.457E+00  0.457E+00
 -16.246  0.462E+00  0.462E+00
 -16.236  0.466E+00  0.466E+00
 -16.226  0.470E+00  0.470E+00
 -16.216  0.473E+00  0.473E+00
 -16.206  0.476E+00  0.476E+00
 -16.196  0.479E+00  0.479E+00
 -16.186  0.482E+00  0.482E+00
 -16.176  0.484E+00  0.484E+00
 -16.166  0.486E+00  0.486E+00
 -16.156  0.488E+00  0.488E+00
 -16.146  0.489E+00  0.489E+00
 -16.136  0.490E+00  0.490E+00
 -16.126  0.491E+00  0.491E+00
 -16.116  0.491E+00  0.491E+00
 -16.106  0.491E+00  0.491E+00
 -16.096  0.491E+00  0.491E+00
 -16.086  0.490E+00  0.490E+00
 -16.076  0.489E+00  0.489E+00
 -16.066  0.488E+00  0.488E+00
 -16.056  0.486E+00  0.486E+00
 -16.046  0.484E+00  0.484E+00
 -16.036  0.482E+00  0.482E+00
 -16.026  0.479E+00  0.479E+00
 -16.016  0.476E+00  0.476E+00
 -16.006  0.472E+00  0.472E+00
 -15.996  0.469E+00  0.469E+00
 -15.986  0.465E+00  0.465E+00
 -15.976  0.461E+00  0.461E+00
 -15.966  0.456E+00  0.456E+00
 -15.956  0.451E+00  0.451E+00
 -15.946  0.446E+00  0.446E+00
 -15.936  0.441E+00  0.441E+00
 -15.926  0.435E+00  0.435E+00
 -15.916  0.429E+00  0.429E+00
 -15.906  0.423E+00  0.423E+00
 -15.896  0.416E+00  0.416E+00
 -15.886  0.410E+00  0.410E+00
 -15.876  0.403E+00  0.403E+00
 -15.866  0.396E+00  0.396E+00
 -15.856  0.389E+00  0.389E+00
 -15.846  0.381E+00  0.381E+00
 -15.836  0.374E+00  0.374E+00
 -15.826  0.366E+00  0.366E+00
 -15.816  0.358E+00  0.358E+00
 -15.806  0.350E+00  0.350E+00
 -15.796  0.342E+00  0.342E+00
 -15.786  0.334E+00  0.334E+00
 -15.776  0.326E+00  0.326E+00
 -15.766  0.318E+00  0.318E+00
 -15.756  0.309E+00  0.309E+00
 -15.746  0.301E+00  0.301E+00
 -15.736  0.292E+00  0.292E+00
 -15.726  0.284E+00  0.284E+00
 -15.716  0.275E+00  0.275E+00
 -15.706  0.266E+00  0.266E+00
 -15.696  0.258E+00  0.258E+00
 -15.686  0.249E+00  0.249E+00
 -15.676  0.241E+00  0.241E+00
 -15.666  0.232E+00  0.232E+00
 -15.656  0.224E+00  0.224E+00
 -15.646  0.215E+00  0.215E+00
 -15.636  0.207E+00  0.207E+00
 -15.626  0.199E+00  0.199E+00
 -15.616  0.190E+00  0.190E+00
 -15.606  0.182E+00  0.182E+00
 -15.596  0.174E+00  0.174E+00
 -15.586  0.166E+00  0.166E+00
 -15.576  0.159E+00  0.159E+00
 -15.566  0.151E+00  0.151E+00
 -15.556  0.144E+00  0.144E+00
 -15.546  0.136E+00  0.136E+00
 -15.536  0.129E+00  0.129E+00
 -15.526  0.122E+00  0.122E+00
 -15.516  0.115E+00  0.115E+00
 -15.506  0.108E+00  0.108E+00
 -15.496  0.101E+00  0.101E+00
 -15.486  0.949E-01  0.949E-01
 -15.476  0.886E-01  0.886E-01
 -15.466  0.825E-01  0.825E-01
 -15.456  0.765E-01  0.765E-01
 -15.446  0.707E-01  0.707E-01
 -15.436  0.651E-01  0.651E-01
 -15.426  0.597E-01  0.597E-01
 -15.416  0.544E-01  0.544E-01
 -15.406  0.494E-01  0.494E-01
 -15.396  0.445E-01  0.445E-01
 -15.386  0.398E-01  0.398E-01
 -15.376  0.352E-01  0.352E-01
 -15.366  0.309E-01  0.309E-01
 -15.356  0.267E-01  0.267E-01
 -15.346  0.227E-01  0.227E-01
 -15.336  0.189E-01  0.189E-01
 -15.326  0.152E-01  0.152E-01
 -15.316  0.117E-01  0.117E-01
 -15.306  0.842E-02  0.842E-02
 -15.296  0.527E-02  0.527E-02
 -15.286  0.229E-02  0.229E-02
 -15.276 -0.540E-03 -0.540E-03
 -15.266 -0.321E-02 -0.321E-02
 -15.256 -0.573E-02 -0.573E-02
 -15.246 -0.810E-02 -0.810E-02
 -15.236 -0.103E-01 -0.103E-01
 -15.226 -0.124E-01 -0.124E-01
 -15.216 -0.143E-01 -0.143E-01
 -15.206 -0.162E-01 -0.162E-01
 -15.196 -0.178E-01 -0.178E-01
 -15.186 -0.194E-01 -0.194E-01
 -15.176 -0.208E-01 -0.208E-01
 -15.166 -0.221E-01 -0.221E-01
 -15.156 -0.233E-01 -0.233E-01
 -15.146 -0.244E-01 -0.244E-01
 -15.136 -0.254E-01 -0.254E-01
 -15.126 -0.263E-01 -0.263E-01
 -15.116 -0.271E-01 -0.271E-01
 -15.106 -0.278E-01 -0.278E-01
 -15.096 -0.284E-01 -0.284E-01
 -15.086 -0.289E-01 -0.289E-01
 -15.076 -0.294E-01 -0.294E-01
 -15.066 -0.298E-01 -0.298E-01
 -15.056 -0.301E-01 -0.301E-01
 -15.046 -0.303E-01 -0.303E-01
 -15.036 -0.305E-01 -0.305E-01
 -15.026 -0.306E-01 -0.306E-01
 -15.016 -0.306E-01 -0.306E-01
 -15.006 -0.306E-01 -0.306E-01
 -14.996 -0.306E-01 -0.306E-01
 -14.986 -0.305E-01 -0.305E-01
 -14.976 -0.303E-01 -0.303E-01
 -14.966 -0.301E-01 -0.301E-01
 -14.956 -0.299E-01 -0.299E-01
 -14.946 -0.296E-01 -0.296E-01
 -14.936 -0.293E-01 -0.293E-01
 -14.926 -0.290E-01 -0.290E-01
 -14.916 -0.286E-01 -0.286E-01
 -14.906 -0.282E-01 -0.282E-01
 -14.896 -0.278E-01 -0.278E-01
 -14.886 -0.274E-01 -0.274E-01
 -14.876 -0.269E-01 -0.269E-01
 -14.866 -0.265E-01 -0.265E-01
 -14.856 -0.260E-01 -0.260E-01
 -14.846 -0.255E-01 -0.255E-01
 -14.836 -0.249E-01 -0.249E-01
 -14.826 -0.244E-01 -0.244E-01
 -14.816 -0.239E-01 -0.239E-01
 -14.806 -0.233E-01 -0.233E-01
 -14.796 -0.227E-01 -0.227E-01
 -14.786 -0.221E-01 -0.221E-01
 -14.776 -0.215E-01 -0.215E-01
 -14.766 -0.209E-01 -0.209E-01
 -14.756 -0.203E-01 -0.203E-01
 -14.746 -0.197E-01 -0.197E-01
 -14.736 -0.190E-01 -0.190E-01
 -14.726 -0.184E-01 -0.184E-01
 -14.716 -0.177E-01 -0.177E-01
 -14.706 -0.171E-01 -0.171E-01
 -14.696 -0.164E-01 -0.164E-01
 -14.686 -0.157E-01 -0.157E-01
 -14.676 -0.150E-01 -0.150E-01
 -14.666 -0.143E-01 -0.143E-01
 -14.656 -0.136E-01 -0.136E-01
 -14.646 -0.129E-01 -0.129E-01
 -14.636 -0.122E-01 -0.122E-01
 -14.626 -0.114E-01 -0.114E-01
 -14.616 -0.107E-01 -0.107E-01
 -14.606 -0.989E-02 -0.989E-02
 -14.596 -0.911E-02 -0.911E-02
 -14.586 -0.831E-02 -0.831E-02
 -14.576 -0.750E-02 -0.750E-02
 -14.566 -0.668E-02 -0.668E-02
 -14.556 -0.584E-02 -0.584E-02
 -14.546 -0.498E-02 -0.498E-02
 -14.536 -0.411E-02 -0.411E-02
 -14.526 -0.322E-02 -0.322E-02
 -14.516 -0.231E-02 -0.231E-02
 -14.506 -0.138E-02 -0.138E-02
 -14.496 -0.438E-03 -0.438E-03
 -14.486  0.526E-03  0.526E-03
 -14.476  0.151E-02  0.151E-02
 -14.466  0.251E-02  0.251E-02
 -14.456  0.354E-02  0.354E-02
 -14.446  0.458E-02  0.458E-02
 -14.436  0.564E-02  0.564E-02
 -14.426  0.673E-02  0.673E-02
 -14.416  0.784E-02  0.784E-02
 -14.406  0.897E-02  0.897E-02
 -14.396  0.101E-01  0.101E-01
 -14.386  0.113E-01  0.113E-01
 -14.376  0.125E-01  0.125E-01
 -14.366  0.137E-01  0.137E-01
 -14.356  0.149E-01  0.149E-01
 -14.346  0.162E-01  0.162E-01
 -14.336  0.175E-01  0.175E-01
 -14.326  0.188E-01  0.188E-01
 -14.316  0.201E-01  0.201E-01
 -14.306  0.214E-01  0.214E-01
 -14.296  0.228E-01  0.228E-01
 -14.286  0.242E-01  0.242E-01
 -14.276  0.256E-01  0.256E-01
 -14.266  0.270E-01  0.270E-01
 -14.256  0.284E-01  0.284E-01
 -14.246  0.299E-01  0.299E-01
 -14.236  0.313E-01  0.313E-01
 -14.226  0.328E-01  0.328E-01
 -14.216  0.343E-01  0.343E-01
 -14.206  0.358E-01  0.358E-01
 -14.196  0.373E-01  0.373E-01
 -14.186  0.388E-01  0.388E-01
 -14.176  0.404E-01  0.404E-01
 -14.166  0.419E-01  0.419E-01
 -14.156  0.435E-01  0.435E-01
 -14.146  0.450E-01  0.450E-01
 -14.136  0.466E-01  0.466E-01
 -14.126  0.481E-01  0.481E-01
 -14.116  0.497E-01  0.497E-01
 -14.106  0.513E-01  0.513E-01
 -14.096  0.528E-01  0.528E-01
 -14.086  0.544E-01  0.544E-01
 -14.076  0.560E-01  0.560E-01
 -14.066  0.575E-01  0.575E-01
 -14.056  0.591E-01  0.591E-01
 -14.046  0.606E-01  0.606E-01
 -14.036  0.621E-01  0.621E-01
 -14.026  0.636E-01  0.636E-01
 -14.016  0.651E-01  0.651E-01
 -14.006  0.666E-01  0.666E-01
 -13.996  0.681E-01  0.681E-01
 -13.986  0.696E-01  0.696E-01
 -13.976  0.710E-01  0.710E-01
 -13.966  0.724E-01  0.724E-01
 -13.956  0.739E-01  0.739E-01
 -13.946  0.752E-01  0.752E-01
 -13.936  0.766E-01  0.766E-01
 -13.926  0.779E-01  0.779E-01
 -13.916  0.793E-01  0.793E-01
 -13.906  0.806E-01  0.806E-01
 -13.896  0.818E-01  0.818E-01
 -13.886  0.831E-01  0.831E-01
 -13.876  0.843E-01  0.843E-01
 -13.866  0.855E-01  0.855E-01
 -13.856  0.866E-01  0.866E-01
 -13.846  0.877E-01  0.877E-01
 -13.836  0.888E-01  0.888E-01
 -13.826  0.899E-01  0.899E-01
 -13.816  0.909E-01  0.909E-01
 -13.806  0.919E-01  0.919E-01
 -13.796  0.929E-01  0.929E-01
 -13.786  0.938E-01  0.938E-01
 -13.776  0.947E-01  0.947E-01
 -13.766  0.956E-01  0.956E-01
 -13.756  0.964E-01  0.964E-01
 -13.746  0.972E-01  0.972E-01
 -13.736  0.980E-01  0.980E-01
 -13.726  0.987E-01  0.987E-01
 -13.716  0.994E-01  0.994E-01
 -13.706  0.100E+00  0.100E+00
 -13.696  0.101E+00  0.101E+00
 -13.686  0.101E+00  0.101E+00
 -13.676  0.102E+00  0.102E+00
 -13.666  0.102E+00  0.102E+00
 -13.656  0.103E+00  0.103E+00
 -13.646  0.103E+00  0.103E+00
 -13.636  0.104E+00  0.104E+00
 -13.626  0.104E+00  0.104E+00
 -13.616  0.105E+00  0.105E+00
 -13.606  0.105E+00  0.105E+00
 -13.596  0.105E+00  0.105E+00
 -13.586  0.106E+00  0.106E+00
 -13.576  0.106E+00  0.106E+00
 -13.566  0.106E+00  0.106E+00
 -13.556  0.106E+00  0.106E+00
 -13.546  0.107E+00  0.107E+00
 -13.536  0.107E+00  0.107E+00
 -13.526  0.107E+00  0.107E+00
 -13.516  0.107E+00  0.107E+00
 -13.506  0.107E+00  0.107E+00
 -13.496  0.107E+00  0.107E+00
 -13.486  0.107E+00  0.107E+00
 -13.476  0.107E+00  0.107E+00
 -13.466  0.107E+00  0.107E+00
 -13.456  0.107E+00  0.107E+00
 -13.446  0.107E+00  0.107E+00
 -13.436  0.107E+00  0.107E+00
 -13.426  0.107E+00  0.107E+00
 -13.416  0.107E+00  0.107E+00
 -13.406  0.107E+00  0.107E+00
 -13.396  0.107E+00  0.107E+00
 -13.386  0.107E+00  0.107E+00
 -13.376  0.107E+00  0.107E+00
 -13.366  0.107E+00  0.107E+00
 -13.356  0.107E+00  0.107E+00
 -13.346  0.106E+00  0.106E+00
 -13.336  0.106E+00  0.106E+00
 -13.326  0.106E+00  0.106E+00
 -13.316  0.106E+00  0.106E+00
 -13.306  0.106E+00  0.106E+00
 -13.296  0.105E+00  0.105E+00
 -13.286  0.105E+00  0.105E+00
 -13.276  0.105E+00  0.105E+00
 -13.266  0.105E+00  0.105E+00
 -13.256  0.104E+00  0.104E+00
 -13.246  0.104E+00  0.104E+00
 -13.236  0.104E+00  0.104E+00
 -13.226  0.103E+00  0.103E+00
 -13.216  0.103E+00  0.103E+00
 -13.206  0.103E+00  0.103E+00
 -13.196  0.102E+00  0.102E+00
 -13.186  0.102E+00  0.102E+00
 -13.176  0.101E+00  0.101E+00
 -13.166  0.101E+00  0.101E+00
 -13.156  0.101E+00  0.101E+00
 -13.146  0.100E+00  0.100E+00
 -13.136  0.996E-01  0.996E-01
 -13.126  0.991E-01  0.991E-01
 -13.116  0.985E-01  0.985E-01
 -13.106  0.980E-01  0.980E-01
 -13.096  0.974E-01  0.974E-01
 -13.086  0.968E-01  0.968E-01
 -13.076  0.962E-01  0.962E-01
 -13.066  0.955E-01  0.955E-01
 -13.056  0.949E-01  0.949E-01
 -13.046  0.942E-01  0.942E-01
 -13.036  0.935E-01  0.935E-01
 -13.026  0.928E-01  0.928E-01
 -13.016  0.920E-01  0.920E-01
 -13.006  0.912E-01  0.912E-01
 -12.996  0.904E-01  0.904E-01
 -12.986  0.896E-01  0.896E-01
 -12.976  0.887E-01  0.887E-01
 -12.966  0.878E-01  0.878E-01
 -12.956  0.869E-01  0.869E-01
 -12.946  0.860E-01  0.860E-01
 -12.936  0.851E-01  0.851E-01
 -12.926  0.841E-01  0.841E-01
 -12.916  0.831E-01  0.831E-01
 -12.906  0.820E-01  0.820E-01
 -12.896  0.810E-01  0.810E-01
 -12.886  0.799E-01  0.799E-01
 -12.876  0.788E-01  0.788E-01
 -12.866  0.776E-01  0.776E-01
 -12.856  0.765E-01  0.765E-01
 -12.846  0.753E-01  0.753E-01
 -12.836  0.741E-01  0.741E-01
 -12.826  0.729E-01  0.729E-01
 -12.816  0.716E-01  0.716E-01
 -12.806  0.703E-01  0.703E-01
 -12.796  0.691E-01  0.691E-01
 -12.786  0.677E-01  0.677E-01
 -12.776  0.664E-01  0.664E-01
 -12.766  0.651E-01  0.651E-01
 -12.756  0.637E-01  0.637E-01
 -12.746  0.623E-01  0.623E-01
 -12.736  0.609E-01  0.609E-01
 -12.726  0.595E-01  0.595E-01
 -12.716  0.581E-01  0.581E-01
 -12.706  0.566E-01  0.566E-01
 -12.696  0.552E-01  0.552E-01
 -12.686  0.537E-01  0.537E-01
 -12.676  0.522E-01  0.522E-01
 -12.666  0.508E-01  0.508E-01
 -12.656  0.493E-01  0.493E-01
 -12.646  0.478E-01  0.478E-01
 -12.636  0.463E-01  0.463E-01
 -12.626  0.448E-01  0.448E-01
 -12.616  0.433E-01  0.433E-01
 -12.606  0.418E-01  0.418E-01
 -12.596  0.403E-01  0.403E-01
 -12.586  0.388E-01  0.388E-01
 -12.576  0.373E-01  0.373E-01
 -12.566  0.358E-01  0.358E-01
 -12.556  0.343E-01  0.343E-01
 -12.546  0.328E-01  0.328E-01
 -12.536  0.314E-01  0.314E-01
 -12.526  0.299E-01  0.299E-01
 -12.516  0.284E-01  0.284E-01
 -12.506  0.270E-01  0.270E-01
 -12.496  0.256E-01  0.256E-01
 -12.486  0.242E-01  0.242E-01
 -12.476  0.228E-01  0.228E-01
 -12.466  0.214E-01  0.214E-01
 -12.456  0.201E-01  0.201E-01
 -12.446  0.187E-01  0.187E-01
 -12.436  0.174E-01  0.174E-01
 -12.426  0.161E-01  0.161E-01
 -12.416  0.148E-01  0.148E-01
 -12.406  0.136E-01  0.136E-01
 -12.396  0.124E-01  0.124E-01
 -12.386  0.112E-01  0.112E-01
 -12.376  0.100E-01  0.100E-01
 -12.366  0.887E-02  0.887E-02
 -12.356  0.777E-02  0.777E-02
 -12.346  0.669E-02  0.669E-02
 -12.336  0.564E-02  0.564E-02
 -12.326  0.463E-02  0.463E-02
 -12.316  0.365E-02  0.365E-02
 -12.306  0.271E-02  0.271E-02
 -12.296  0.180E-02  0.180E-02
 -12.286  0.930E-03  0.930E-03
 -12.276  0.957E-04  0.957E-04
 -12.266 -0.700E-03 -0.700E-03
 -12.256 -0.146E-02 -0.146E-02
 -12.246 -0.217E-02 -0.217E-02
 -12.236 -0.285E-02 -0.285E-02
 -12.226 -0.348E-02 -0.348E-02
 -12.216 -0.408E-02 -0.408E-02
 -12.206 -0.463E-02 -0.463E-02
 -12.196 -0.513E-02 -0.513E-02
 -12.186 -0.559E-02 -0.559E-02
 -12.176 -0.601E-02 -0.601E-02
 -12.166 -0.638E-02 -0.638E-02
 -12.156 -0.670E-02 -0.670E-02
 -12.146 -0.697E-02 -0.697E-02
 -12.136 -0.720E-02 -0.720E-02
 -12.126 -0.738E-02 -0.738E-02
 -12.116 -0.751E-02 -0.751E-02
 -12.106 -0.759E-02 -0.759E-02
 -12.096 -0.762E-02 -0.762E-02
 -12.086 -0.760E-02 -0.760E-02
 -12.076 -0.752E-02 -0.752E-02
 -12.066 -0.740E-02 -0.740E-02
 -12.056 -0.722E-02 -0.722E-02
 -12.046 -0.699E-02 -0.699E-02
 -12.036 -0.670E-02 -0.670E-02
 -12.026 -0.636E-02 -0.636E-02
 -12.016 -0.597E-02 -0.597E-02
 -12.006 -0.552E-02 -0.552E-02
 -11.996 -0.502E-02 -0.502E-02
 -11.986 -0.446E-02 -0.446E-02
 -11.976 -0.385E-02 -0.385E-02
 -11.966 -0.318E-02 -0.318E-02
 -11.956 -0.246E-02 -0.246E-02
 -11.946 -0.168E-02 -0.168E-02
 -11.936 -0.839E-03 -0.839E-03
 -11.926  0.530E-04  0.530E-04
 -11.916  0.100E-02  0.100E-02
 -11.906  0.201E-02  0.201E-02
 -11.896  0.306E-02  0.306E-02
 -11.886  0.418E-02  0.418E-02
 -11.876  0.535E-02  0.535E-02
 -11.866  0.657E-02  0.657E-02
 -11.856  0.785E-02  0.785E-02
 -11.846  0.919E-02  0.919E-02
 -11.836  0.106E-01  0.106E-01
 -11.826  0.120E-01  0.120E-01
 -11.816  0.135E-01  0.135E-01
 -11.806  0.150E-01  0.150E-01
 -11.796  0.166E-01  0.166E-01
 -11.786  0.183E-01  0.183E-01
 -11.776  0.200E-01  0.200E-01
 -11.766  0.217E-01  0.217E-01
 -11.756  0.235E-01  0.235E-01
 -11.746  0.253E-01  0.253E-01
 -11.736  0.272E-01  0.272E-01
 -11.726  0.291E-01  0.291E-01
 -11.716  0.311E-01  0.311E-01
 -11.706  0.331E-01  0.331E-01
 -11.696  0.351E-01  0.351E-01
 -11.686  0.371E-01  0.371E-01
 -11.676  0.392E-01  0.392E-01
 -11.666  0.414E-01  0.414E-01
 -11.656  0.435E-01  0.435E-01
 -11.646  0.457E-01  0.457E-01
 -11.636  0.479E-01  0.479E-01
 -11.626  0.502E-01  0.502E-01
 -11.616  0.524E-01  0.524E-01
 -11.606  0.547E-01  0.547E-01
 -11.596  0.570E-01  0.570E-01
 -11.586  0.593E-01  0.593E-01
 -11.576  0.616E-01  0.616E-01
 -11.566  0.639E-01  0.639E-01
 -11.556  0.663E-01  0.663E-01
 -11.546  0.686E-01  0.686E-01
 -11.536  0.709E-01  0.709E-01
 -11.526  0.733E-01  0.733E-01
 -11.516  0.756E-01  0.756E-01
 -11.506  0.779E-01  0.779E-01
 -11.496  0.802E-01  0.802E-01
 -11.486  0.825E-01  0.825E-01
 -11.476  0.848E-01  0.848E-01
 -11.466  0.870E-01  0.870E-01
 -11.456  0.893E-01  0.893E-01
 -11.446  0.915E-01  0.915E-01
 -11.436  0.937E-01  0.937E-01
 -11.426  0.958E-01  0.958E-01
 -11.416  0.979E-01  0.979E-01
 -11.406  0.100E+00  0.100E+00
 -11.396  0.102E+00  0.102E+00
 -11.386  0.104E+00  0.104E+00
 -11.376  0.106E+00  0.106E+00
 -11.366  0.108E+00  0.108E+00
 -11.356  0.110E+00  0.110E+00
 -11.346  0.112E+00  0.112E+00
 -11.336  0.113E+00  0.113E+00
 -11.326  0.115E+00  0.115E+00
 -11.316  0.117E+00  0.117E+00
 -11.306  0.118E+00  0.118E+00
 -11.296  0.120E+00  0.120E+00
 -11.286  0.121E+00  0.121E+00
 -11.276  0.123E+00  0.123E+00
 -11.266  0.124E+00  0.124E+00
 -11.256  0.126E+00  0.126E+00
 -11.246  0.127E+00  0.127E+00
 -11.236  0.128E+00  0.128E+00
 -11.226  0.129E+00  0.129E+00
 -11.216  0.130E+00  0.130E+00
 -11.206  0.131E+00  0.131E+00
 -11.196  0.132E+00  0.132E+00
 -11.186  0.133E+00  0.133E+00
 -11.176  0.134E+00  0.134E+00
 -11.166  0.134E+00  0.134E+00
 -11.156  0.135E+00  0.135E+00
 -11.146  0.135E+00  0.135E+00
 -11.136  0.136E+00  0.136E+00
 -11.126  0.136E+00  0.136E+00
 -11.116  0.137E+00  0.137E+00
 -11.106  0.137E+00  0.137E+00
 -11.096  0.137E+00  0.137E+00
 -11.086  0.137E+00  0.137E+00
 -11.076  0.137E+00  0.137E+00
 -11.066  0.137E+00  0.137E+00
 -11.056  0.137E+00  0.137E+00
 -11.046  0.137E+00  0.137E+00
 -11.036  0.137E+00  0.137E+00
 -11.026  0.137E+00  0.137E+00
 -11.016  0.136E+00  0.136E+00
 -11.006  0.136E+00  0.136E+00
 -10.996  0.136E+00  0.136E+00
 -10.986  0.135E+00  0.135E+00
 -10.976  0.135E+00  0.135E+00
 -10.966  0.134E+00  0.134E+00
 -10.956  0.134E+00  0.134E+00
 -10.946  0.133E+00  0.133E+00
 -10.936  0.132E+00  0.132E+00
 -10.926  0.132E+00  0.132E+00
 -10.916  0.131E+00  0.131E+00
 -10.906  0.130E+00  0.130E+00
 -10.896  0.129E+00  0.129E+00
 -10.886  0.128E+00  0.128E+00
 -10.876  0.127E+00  0.127E+00
 -10.866  0.126E+00  0.126E+00
 -10.856  0.126E+00  0.126E+00
 -10.846  0.125E+00  0.125E+00
 -10.836  0.124E+00  0.124E+00
 -10.826  0.123E+00  0.123E+00
 -10.816  0.122E+00  0.122E+00
 -10.806  0.120E+00  0.120E+00
 -10.796  0.119E+00  0.119E+00
 -10.786  0.118E+00  0.118E+00
 -10.776  0.117E+00  0.117E+00
 -10.766  0.116E+00  0.116E+00
 -10.756  0.115E+00  0.115E+00
 -10.746  0.114E+00  0.114E+00
 -10.736  0.113E+00  0.113E+00
 -10.726  0.112E+00  0.112E+00
 -10.716  0.110E+00  0.110E+00
 -10.706  0.109E+00  0.109E+00
 -10.696  0.108E+00  0.108E+00
 -10.686  0.107E+00  0.107E+00
 -10.676  0.106E+00  0.106E+00
 -10.666  0.105E+00  0.105E+00
 -10.656  0.103E+00  0.103E+00
 -10.646  0.102E+00  0.102E+00
 -10.636  0.101E+00  0.101E+00
 -10.626  0.999E-01  0.999E-01
 -10.616  0.987E-01  0.987E-01
 -10.606  0.976E-01  0.976E-01
 -10.596  0.964E-01  0.964E-01
 -10.586  0.952E-01  0.952E-01
 -10.576  0.941E-01  0.941E-01
 -10.566  0.929E-01  0.929E-01
 -10.556  0.918E-01  0.918E-01
 -10.546  0.906E-01  0.906E-01
 -10.536  0.895E-01  0.895E-01
 -10.526  0.883E-01  0.883E-01
 -10.516  0.872E-01  0.872E-01
 -10.506  0.860E-01  0.860E-01
 -10.496  0.849E-01  0.849E-01
 -10.486  0.837E-01  0.837E-01
 -10.476  0.826E-01  0.826E-01
 -10.466  0.814E-01  0.814E-01
 -10.456  0.803E-01  0.803E-01
 -10.446  0.791E-01  0.791E-01
 -10.436  0.780E-01  0.780E-01
 -10.426  0.769E-01  0.769E-01
 -10.416  0.757E-01  0.757E-01
 -10.406  0.746E-01  0.746E-01
 -10.396  0.734E-01  0.734E-01
 -10.386  0.723E-01  0.723E-01
 -10.376  0.711E-01  0.711E-01
 -10.366  0.700E-01  0.700E-01
 -10.356  0.688E-01  0.688E-01
 -10.346  0.677E-01  0.677E-01
 -10.336  0.665E-01  0.665E-01
 -10.326  0.653E-01  0.653E-01
 -10.316  0.642E-01  0.642E-01
 -10.306  0.630E-01  0.630E-01
 -10.296  0.618E-01  0.618E-01
 -10.286  0.606E-01  0.606E-01
 -10.276  0.595E-01  0.595E-01
 -10.266  0.583E-01  0.583E-01
 -10.256  0.571E-01  0.571E-01
 -10.246  0.559E-01  0.559E-01
 -10.236  0.547E-01  0.547E-01
 -10.226  0.535E-01  0.535E-01
 -10.216  0.524E-01  0.524E-01
 -10.206  0.512E-01  0.512E-01
 -10.196  0.500E-01  0.500E-01
 -10.186  0.488E-01  0.488E-01
 -10.176  0.476E-01  0.476E-01
 -10.166  0.464E-01  0.464E-01
 -10.156  0.452E-01  0.452E-01
 -10.146  0.440E-01  0.440E-01
 -10.136  0.428E-01  0.428E-01
 -10.126  0.417E-01  0.417E-01
 -10.116  0.405E-01  0.405E-01
 -10.106  0.393E-01  0.393E-01
 -10.096  0.381E-01  0.381E-01
 -10.086  0.370E-01  0.370E-01
 -10.076  0.358E-01  0.358E-01
 -10.066  0.347E-01  0.347E-01
 -10.056  0.335E-01  0.335E-01
 -10.046  0.324E-01  0.324E-01
 -10.036  0.312E-01  0.312E-01
 -10.026  0.301E-01  0.301E-01
 -10.016  0.290E-01  0.290E-01
 -10.006  0.279E-01  0.279E-01
  -9.996  0.268E-01  0.268E-01
  -9.986  0.258E-01  0.258E-01
  -9.976  0.247E-01  0.247E-01
  -9.966  0.237E-01  0.237E-01
  -9.956  0.227E-01  0.227E-01
  -9.946  0.216E-01  0.216E-01
  -9.936  0.206E-01  0.206E-01
  -9.926  0.197E-01  0.197E-01
  -9.916  0.187E-01  0.187E-01
  -9.906  0.178E-01  0.178E-01
  -9.896  0.168E-01  0.168E-01
  -9.886  0.159E-01  0.159E-01
  -9.876  0.151E-01  0.151E-01
  -9.866  0.142E-01  0.142E-01
  -9.856  0.133E-01  0.133E-01
  -9.846  0.125E-01  0.125E-01
  -9.836  0.117E-01  0.117E-01
  -9.826  0.109E-01  0.109E-01
  -9.816  0.102E-01  0.102E-01
  -9.806  0.943E-02  0.943E-02
  -9.796  0.871E-02  0.871E-02
  -9.786  0.802E-02  0.802E-02
  -9.776  0.735E-02  0.735E-02
  -9.766  0.670E-02  0.670E-02
  -9.756  0.607E-02  0.607E-02
  -9.746  0.547E-02  0.547E-02
  -9.736  0.488E-02  0.488E-02
  -9.726  0.433E-02  0.433E-02
  -9.716  0.379E-02  0.379E-02
  -9.706  0.327E-02  0.327E-02
  -9.696  0.278E-02  0.278E-02
  -9.686  0.231E-02  0.231E-02
  -9.676  0.186E-02  0.186E-02
  -9.666  0.144E-02  0.144E-02
  -9.656  0.103E-02  0.103E-02
  -9.646  0.646E-03  0.646E-03
  -9.636  0.282E-03  0.282E-03
  -9.626 -0.620E-04 -0.620E-04
  -9.616 -0.386E-03 -0.386E-03
  -9.606 -0.691E-03 -0.691E-03
  -9.596 -0.976E-03 -0.976E-03
  -9.586 -0.124E-02 -0.124E-02
  -9.576 -0.149E-02 -0.149E-02
  -9.566 -0.172E-02 -0.172E-02
  -9.556 -0.194E-02 -0.194E-02
  -9.546 -0.213E-02 -0.213E-02
  -9.536 -0.231E-02 -0.231E-02
  -9.526 -0.248E-02 -0.248E-02
  -9.516 -0.263E-02 -0.263E-02
  -9.506 -0.276E-02 -0.276E-02
  -9.496 -0.288E-02 -0.288E-02
  -9.486 -0.299E-02 -0.299E-02
  -9.476 -0.308E-02 -0.308E-02
  -9.466 -0.316E-02 -0.316E-02
  -9.456 -0.323E-02 -0.323E-02
  -9.446 -0.328E-02 -0.328E-02
  -9.436 -0.333E-02 -0.333E-02
  -9.426 -0.336E-02 -0.336E-02
  -9.416 -0.338E-02 -0.338E-02
  -9.406 -0.340E-02 -0.340E-02
  -9.396 -0.340E-02 -0.340E-02
  -9.386 -0.340E-02 -0.340E-02
  -9.376 -0.338E-02 -0.338E-02
  -9.366 -0.336E-02 -0.336E-02
  -9.356 -0.333E-02 -0.333E-02
  -9.346 -0.330E-02 -0.330E-02
  -9.336 -0.325E-02 -0.325E-02
  -9.326 -0.320E-02 -0.320E-02
  -9.316 -0.315E-02 -0.315E-02
  -9.306 -0.309E-02 -0.309E-02
  -9.296 -0.302E-02 -0.302E-02
  -9.286 -0.295E-02 -0.295E-02
  -9.276 -0.287E-02 -0.287E-02
  -9.266 -0.279E-02 -0.279E-02
  -9.256 -0.270E-02 -0.270E-02
  -9.246 -0.261E-02 -0.261E-02
  -9.236 -0.252E-02 -0.252E-02
  -9.226 -0.242E-02 -0.242E-02
  -9.216 -0.232E-02 -0.232E-02
  -9.206 -0.222E-02 -0.222E-02
  -9.196 -0.211E-02 -0.211E-02
  -9.186 -0.200E-02 -0.200E-02
  -9.176 -0.189E-02 -0.189E-02
  -9.166 -0.177E-02 -0.177E-02
  -9.156 -0.165E-02 -0.165E-02
  -9.146 -0.153E-02 -0.153E-02
  -9.136 -0.141E-02 -0.141E-02
  -9.126 -0.128E-02 -0.128E-02
  -9.116 -0.115E-02 -0.115E-02
  -9.106 -0.102E-02 -0.102E-02
  -9.096 -0.889E-03 -0.889E-03
  -9.086 -0.755E-03 -0.755E-03
  -9.076 -0.618E-03 -0.618E-03
  -9.066 -0.479E-03 -0.479E-03
  -9.056 -0.337E-03 -0.337E-03
  -9.046 -0.194E-03 -0.194E-03
  -9.036 -0.484E-04 -0.484E-04
  -9.026  0.993E-04  0.993E-04
  -9.016  0.249E-03  0.249E-03
  -9.006  0.401E-03  0.401E-03
  -8.996  0.556E-03  0.556E-03
  -8.986  0.712E-03  0.712E-03
  -8.976  0.871E-03  0.871E-03
  -8.966  0.103E-02  0.103E-02
  -8.956  0.119E-02  0.119E-02
  -8.946  0.136E-02  0.136E-02
  -8.936  0.153E-02  0.153E-02
  -8.926  0.170E-02  0.170E-02
  -8.916  0.187E-02  0.187E-02
  -8.906  0.205E-02  0.205E-02
  -8.896  0.222E-02  0.222E-02
  -8.886  0.240E-02  0.240E-02
  -8.876  0.258E-02  0.258E-02
  -8.866  0.277E-02  0.277E-02
  -8.856  0.296E-02  0.296E-02
  -8.846  0.314E-02  0.314E-02
  -8.836  0.333E-02  0.333E-02
  -8.826  0.353E-02  0.353E-02
  -8.816  0.372E-02  0.372E-02
  -8.806  0.392E-02  0.392E-02
  -8.796  0.412E-02  0.412E-02
  -8.786  0.432E-02  0.432E-02
  -8.776  0.452E-02  0.452E-02
  -8.766  0.473E-02  0.473E-02
  -8.756  0.493E-02  0.493E-02
  -8.746  0.514E-02  0.514E-02
  -8.736  0.535E-02  0.535E-02
  -8.726  0.556E-02  0.556E-02
  -8.716  0.577E-02  0.577E-02
  -8.706  0.598E-02  0.598E-02
  -8.696  0.620E-02  0.620E-02
  -8.686  0.641E-02  0.641E-02
  -8.676  0.662E-02  0.662E-02
  -8.666  0.684E-02  0.684E-02
  -8.656  0.705E-02  0.705E-02
  -8.646  0.726E-02  0.726E-02
  -8.636  0.748E-02  0.748E-02
  -8.626  0.769E-02  0.769E-02
  -8.616  0.790E-02  0.790E-02
  -8.606  0.811E-02  0.811E-02
  -8.596  0.832E-02  0.832E-02
  -8.586  0.853E-02  0.853E-02
  -8.576  0.874E-02  0.874E-02
  -8.566  0.894E-02  0.894E-02
  -8.556  0.914E-02  0.914E-02
  -8.546  0.934E-02  0.934E-02
  -8.536  0.954E-02  0.954E-02
  -8.526  0.973E-02  0.973E-02
  -8.516  0.992E-02  0.992E-02
  -8.506  0.101E-01  0.101E-01
  -8.496  0.103E-01  0.103E-01
  -8.486  0.105E-01  0.105E-01
  -8.476  0.106E-01  0.106E-01
  -8.466  0.108E-01  0.108E-01
  -8.456  0.110E-01  0.110E-01
  -8.446  0.111E-01  0.111E-01
  -8.436  0.113E-01  0.113E-01
  -8.426  0.115E-01  0.115E-01
  -8.416  0.116E-01  0.116E-01
  -8.406  0.117E-01  0.117E-01
  -8.396  0.119E-01  0.119E-01
  -8.386  0.120E-01  0.120E-01
  -8.376  0.121E-01  0.121E-01
  -8.366  0.122E-01  0.122E-01
  -8.356  0.124E-01  0.124E-01
  -8.346  0.125E-01  0.125E-01
  -8.336  0.125E-01  0.125E-01
  -8.326  0.126E-01  0.126E-01
  -8.316  0.127E-01  0.127E-01
  -8.306  0.128E-01  0.128E-01
  -8.296  0.129E-01  0.129E-01
  -8.286  0.129E-01  0.129E-01
  -8.276  0.130E-01  0.130E-01
  -8.266  0.130E-01  0.130E-01
  -8.256  0.131E-01  0.131E-01
  -8.246  0.131E-01  0.131E-01
  -8.236  0.131E-01  0.131E-01
  -8.226  0.131E-01  0.131E-01
  -8.216  0.131E-01  0.131E-01
  -8.206  0.131E-01  0.131E-01
  -8.196  0.131E-01  0.131E-01
  -8.186  0.131E-01  0.131E-01
  -8.176  0.131E-01  0.131E-01
  -8.166  0.130E-01  0.130E-01
  -8.156  0.130E-01  0.130E-01
  -8.146  0.129E-01  0.129E-01
  -8.136  0.129E-01  0.129E-01
  -8.126  0.128E-01  0.128E-01
  -8.116  0.128E-01  0.128E-01
  -8.106  0.127E-01  0.127E-01
  -8.096  0.126E-01  0.126E-01
  -8.086  0.125E-01  0.125E-01
  -8.076  0.124E-01  0.124E-01
  -8.066  0.123E-01  0.123E-01
  -8.056  0.122E-01  0.122E-01
  -8.046  0.121E-01  0.121E-01
  -8.036  0.120E-01  0.120E-01
  -8.026  0.118E-01  0.118E-01
  -8.016  0.117E-01  0.117E-01
  -8.006  0.116E-01  0.116E-01
  -7.996  0.114E-01  0.114E-01
  -7.986  0.113E-01  0.113E-01
  -7.976  0.111E-01  0.111E-01
  -7.966  0.110E-01  0.110E-01
  -7.956  0.108E-01  0.108E-01
  -7.946  0.107E-01  0.107E-01
  -7.936  0.105E-01  0.105E-01
  -7.926  0.103E-01  0.103E-01
  -7.916  0.102E-01  0.102E-01
  -7.906  0.999E-02  0.999E-02
  -7.896  0.981E-02  0.981E-02
  -7.886  0.964E-02  0.964E-02
  -7.876  0.945E-02  0.945E-02
  -7.866  0.927E-02  0.927E-02
  -7.856  0.909E-02  0.909E-02
  -7.846  0.890E-02  0.890E-02
  -7.836  0.871E-02  0.871E-02
  -7.826  0.852E-02  0.852E-02
  -7.816  0.834E-02  0.834E-02
  -7.806  0.815E-02  0.815E-02
  -7.796  0.796E-02  0.796E-02
  -7.786  0.777E-02  0.777E-02
  -7.776  0.758E-02  0.758E-02
  -7.766  0.739E-02  0.739E-02
  -7.756  0.721E-02  0.721E-02
  -7.746  0.702E-02  0.702E-02
  -7.736  0.684E-02  0.684E-02
  -7.726  0.665E-02  0.665E-02
  -7.716  0.647E-02  0.647E-02
  -7.706  0.629E-02  0.629E-02
  -7.696  0.612E-02  0.612E-02
  -7.686  0.594E-02  0.594E-02
  -7.676  0.577E-02  0.577E-02
  -7.666  0.560E-02  0.560E-02
  -7.656  0.543E-02  0.543E-02
  -7.646  0.527E-02  0.527E-02
  -7.636  0.511E-02  0.511E-02
  -7.626  0.495E-02  0.495E-02
  -7.616  0.480E-02  0.480E-02
  -7.606  0.465E-02  0.465E-02
  -7.596  0.451E-02  0.451E-02
  -7.586  0.437E-02  0.437E-02
  -7.576  0.423E-02  0.423E-02
  -7.566  0.410E-02  0.410E-02
  -7.556  0.397E-02  0.397E-02
  -7.546  0.385E-02  0.385E-02
  -7.536  0.373E-02  0.373E-02
  -7.526  0.361E-02  0.361E-02
  -7.516  0.351E-02  0.351E-02
  -7.506  0.340E-02  0.340E-02
  -7.496  0.330E-02  0.330E-02
  -7.486  0.321E-02  0.321E-02
  -7.476  0.312E-02  0.312E-02
  -7.466  0.304E-02  0.304E-02
  -7.456  0.296E-02  0.296E-02
  -7.446  0.289E-02  0.289E-02
  -7.436  0.283E-02  0.283E-02
  -7.426  0.277E-02  0.277E-02
  -7.416  0.271E-02  0.271E-02
  -7.406  0.267E-02  0.267E-02
  -7.396  0.262E-02  0.262E-02
  -7.386  0.259E-02  0.259E-02
  -7.376  0.256E-02  0.256E-02
  -7.366  0.253E-02  0.253E-02
  -7.356  0.251E-02  0.251E-02
  -7.346  0.250E-02  0.250E-02
  -7.336  0.250E-02  0.250E-02
  -7.326  0.250E-02  0.250E-02
  -7.316  0.250E-02  0.250E-02
  -7.306  0.252E-02  0.252E-02
  -7.296  0.254E-02  0.254E-02
  -7.286  0.256E-02  0.256E-02
  -7.276  0.259E-02  0.259E-02
  -7.266  0.263E-02  0.263E-02
  -7.256  0.267E-02  0.267E-02
  -7.246  0.272E-02  0.272E-02
  -7.236  0.278E-02  0.278E-02
  -7.226  0.284E-02  0.284E-02
  -7.216  0.291E-02  0.291E-02
  -7.206  0.298E-02  0.298E-02
  -7.196  0.306E-02  0.306E-02
  -7.186  0.314E-02  0.314E-02
  -7.176  0.323E-02  0.323E-02
  -7.166  0.333E-02  0.333E-02
  -7.156  0.343E-02  0.343E-02
  -7.146  0.354E-02  0.354E-02
  -7.136  0.365E-02  0.365E-02
  -7.126  0.377E-02  0.377E-02
  -7.116  0.389E-02  0.389E-02
  -7.106  0.402E-02  0.402E-02
  -7.096  0.415E-02  0.415E-02
  -7.086  0.429E-02  0.429E-02
  -7.076  0.443E-02  0.443E-02
  -7.066  0.458E-02  0.458E-02
  -7.056  0.473E-02  0.473E-02
  -7.046  0.488E-02  0.488E-02
  -7.036  0.504E-02  0.504E-02
  -7.026  0.520E-02  0.520E-02
  -7.016  0.537E-02  0.537E-02
  -7.006  0.554E-02  0.554E-02
  -6.996  0.571E-02  0.571E-02
  -6.986  0.589E-02  0.589E-02
  -6.976  0.607E-02  0.607E-02
  -6.966  0.625E-02  0.625E-02
  -6.956  0.643E-02  0.643E-02
  -6.946  0.662E-02  0.662E-02
  -6.936  0.680E-02  0.680E-02
  -6.926  0.699E-02  0.699E-02
  -6.916  0.718E-02  0.718E-02
  -6.906  0.737E-02  0.737E-02
  -6.896  0.757E-02  0.757E-02
  -6.886  0.776E-02  0.776E-02
  -6.876  0.795E-02  0.795E-02
  -6.866  0.815E-02  0.815E-02
  -6.856  0.834E-02  0.834E-02
  -6.846  0.853E-02  0.853E-02
  -6.836  0.873E-02  0.873E-02
  -6.826  0.892E-02  0.892E-02
  -6.816  0.911E-02  0.911E-02
  -6.806  0.930E-02  0.930E-02
  -6.796  0.948E-02  0.948E-02
  -6.786  0.967E-02  0.967E-02
  -6.776  0.985E-02  0.985E-02
  -6.766  0.100E-01  0.100E-01
  -6.756  0.102E-01  0.102E-01
  -6.746  0.104E-01  0.104E-01
  -6.736  0.106E-01  0.106E-01
  -6.726  0.107E-01  0.107E-01
  -6.716  0.109E-01  0.109E-01
  -6.706  0.110E-01  0.110E-01
  -6.696  0.112E-01  0.112E-01
  -6.686  0.114E-01  0.114E-01
  -6.676  0.115E-01  0.115E-01
  -6.666  0.116E-01  0.116E-01
  -6.656  0.118E-01  0.118E-01
  -6.646  0.119E-01  0.119E-01
  -6.636  0.120E-01  0.120E-01
  -6.626  0.121E-01  0.121E-01
  -6.616  0.123E-01  0.123E-01
  -6.606  0.124E-01  0.124E-01
  -6.596  0.125E-01  0.125E-01
  -6.586  0.126E-01  0.126E-01
  -6.576  0.126E-01  0.126E-01
  -6.566  0.127E-01  0.127E-01
  -6.556  0.128E-01  0.128E-01
  -6.546  0.128E-01  0.128E-01
  -6.536  0.129E-01  0.129E-01
  -6.526  0.130E-01  0.130E-01
  -6.516  0.130E-01  0.130E-01
  -6.506  0.130E-01  0.130E-01
  -6.496  0.130E-01  0.130E-01
  -6.486  0.131E-01  0.131E-01
  -6.476  0.131E-01  0.131E-01
  -6.466  0.131E-01  0.131E-01
  -6.456  0.131E-01  0.131E-01
  -6.446  0.131E-01  0.131E-01
  -6.436  0.130E-01  0.130E-01
  -6.426  0.130E-01  0.130E-01
  -6.416  0.130E-01  0.130E-01
  -6.406  0.129E-01  0.129E-01
  -6.396  0.129E-01  0.129E-01
  -6.386  0.128E-01  0.128E-01
  -6.376  0.127E-01  0.127E-01
  -6.366  0.127E-01  0.127E-01
  -6.356  0.126E-01  0.126E-01
  -6.346  0.125E-01  0.125E-01
  -6.336  0.124E-01  0.124E-01
  -6.326  0.123E-01  0.123E-01
  -6.316  0.122E-01  0.122E-01
  -6.306  0.121E-01  0.121E-01
  -6.296  0.119E-01  0.119E-01
  -6.286  0.118E-01  0.118E-01
  -6.276  0.117E-01  0.117E-01
  -6.266  0.115E-01  0.115E-01
  -6.256  0.114E-01  0.114E-01
  -6.246  0.112E-01  0.112E-01
  -6.236  0.111E-01  0.111E-01
  -6.226  0.109E-01  0.109E-01
  -6.216  0.107E-01  0.107E-01
  -6.206  0.106E-01  0.106E-01
  -6.196  0.104E-01  0.104E-01
  -6.186  0.102E-01  0.102E-01
  -6.176  0.100E-01  0.100E-01
  -6.166  0.981E-02  0.981E-02
  -6.156  0.962E-02  0.962E-02
  -6.146  0.943E-02  0.943E-02
  -6.136  0.923E-02  0.923E-02
  -6.126  0.903E-02  0.903E-02
  -6.116  0.882E-02  0.882E-02
  -6.106  0.862E-02  0.862E-02
  -6.096  0.841E-02  0.841E-02
  -6.086  0.820E-02  0.820E-02
  -6.076  0.799E-02  0.799E-02
  -6.066  0.778E-02  0.778E-02
  -6.056  0.757E-02  0.757E-02
  -6.046  0.736E-02  0.736E-02
  -6.036  0.715E-02  0.715E-02
  -6.026  0.694E-02  0.694E-02
  -6.016  0.673E-02  0.673E-02
  -6.006  0.652E-02  0.652E-02
  -5.996  0.631E-02  0.631E-02
  -5.986  0.610E-02  0.610E-02
  -5.976  0.589E-02  0.589E-02
  -5.966  0.568E-02  0.568E-02
  -5.956  0.548E-02  0.548E-02
  -5.946  0.528E-02  0.528E-02
  -5.936  0.508E-02  0.508E-02
  -5.926  0.488E-02  0.488E-02
  -5.916  0.468E-02  0.468E-02
  -5.906  0.449E-02  0.449E-02
  -5.896  0.430E-02  0.430E-02
  -5.886  0.411E-02  0.411E-02
  -5.876  0.393E-02  0.393E-02
  -5.866  0.375E-02  0.375E-02
  -5.856  0.357E-02  0.357E-02
  -5.846  0.339E-02  0.339E-02
  -5.836  0.322E-02  0.322E-02
  -5.826  0.306E-02  0.306E-02
  -5.816  0.289E-02  0.289E-02
  -5.806  0.273E-02  0.273E-02
  -5.796  0.258E-02  0.258E-02
  -5.786  0.242E-02  0.242E-02
  -5.776  0.228E-02  0.228E-02
  -5.766  0.213E-02  0.213E-02
  -5.756  0.199E-02  0.199E-02
  -5.746  0.186E-02  0.186E-02
  -5.736  0.173E-02  0.173E-02
  -5.726  0.160E-02  0.160E-02
  -5.716  0.148E-02  0.148E-02
  -5.706  0.136E-02  0.136E-02
  -5.696  0.124E-02  0.124E-02
  -5.686  0.113E-02  0.113E-02
  -5.676  0.102E-02  0.102E-02
  -5.666  0.923E-03  0.923E-03
  -5.656  0.825E-03  0.825E-03
  -5.646  0.731E-03  0.731E-03
  -5.636  0.641E-03  0.641E-03
  -5.626  0.556E-03  0.556E-03
  -5.616  0.474E-03  0.474E-03
  -5.606  0.396E-03  0.396E-03
  -5.596  0.322E-03  0.322E-03
  -5.586  0.252E-03  0.252E-03
  -5.576  0.186E-03  0.186E-03
  -5.566  0.123E-03  0.123E-03
  -5.556  0.645E-04  0.645E-04
  -5.546  0.920E-05  0.920E-05
  -5.536 -0.426E-04 -0.426E-04
  -5.526 -0.910E-04 -0.910E-04
  -5.516 -0.136E-03 -0.136E-03
  -5.506 -0.178E-03 -0.178E-03
  -5.496 -0.216E-03 -0.216E-03
  -5.486 -0.252E-03 -0.252E-03
  -5.476 -0.284E-03 -0.284E-03
  -5.466 -0.313E-03 -0.313E-03
  -5.456 -0.340E-03 -0.340E-03
  -5.446 -0.363E-03 -0.363E-03
  -5.436 -0.384E-03 -0.384E-03
  -5.426 -0.402E-03 -0.402E-03
  -5.416 -0.418E-03 -0.418E-03
  -5.406 -0.431E-03 -0.431E-03
  -5.396 -0.442E-03 -0.442E-03
  -5.386 -0.450E-03 -0.450E-03
  -5.376 -0.456E-03 -0.456E-03
  -5.366 -0.460E-03 -0.460E-03
  -5.356 -0.462E-03 -0.462E-03
  -5.346 -0.462E-03 -0.462E-03
  -5.336 -0.459E-03 -0.459E-03
  -5.326 -0.455E-03 -0.455E-03
  -5.316 -0.449E-03 -0.449E-03
  -5.306 -0.441E-03 -0.441E-03
  -5.296 -0.431E-03 -0.431E-03
  -5.286 -0.420E-03 -0.420E-03
  -5.276 -0.407E-03 -0.407E-03
  -5.266 -0.393E-03 -0.393E-03
  -5.256 -0.377E-03 -0.377E-03
  -5.246 -0.359E-03 -0.359E-03
  -5.236 -0.340E-03 -0.340E-03
  -5.226 -0.320E-03 -0.320E-03
  -5.216 -0.298E-03 -0.298E-03
  -5.206 -0.275E-03 -0.275E-03
  -5.196 -0.251E-03 -0.251E-03
  -5.186 -0.226E-03 -0.226E-03
  -5.176 -0.200E-03 -0.200E-03
  -5.166 -0.172E-03 -0.172E-03
  -5.156 -0.144E-03 -0.144E-03
  -5.146 -0.114E-03 -0.114E-03
  -5.136 -0.834E-04 -0.834E-04
  -5.126 -0.518E-04 -0.518E-04
  -5.116 -0.193E-04 -0.193E-04
  -5.106  0.140E-04  0.140E-04
  -5.096  0.482E-04  0.482E-04
  -5.086  0.833E-04  0.833E-04
  -5.076  0.119E-03  0.119E-03
  -5.066  0.156E-03  0.156E-03
  -5.056  0.193E-03  0.193E-03
  -5.046  0.231E-03  0.231E-03
  -5.036  0.270E-03  0.270E-03
  -5.026  0.309E-03  0.309E-03
  -5.016  0.349E-03  0.349E-03
  -5.006  0.390E-03  0.390E-03
  -4.996  0.431E-03  0.431E-03
  -4.986  0.472E-03  0.472E-03
  -4.976  0.514E-03  0.514E-03
  -4.966  0.557E-03  0.557E-03
  -4.956  0.600E-03  0.600E-03
  -4.946  0.643E-03  0.643E-03
  -4.936  0.687E-03  0.687E-03
  -4.926  0.731E-03  0.731E-03
  -4.916  0.776E-03  0.776E-03
  -4.906  0.820E-03  0.820E-03
  -4.896  0.865E-03  0.865E-03
  -4.886  0.910E-03  0.910E-03
  -4.876  0.955E-03  0.955E-03
  -4.866  0.100E-02  0.100E-02
  -4.856  0.105E-02  0.105E-02
  -4.846  0.109E-02  0.109E-02
  -4.836  0.114E-02  0.114E-02
  -4.826  0.118E-02  0.118E-02
  -4.816  0.123E-02  0.123E-02
  -4.806  0.127E-02  0.127E-02
  -4.796  0.132E-02  0.132E-02
  -4.786  0.136E-02  0.136E-02
  -4.776  0.140E-02  0.140E-02
  -4.766  0.145E-02  0.145E-02
  -4.756  0.149E-02  0.149E-02
  -4.746  0.153E-02  0.153E-02
  -4.736  0.158E-02  0.158E-02
  -4.726  0.162E-02  0.162E-02
  -4.716  0.166E-02  0.166E-02
  -4.706  0.170E-02  0.170E-02
  -4.696  0.174E-02  0.174E-02
  -4.686  0.178E-02  0.178E-02
  -4.676  0.182E-02  0.182E-02
  -4.666  0.186E-02  0.186E-02
  -4.656  0.189E-02  0.189E-02
  -4.646  0.193E-02  0.193E-02
  -4.636  0.196E-02  0.196E-02
  -4.626  0.200E-02  0.200E-02
  -4.616  0.203E-02  0.203E-02
  -4.606  0.206E-02  0.206E-02
  -4.596  0.209E-02  0.209E-02
  -4.586  0.212E-02  0.212E-02
  -4.576  0.215E-02  0.215E-02
  -4.566  0.217E-02  0.217E-02
  -4.556  0.220E-02  0.220E-02
  -4.546  0.222E-02  0.222E-02
  -4.536  0.224E-02  0.224E-02
  -4.526  0.227E-02  0.227E-02
  -4.516  0.228E-02  0.228E-02
  -4.506  0.230E-02  0.230E-02
  -4.496  0.232E-02  0.232E-02
  -4.486  0.233E-02  0.233E-02
  -4.476  0.235E-02  0.235E-02
  -4.466  0.236E-02  0.236E-02
  -4.456  0.237E-02  0.237E-02
  -4.446  0.238E-02  0.238E-02
  -4.436  0.238E-02  0.238E-02
  -4.426  0.239E-02  0.239E-02
  -4.416  0.239E-02  0.239E-02
  -4.406  0.239E-02  0.239E-02
  -4.396  0.239E-02  0.239E-02
  -4.386  0.239E-02  0.239E-02
  -4.376  0.239E-02  0.239E-02
  -4.366  0.238E-02  0.238E-02
  -4.356  0.238E-02  0.238E-02
  -4.346  0.237E-02  0.237E-02
  -4.336  0.236E-02  0.236E-02
  -4.326  0.235E-02  0.235E-02
  -4.316  0.233E-02  0.233E-02
  -4.306  0.232E-02  0.232E-02
  -4.296  0.230E-02  0.230E-02
  -4.286  0.228E-02  0.228E-02
  -4.276  0.226E-02  0.226E-02
  -4.266  0.224E-02  0.224E-02
  -4.256  0.222E-02  0.222E-02
  -4.246  0.220E-02  0.220E-02
  -4.236  0.217E-02  0.217E-02
  -4.226  0.215E-02  0.215E-02
  -4.216  0.212E-02  0.212E-02
  -4.206  0.209E-02  0.209E-02
  -4.196  0.206E-02  0.206E-02
  -4.186  0.203E-02  0.203E-02
  -4.176  0.200E-02  0.200E-02
  -4.166  0.197E-02  0.197E-02
  -4.156  0.193E-02  0.193E-02
  -4.146  0.190E-02  0.190E-02
  -4.136  0.186E-02  0.186E-02
  -4.126  0.183E-02  0.183E-02
  -4.116  0.179E-02  0.179E-02
  -4.106  0.175E-02  0.175E-02
  -4.096  0.172E-02  0.172E-02
  -4.086  0.168E-02  0.168E-02
  -4.076  0.164E-02  0.164E-02
  -4.066  0.160E-02  0.160E-02
  -4.056  0.156E-02  0.156E-02
  -4.046  0.152E-02  0.152E-02
  -4.036  0.148E-02  0.148E-02
  -4.026  0.144E-02  0.144E-02
  -4.016  0.140E-02  0.140E-02
  -4.006  0.136E-02  0.136E-02
  -3.996  0.132E-02  0.132E-02
  -3.986  0.128E-02  0.128E-02
  -3.976  0.124E-02  0.124E-02
  -3.966  0.120E-02  0.120E-02
  -3.956  0.115E-02  0.115E-02
  -3.946  0.111E-02  0.111E-02
  -3.936  0.107E-02  0.107E-02
  -3.926  0.104E-02  0.104E-02
  -3.916  0.996E-03  0.996E-03
  -3.906  0.957E-03  0.957E-03
  -3.896  0.919E-03  0.919E-03
  -3.886  0.881E-03  0.881E-03
  -3.876  0.844E-03  0.844E-03
  -3.866  0.807E-03  0.807E-03
  -3.856  0.771E-03  0.771E-03
  -3.846  0.736E-03  0.736E-03
  -3.836  0.701E-03  0.701E-03
  -3.826  0.667E-03  0.667E-03
  -3.816  0.633E-03  0.633E-03
  -3.806  0.600E-03  0.600E-03
  -3.796  0.568E-03  0.568E-03
  -3.786  0.537E-03  0.537E-03
  -3.776  0.507E-03  0.507E-03
  -3.766  0.477E-03  0.477E-03
  -3.756  0.448E-03  0.448E-03
  -3.746  0.420E-03  0.420E-03
  -3.736  0.393E-03  0.393E-03
  -3.726  0.366E-03  0.366E-03
  -3.716  0.341E-03  0.341E-03
  -3.706  0.316E-03  0.316E-03
  -3.696  0.292E-03  0.292E-03
  -3.686  0.269E-03  0.269E-03
  -3.676  0.247E-03  0.247E-03
  -3.666  0.226E-03  0.226E-03
  -3.656  0.206E-03  0.206E-03
  -3.646  0.186E-03  0.186E-03
  -3.636  0.167E-03  0.167E-03
  -3.626  0.149E-03  0.149E-03
  -3.616  0.132E-03  0.132E-03
  -3.606  0.116E-03  0.116E-03
  -3.596  0.101E-03  0.101E-03
  -3.586  0.858E-04  0.858E-04
  -3.576  0.719E-04  0.719E-04
  -3.566  0.587E-04  0.587E-04
  -3.556  0.462E-04  0.462E-04
  -3.546  0.345E-04  0.345E-04
  -3.536  0.235E-04  0.235E-04
  -3.526  0.131E-04  0.131E-04
  -3.516  0.347E-05  0.347E-05
  -3.506 -0.555E-05 -0.555E-05
  -3.496 -0.139E-04 -0.139E-04
  -3.486 -0.217E-04 -0.217E-04
  -3.476 -0.289E-04 -0.289E-04
  -3.466 -0.355E-04 -0.355E-04
  -3.456 -0.415E-04 -0.415E-04
  -3.446 -0.470E-04 -0.470E-04
  -3.436 -0.520E-04 -0.520E-04
  -3.426 -0.566E-04 -0.566E-04
  -3.416 -0.606E-04 -0.606E-04
  -3.406 -0.642E-04 -0.642E-04
  -3.396 -0.674E-04 -0.674E-04
  -3.386 -0.701E-04 -0.701E-04
  -3.376 -0.725E-04 -0.725E-04
  -3.366 -0.745E-04 -0.745E-04
  -3.356 -0.761E-04 -0.761E-04
  -3.346 -0.774E-04 -0.774E-04
  -3.336 -0.784E-04 -0.784E-04
  -3.326 -0.791E-04 -0.791E-04
  -3.316 -0.795E-04 -0.795E-04
  -3.306 -0.797E-04 -0.797E-04
  -3.296 -0.796E-04 -0.796E-04
  -3.286 -0.793E-04 -0.793E-04
  -3.276 -0.788E-04 -0.788E-04
  -3.266 -0.781E-04 -0.781E-04
  -3.256 -0.772E-04 -0.772E-04
  -3.246 -0.761E-04 -0.761E-04
  -3.236 -0.749E-04 -0.749E-04
  -3.226 -0.736E-04 -0.736E-04
  -3.216 -0.721E-04 -0.721E-04
  -3.206 -0.706E-04 -0.706E-04
  -3.196 -0.689E-04 -0.689E-04
  -3.186 -0.671E-04 -0.671E-04
  -3.176 -0.653E-04 -0.653E-04
  -3.166 -0.634E-04 -0.634E-04
  -3.156 -0.615E-04 -0.615E-04
  -3.146 -0.595E-04 -0.595E-04
  -3.136 -0.575E-04 -0.575E-04
  -3.126 -0.554E-04 -0.554E-04
  -3.116 -0.534E-04 -0.534E-04
  -3.106 -0.513E-04 -0.513E-04
  -3.096 -0.492E-04 -0.492E-04
  -3.086 -0.471E-04 -0.471E-04
  -3.076 -0.450E-04 -0.450E-04
  -3.066 -0.430E-04 -0.430E-04
  -3.056 -0.409E-04 -0.409E-04
  -3.046 -0.389E-04 -0.389E-04
  -3.036 -0.369E-04 -0.369E-04
  -3.026 -0.350E-04 -0.350E-04
  -3.016 -0.331E-04 -0.331E-04
  -3.006 -0.312E-04 -0.312E-04
  -2.996 -0.293E-04 -0.293E-04
  -2.986 -0.275E-04 -0.275E-04
  -2.976 -0.258E-04 -0.258E-04
  -2.966 -0.241E-04 -0.241E-04
  -2.956 -0.224E-04 -0.224E-04
  -2.946 -0.208E-04 -0.208E-04
  -2.936 -0.193E-04 -0.193E-04
  -2.926 -0.178E-04 -0.178E-04
  -2.916 -0.163E-04 -0.163E-04
  -2.906 -0.149E-04 -0.149E-04
  -2.896 -0.136E-04 -0.136E-04
  -2.886 -0.123E-04 -0.123E-04
  -2.876 -0.111E-04 -0.111E-04
  -2.866 -0.992E-05 -0.992E-05
  -2.856 -0.879E-05 -0.879E-05
  -2.846 -0.772E-05 -0.772E-05
  -2.836 -0.670E-05 -0.670E-05
  -2.826 -0.573E-05 -0.573E-05
  -2.816 -0.480E-05 -0.480E-05
  -2.806 -0.392E-05 -0.392E-05
  -2.796 -0.309E-05 -0.309E-05
  -2.786 -0.230E-05 -0.230E-05
  -2.776 -0.156E-05 -0.156E-05
  -2.766 -0.849E-06 -0.849E-06
  -2.756 -0.181E-06 -0.181E-06
  -2.746  0.450E-06  0.450E-06
  -2.736  0.105E-05  0.105E-05
  -2.726  0.161E-05  0.161E-05
  -2.716  0.214E-05  0.214E-05
  -2.706  0.265E-05  0.265E-05
  -2.696  0.313E-05  0.313E-05
  -2.686  0.358E-05  0.358E-05
  -2.676  0.401E-05  0.401E-05
  -2.666  0.442E-05  0.442E-05
  -2.656  0.481E-05  0.481E-05
  -2.646  0.519E-05  0.519E-05
  -2.636  0.555E-05  0.555E-05
  -2.626  0.591E-05  0.591E-05
  -2.616  0.625E-05  0.625E-05
  -2.606  0.658E-05  0.658E-05
  -2.596  0.692E-05  0.692E-05
  -2.586  0.725E-05  0.725E-05
  -2.576  0.757E-05  0.757E-05
  -2.566  0.790E-05  0.790E-05
  -2.556  0.824E-05  0.824E-05
  -2.546  0.858E-05  0.858E-05
  -2.536  0.892E-05  0.892E-05
  -2.526  0.928E-05  0.928E-05
  -2.516  0.965E-05  0.965E-05
  -2.506  0.100E-04  0.100E-04
  -2.496  0.104E-04  0.104E-04
  -2.486  0.108E-04  0.108E-04
  -2.476  0.113E-04  0.113E-04
  -2.466  0.117E-04  0.117E-04
  -2.456  0.122E-04  0.122E-04
  -2.446  0.127E-04  0.127E-04
  -2.436  0.132E-04  0.132E-04
  -2.426  0.138E-04  0.138E-04
  -2.416  0.144E-04  0.144E-04
  -2.406  0.150E-04  0.150E-04
  -2.396  0.156E-04  0.156E-04
  -2.386  0.163E-04  0.163E-04
  -2.376  0.170E-04  0.170E-04
  -2.366  0.177E-04  0.177E-04
  -2.356  0.185E-04  0.185E-04
  -2.346  0.193E-04  0.193E-04
  -2.336  0.202E-04  0.202E-04
  -2.326  0.211E-04  0.211E-04
  -2.316  0.220E-04  0.220E-04
  -2.306  0.229E-04  0.229E-04
  -2.296  0.239E-04  0.239E-04
  -2.286  0.250E-04  0.250E-04
  -2.276  0.261E-04  0.261E-04
  -2.266  0.272E-04  0.272E-04
  -2.256  0.283E-04  0.283E-04
  -2.246  0.295E-04  0.295E-04
  -2.236  0.308E-04  0.308E-04
  -2.226  0.320E-04  0.320E-04
  -2.216  0.334E-04  0.334E-04
  -2.206  0.347E-04  0.347E-04
  -2.196  0.361E-04  0.361E-04
  -2.186  0.375E-04  0.375E-04
  -2.176  0.390E-04  0.390E-04
  -2.166  0.405E-04  0.405E-04
  -2.156  0.420E-04  0.420E-04
  -2.146  0.436E-04  0.436E-04
  -2.136  0.452E-04  0.452E-04
  -2.126  0.468E-04  0.468E-04
  -2.116  0.485E-04  0.485E-04
  -2.106  0.502E-04  0.502E-04
  -2.096  0.519E-04  0.519E-04
  -2.086  0.537E-04  0.537E-04
  -2.076  0.554E-04  0.554E-04
  -2.066  0.572E-04  0.572E-04
  -2.056  0.590E-04  0.590E-04
  -2.046  0.609E-04  0.609E-04
  -2.036  0.627E-04  0.627E-04
  -2.026  0.646E-04  0.646E-04
  -2.016  0.665E-04  0.665E-04
  -2.006  0.684E-04  0.684E-04
  -1.996  0.703E-04  0.703E-04
  -1.986  0.722E-04  0.722E-04
  -1.976  0.741E-04  0.741E-04
  -1.966  0.760E-04  0.760E-04
  -1.956  0.779E-04  0.779E-04
  -1.946  0.798E-04  0.798E-04
  -1.936  0.817E-04  0.817E-04
  -1.926  0.836E-04  0.836E-04
  -1.916  0.855E-04  0.855E-04
  -1.906  0.874E-04  0.874E-04
  -1.896  0.892E-04  0.892E-04
  -1.886  0.911E-04  0.911E-04
  -1.876  0.929E-04  0.929E-04
  -1.866  0.947E-04  0.947E-04
  -1.856  0.965E-04  0.965E-04
  -1.846  0.983E-04  0.983E-04
  -1.836  0.100E-03  0.100E-03
  -1.826  0.102E-03  0.102E-03
  -1.816  0.103E-03  0.103E-03
  -1.806  0.105E-03  0.105E-03
  -1.796  0.107E-03  0.107E-03
  -1.786  0.108E-03  0.108E-03
  -1.776  0.110E-03  0.110E-03
  -1.766  0.111E-03  0.111E-03
  -1.756  0.112E-03  0.112E-03
  -1.746  0.114E-03  0.114E-03
  -1.736  0.115E-03  0.115E-03
  -1.726  0.116E-03  0.116E-03
  -1.716  0.117E-03  0.117E-03
  -1.706  0.119E-03  0.119E-03
  -1.696  0.120E-03  0.120E-03
  -1.686  0.121E-03  0.121E-03
  -1.676  0.122E-03  0.122E-03
  -1.666  0.123E-03  0.123E-03
  -1.656  0.123E-03  0.123E-03
  -1.646  0.124E-03  0.124E-03
  -1.636  0.125E-03  0.125E-03
  -1.626  0.125E-03  0.125E-03
  -1.616  0.126E-03  0.126E-03
  -1.606  0.127E-03  0.127E-03
  -1.596  0.127E-03  0.127E-03
  -1.586  0.127E-03  0.127E-03
  -1.576  0.128E-03  0.128E-03
  -1.566  0.128E-03  0.128E-03
  -1.556  0.128E-03  0.128E-03
  -1.546  0.128E-03  0.128E-03
  -1.536  0.128E-03  0.128E-03
  -1.526  0.128E-03  0.128E-03
  -1.516  0.128E-03  0.128E-03
  -1.506  0.127E-03  0.127E-03
  -1.496  0.127E-03  0.127E-03
  -1.486  0.127E-03  0.127E-03
  -1.476  0.126E-03  0.126E-03
  -1.466  0.126E-03  0.126E-03
  -1.456  0.125E-03  0.125E-03
  -1.446  0.125E-03  0.125E-03
  -1.436  0.124E-03  0.124E-03
  -1.426  0.123E-03  0.123E-03
  -1.416  0.122E-03  0.122E-03
  -1.406  0.122E-03  0.122E-03
  -1.396  0.121E-03  0.121E-03
  -1.386  0.120E-03  0.120E-03
  -1.376  0.118E-03  0.118E-03
  -1.366  0.117E-03  0.117E-03
  -1.356  0.116E-03  0.116E-03
  -1.346  0.115E-03  0.115E-03
  -1.336  0.114E-03  0.114E-03
  -1.326  0.112E-03  0.112E-03
  -1.316  0.111E-03  0.111E-03
  -1.306  0.110E-03  0.110E-03
  -1.296  0.108E-03  0.108E-03
  -1.286  0.107E-03  0.107E-03
  -1.276  0.105E-03  0.105E-03
  -1.266  0.104E-03  0.104E-03
  -1.256  0.102E-03  0.102E-03
  -1.246  0.100E-03  0.100E-03
  -1.236  0.987E-04  0.987E-04
  -1.226  0.970E-04  0.970E-04
  -1.216  0.953E-04  0.953E-04
  -1.206  0.936E-04  0.936E-04
  -1.196  0.918E-04  0.918E-04
  -1.186  0.901E-04  0.901E-04
  -1.176  0.883E-04  0.883E-04
  -1.166  0.865E-04  0.865E-04
  -1.156  0.847E-04  0.847E-04
  -1.146  0.829E-04  0.829E-04
  -1.136  0.811E-04  0.811E-04
  -1.126  0.792E-04  0.792E-04
  -1.116  0.774E-04  0.774E-04
  -1.106  0.756E-04  0.756E-04
  -1.096  0.738E-04  0.738E-04
  -1.086  0.719E-04  0.719E-04
  -1.076  0.701E-04  0.701E-04
  -1.066  0.683E-04  0.683E-04
  -1.056  0.665E-04  0.665E-04
  -1.046  0.647E-04  0.647E-04
  -1.036  0.629E-04  0.629E-04
  -1.026  0.612E-04  0.612E-04
  -1.016  0.594E-04  0.594E-04
  -1.006  0.577E-04  0.577E-04
  -0.996  0.560E-04  0.560E-04
  -0.986  0.543E-04  0.543E-04
  -0.976  0.526E-04  0.526E-04
  -0.966  0.509E-04  0.509E-04
  -0.956  0.493E-04  0.493E-04
  -0.946  0.477E-04  0.477E-04
  -0.936  0.461E-04  0.461E-04
  -0.926  0.446E-04  0.446E-04
  -0.916  0.430E-04  0.430E-04
  -0.906  0.415E-04  0.415E-04
  -0.896  0.401E-04  0.401E-04
  -0.886  0.386E-04  0.386E-04
  -0.876  0.372E-04  0.372E-04
  -0.866  0.358E-04  0.358E-04
  -0.856  0.345E-04  0.345E-04
  -0.846  0.332E-04  0.332E-04
  -0.836  0.319E-04  0.319E-04
  -0.826  0.306E-04  0.306E-04
  -0.816  0.294E-04  0.294E-04
  -0.806  0.282E-04  0.282E-04
  -0.796  0.270E-04  0.270E-04
  -0.786  0.259E-04  0.259E-04
  -0.776  0.248E-04  0.248E-04
  -0.766  0.237E-04  0.237E-04
  -0.756  0.227E-04  0.227E-04
  -0.746  0.217E-04  0.217E-04
  -0.736  0.208E-04  0.208E-04
  -0.726  0.198E-04  0.198E-04
  -0.716  0.189E-04  0.189E-04
  -0.706  0.181E-04  0.181E-04
  -0.696  0.172E-04  0.172E-04
  -0.686  0.164E-04  0.164E-04
  -0.676  0.156E-04  0.156E-04
  -0.666  0.149E-04  0.149E-04
  -0.656  0.142E-04  0.142E-04
  -0.646  0.135E-04  0.135E-04
  -0.636  0.129E-04  0.129E-04
  -0.626  0.122E-04  0.122E-04
  -0.616  0.116E-04  0.116E-04
  -0.606  0.111E-04  0.111E-04
  -0.596  0.105E-04  0.105E-04
  -0.586  0.100E-04  0.100E-04
  -0.576  0.952E-05  0.952E-05
  -0.566  0.906E-05  0.906E-05
  -0.556  0.862E-05  0.862E-05
  -0.546  0.821E-05  0.821E-05
  -0.536  0.782E-05  0.782E-05
  -0.526  0.746E-05  0.746E-05
  -0.516  0.711E-05  0.711E-05
  -0.506  0.679E-05  0.679E-05
  -0.496  0.649E-05  0.649E-05
  -0.486  0.622E-05  0.622E-05
  -0.476  0.596E-05  0.596E-05
  -0.466  0.572E-05  0.572E-05
  -0.456  0.550E-05  0.550E-05
  -0.446  0.530E-05  0.530E-05
  -0.436  0.512E-05  0.512E-05
  -0.426  0.495E-05  0.495E-05
  -0.416  0.480E-05  0.480E-05
  -0.406  0.467E-05  0.467E-05
  -0.396  0.455E-05  0.455E-05
  -0.386  0.445E-05  0.445E-05
  -0.376  0.437E-05  0.437E-05
  -0.366  0.430E-05  0.430E-05
  -0.356  0.424E-05  0.424E-05
  -0.346  0.420E-05  0.420E-05
  -0.336  0.417E-05  0.417E-05
  -0.326  0.415E-05  0.415E-05
  -0.316  0.414E-05  0.414E-05
  -0.306  0.415E-05  0.415E-05
  -0.296  0.417E-05  0.417E-05
  -0.286  0.420E-05  0.420E-05
  -0.276  0.424E-05  0.424E-05
  -0.266  0.430E-05  0.430E-05
  -0.256  0.436E-05  0.436E-05
  -0.246  0.444E-05  0.444E-05
  -0.236  0.453E-05  0.453E-05
  -0.226  0.463E-05  0.463E-05
  -0.216  0.474E-05  0.474E-05
  -0.206  0.487E-05  0.487E-05
  -0.196  0.501E-05  0.501E-05
  -0.186  0.515E-05  0.515E-05
  -0.176  0.531E-05  0.531E-05
  -0.166  0.549E-05  0.549E-05
  -0.156  0.568E-05  0.568E-05
  -0.146  0.588E-05  0.588E-05
  -0.136  0.609E-05  0.609E-05
  -0.126  0.632E-05  0.632E-05
  -0.116  0.657E-05  0.657E-05
  -0.106  0.683E-05  0.683E-05
  -0.096  0.712E-05  0.712E-05
  -0.086  0.741E-05  0.741E-05
  -0.076  0.773E-05  0.773E-05
  -0.066  0.807E-05  0.807E-05
  -0.056  0.843E-05  0.843E-05
  -0.046  0.881E-05  0.881E-05
  -0.036  0.921E-05  0.921E-05
  -0.026  0.964E-05  0.964E-05
  -0.016  0.101E-04  0.101E-04
  -0.006  0.106E-04  0.106E-04
   0.004  0.111E-04  0.111E-04
   0.014  0.116E-04  0.116E-04
   0.024  0.122E-04  0.122E-04
   0.034  0.128E-04  0.128E-04
   0.044  0.134E-04  0.134E-04
   0.054  0.141E-04  0.141E-04
   0.064  0.148E-04  0.148E-04
   0.074  0.156E-04  0.156E-04
   0.084  0.164E-04  0.164E-04
   0.094  0.172E-04  0.172E-04
   0.104  0.181E-04  0.181E-04
   0.114  0.190E-04  0.190E-04
   0.124  0.200E-04  0.200E-04
   0.134  0.210E-04  0.210E-04
   0.144  0.221E-04  0.221E-04
   0.154  0.232E-04  0.232E-04
   0.164  0.244E-04  0.244E-04
   0.174  0.256E-04  0.256E-04
   0.184  0.269E-04  0.269E-04
   0.194  0.282E-04  0.282E-04
   0.204  0.296E-04  0.296E-04
   0.214  0.311E-04  0.311E-04
   0.224  0.326E-04  0.326E-04
   0.234  0.342E-04  0.342E-04
   0.244  0.358E-04  0.358E-04
   0.254  0.375E-04  0.375E-04
   0.264  0.393E-04  0.393E-04
   0.274  0.411E-04  0.411E-04
   0.284  0.430E-04  0.430E-04
   0.294  0.450E-04  0.450E-04
   0.304  0.470E-04  0.470E-04
   0.314  0.491E-04  0.491E-04
   0.324  0.512E-04  0.512E-04
   0.334  0.534E-04  0.534E-04
   0.344  0.557E-04  0.557E-04
   0.354  0.580E-04  0.580E-04
   0.364  0.604E-04  0.604E-04
   0.374  0.628E-04  0.628E-04
   0.384  0.653E-04  0.653E-04
   0.394  0.678E-04  0.678E-04
   0.404  0.703E-04  0.703E-04
   0.414  0.730E-04  0.730E-04
   0.424  0.756E-04  0.756E-04
   0.434  0.783E-04  0.783E-04
   0.444  0.810E-04  0.810E-04
   0.454  0.837E-04  0.837E-04
   0.464  0.864E-04  0.864E-04
   0.474  0.892E-04  0.892E-04
   0.484  0.919E-04  0.919E-04
   0.494  0.946E-04  0.946E-04
   0.504  0.974E-04  0.974E-04
   0.514  0.100E-03  0.100E-03
   0.524  0.103E-03  0.103E-03
   0.534  0.105E-03  0.105E-03
   0.544  0.108E-03  0.108E-03
   0.554  0.111E-03  0.111E-03
   0.564  0.113E-03  0.113E-03
   0.574  0.115E-03  0.115E-03
   0.584  0.118E-03  0.118E-03
   0.594  0.120E-03  0.120E-03
   0.604  0.122E-03  0.122E-03
   0.614  0.124E-03  0.124E-03
   0.624  0.126E-03  0.126E-03
   0.634  0.127E-03  0.127E-03
   0.644  0.129E-03  0.129E-03
   0.654  0.130E-03  0.130E-03
   0.664  0.131E-03  0.131E-03
   0.674  0.132E-03  0.132E-03
   0.684  0.132E-03  0.132E-03
   0.694  0.133E-03  0.133E-03
   0.704  0.133E-03  0.133E-03
   0.714  0.133E-03  0.133E-03
   0.724  0.132E-03  0.132E-03
   0.734  0.131E-03  0.131E-03
   0.744  0.130E-03  0.130E-03
   0.754  0.128E-03  0.128E-03
   0.764  0.126E-03  0.126E-03
   0.774  0.124E-03  0.124E-03
   0.784  0.121E-03  0.121E-03
   0.794  0.118E-03  0.118E-03
   0.804  0.114E-03  0.114E-03
   0.814  0.110E-03  0.110E-03
   0.824  0.105E-03  0.105E-03
   0.834  0.997E-04  0.997E-04
   0.844  0.938E-04  0.938E-04
   0.854  0.874E-04  0.874E-04
   0.864  0.804E-04  0.804E-04
   0.874  0.728E-04  0.728E-04
   0.884  0.646E-04  0.646E-04
   0.894  0.557E-04  0.557E-04
   0.904  0.461E-04  0.461E-04
   0.914  0.359E-04  0.359E-04
   0.924  0.250E-04  0.250E-04
   0.934  0.134E-04  0.134E-04
   0.944  0.101E-05  0.101E-05
   0.954 -0.121E-04 -0.121E-04
   0.964 -0.259E-04 -0.259E-04
   0.974 -0.404E-04 -0.404E-04
   0.984 -0.558E-04 -0.558E-04
   0.994 -0.718E-04 -0.718E-04
   1.004 -0.887E-04 -0.887E-04
   1.014 -0.106E-03 -0.106E-03
   1.024 -0.125E-03 -0.125E-03
   1.034 -0.144E-03 -0.144E-03
   1.044 -0.164E-03 -0.164E-03
   1.054 -0.184E-03 -0.184E-03
   1.064 -0.206E-03 -0.206E-03
   1.074 -0.228E-03 -0.228E-03
   1.084 -0.250E-03 -0.250E-03
   1.094 -0.274E-03 -0.274E-03
   1.104 -0.298E-03 -0.298E-03
   1.114 -0.323E-03 -0.323E-03
   1.124 -0.348E-03 -0.348E-03
   1.134 -0.374E-03 -0.374E-03
   1.144 -0.400E-03 -0.400E-03
   1.154 -0.427E-03 -0.427E-03
   1.164 -0.454E-03 -0.454E-03
   1.174 -0.482E-03 -0.482E-03
   1.184 -0.510E-03 -0.510E-03
   1.194 -0.538E-03 -0.538E-03
   1.204 -0.566E-03 -0.566E-03
   1.214 -0.595E-03 -0.595E-03
   1.224 -0.623E-03 -0.623E-03
   1.234 -0.651E-03 -0.651E-03
   1.244 -0.679E-03 -0.679E-03
   1.254 -0.707E-03 -0.707E-03
   1.264 -0.735E-03 -0.735E-03
   1.274 -0.762E-03 -0.762E-03
   1.284 -0.788E-03 -0.788E-03
   1.294 -0.814E-03 -0.814E-03
   1.304 -0.839E-03 -0.839E-03
   1.314 -0.863E-03 -0.863E-03
   1.324 -0.885E-03 -0.885E-03
   1.334 -0.907E-03 -0.907E-03
   1.344 -0.927E-03 -0.927E-03
   1.354 -0.946E-03 -0.946E-03
   1.364 -0.962E-03 -0.962E-03
   1.374 -0.977E-03 -0.977E-03
   1.384 -0.990E-03 -0.990E-03
   1.394 -0.100E-02 -0.100E-02
   1.404 -0.101E-02 -0.101E-02
   1.414 -0.101E-02 -0.101E-02
   1.424 -0.102E-02 -0.102E-02
   1.434 -0.102E-02 -0.102E-02
   1.444 -0.101E-02 -0.101E-02
   1.454 -0.100E-02 -0.100E-02
   1.464 -0.994E-03 -0.994E-03
   1.474 -0.979E-03 -0.979E-03
   1.484 -0.960E-03 -0.960E-03
   1.494 -0.937E-03 -0.937E-03
   1.504 -0.909E-03 -0.909E-03
   1.514 -0.876E-03 -0.876E-03
   1.524 -0.838E-03 -0.838E-03
   1.534 -0.794E-03 -0.794E-03
   1.544 -0.746E-03 -0.746E-03
   1.554 -0.691E-03 -0.691E-03
   1.564 -0.630E-03 -0.630E-03
   1.574 -0.563E-03 -0.563E-03
   1.584 -0.490E-03 -0.490E-03
   1.594 -0.410E-03 -0.410E-03
   1.604 -0.323E-03 -0.323E-03
   1.614 -0.228E-03 -0.228E-03
   1.624 -0.126E-03 -0.126E-03
   1.634 -0.165E-04 -0.165E-04
   1.644  0.101E-03  0.101E-03
   1.654  0.227E-03  0.227E-03
   1.664  0.361E-03  0.361E-03
   1.674  0.504E-03  0.504E-03
   1.684  0.655E-03  0.655E-03
   1.694  0.815E-03  0.815E-03
   1.704  0.985E-03  0.985E-03
   1.714  0.116E-02  0.116E-02
   1.724  0.135E-02  0.135E-02
   1.734  0.155E-02  0.155E-02
   1.744  0.176E-02  0.176E-02
   1.754  0.198E-02  0.198E-02
   1.764  0.220E-02  0.220E-02
   1.774  0.244E-02  0.244E-02
   1.784  0.269E-02  0.269E-02
   1.794  0.295E-02  0.295E-02
   1.804  0.322E-02  0.322E-02
   1.814  0.350E-02  0.350E-02
   1.824  0.379E-02  0.379E-02
   1.834  0.409E-02  0.409E-02
   1.844  0.440E-02  0.440E-02
   1.854  0.472E-02  0.472E-02
   1.864  0.506E-02  0.506E-02
   1.874  0.540E-02  0.540E-02
   1.884  0.575E-02  0.575E-02
   1.894  0.612E-02  0.612E-02
   1.904  0.649E-02  0.649E-02
   1.914  0.688E-02  0.688E-02
   1.924  0.727E-02  0.727E-02
   1.934  0.768E-02  0.768E-02
   1.944  0.809E-02  0.809E-02
   1.954  0.852E-02  0.852E-02
   1.964  0.895E-02  0.895E-02
   1.974  0.939E-02  0.939E-02
   1.984  0.985E-02  0.985E-02
   1.994  0.103E-01  0.103E-01
   2.004  0.108E-01  0.108E-01
   2.014  0.113E-01  0.113E-01
   2.024  0.117E-01  0.117E-01
   2.034  0.122E-01  0.122E-01
   2.044  0.127E-01  0.127E-01
   2.054  0.132E-01  0.132E-01
   2.064  0.138E-01  0.138E-01
   2.074  0.143E-01  0.143E-01
   2.084  0.148E-01  0.148E-01
   2.094  0.154E-01  0.154E-01
   2.104  0.159E-01  0.159E-01
   2.114  0.164E-01  0.164E-01
   2.124  0.170E-01  0.170E-01
   2.134  0.175E-01  0.175E-01
   2.144  0.181E-01  0.181E-01
   2.154  0.187E-01  0.187E-01
   2.164  0.192E-01  0.192E-01
   2.174  0.198E-01  0.198E-01
   2.184  0.204E-01  0.204E-01
   2.194  0.209E-01  0.209E-01
   2.204  0.215E-01  0.215E-01
   2.214  0.221E-01  0.221E-01
   2.224  0.226E-01  0.226E-01
   2.234  0.232E-01  0.232E-01
   2.244  0.238E-01  0.238E-01
   2.254  0.244E-01  0.244E-01
   2.264  0.249E-01  0.249E-01
   2.274  0.255E-01  0.255E-01
   2.284  0.261E-01  0.261E-01
   2.294  0.266E-01  0.266E-01
   2.304  0.272E-01  0.272E-01
   2.314  0.278E-01  0.278E-01
   2.324  0.283E-01  0.283E-01
   2.334  0.289E-01  0.289E-01
   2.344  0.294E-01  0.294E-01
   2.354  0.300E-01  0.300E-01
   2.364  0.305E-01  0.305E-01
   2.374  0.311E-01  0.311E-01
   2.384  0.316E-01  0.316E-01
   2.394  0.321E-01  0.321E-01
   2.404  0.326E-01  0.326E-01
   2.414  0.331E-01  0.331E-01
   2.424  0.336E-01  0.336E-01
   2.434  0.341E-01  0.341E-01
   2.444  0.346E-01  0.346E-01
   2.454  0.351E-01  0.351E-01
   2.464  0.356E-01  0.356E-01
   2.474  0.361E-01  0.361E-01
   2.484  0.365E-01  0.365E-01
   2.494  0.370E-01  0.370E-01
   2.504  0.375E-01  0.375E-01
   2.514  0.379E-01  0.379E-01
   2.524  0.383E-01  0.383E-01
   2.534  0.388E-01  0.388E-01
   2.544  0.392E-01  0.392E-01
   2.554  0.396E-01  0.396E-01
   2.564  0.400E-01  0.400E-01
   2.574  0.404E-01  0.404E-01
   2.584  0.408E-01  0.408E-01
   2.594  0.411E-01  0.411E-01
   2.604  0.415E-01  0.415E-01
   2.614  0.419E-01  0.419E-01
   2.624  0.422E-01  0.422E-01
   2.634  0.425E-01  0.425E-01
   2.644  0.429E-01  0.429E-01
   2.654  0.432E-01  0.432E-01
   2.664  0.435E-01  0.435E-01
   2.674  0.438E-01  0.438E-01
   2.684  0.441E-01  0.441E-01
   2.694  0.444E-01  0.444E-01
   2.704  0.447E-01  0.447E-01
   2.714  0.449E-01  0.449E-01
   2.724  0.452E-01  0.452E-01
   2.734  0.454E-01  0.454E-01
   2.744  0.457E-01  0.457E-01
   2.754  0.459E-01  0.459E-01
   2.764  0.461E-01  0.461E-01
   2.774  0.463E-01  0.463E-01
   2.784  0.465E-01  0.465E-01
   2.794  0.467E-01  0.467E-01
   2.804  0.468E-01  0.468E-01
   2.814  0.470E-01  0.470E-01
   2.824  0.471E-01  0.471E-01
   2.834  0.473E-01  0.473E-01
   2.844  0.474E-01  0.474E-01
   2.854  0.475E-01  0.475E-01
   2.864  0.476E-01  0.476E-01
   2.874  0.477E-01  0.477E-01
   2.884  0.478E-01  0.478E-01
   2.894  0.479E-01  0.479E-01
   2.904  0.479E-01  0.479E-01
   2.914  0.480E-01  0.480E-01
   2.924  0.480E-01  0.480E-01
   2.934  0.480E-01  0.480E-01
   2.944  0.480E-01  0.480E-01
   2.954  0.480E-01  0.480E-01
   2.964  0.480E-01  0.480E-01
   2.974  0.479E-01  0.479E-01
   2.984  0.479E-01  0.479E-01
   2.994  0.478E-01  0.478E-01
   3.004  0.477E-01  0.477E-01
   3.014  0.476E-01  0.476E-01
   3.024  0.475E-01  0.475E-01
   3.034  0.474E-01  0.474E-01
   3.044  0.472E-01  0.472E-01
   3.054  0.471E-01  0.471E-01
   3.064  0.469E-01  0.469E-01
   3.074  0.467E-01  0.467E-01
   3.084  0.465E-01  0.465E-01
   3.094  0.463E-01  0.463E-01
   3.104  0.460E-01  0.460E-01
   3.114  0.458E-01  0.458E-01
   3.124  0.455E-01  0.455E-01
   3.134  0.452E-01  0.452E-01
   3.144  0.449E-01  0.449E-01
   3.154  0.446E-01  0.446E-01
   3.164  0.442E-01  0.442E-01
   3.174  0.439E-01  0.439E-01
   3.184  0.435E-01  0.435E-01
   3.194  0.431E-01  0.431E-01
   3.204  0.427E-01  0.427E-01
   3.214  0.423E-01  0.423E-01
   3.224  0.419E-01  0.419E-01
   3.234  0.414E-01  0.414E-01
   3.244  0.410E-01  0.410E-01
   3.254  0.405E-01  0.405E-01
   3.264  0.400E-01  0.400E-01
   3.274  0.395E-01  0.395E-01
   3.284  0.390E-01  0.390E-01
   3.294  0.384E-01  0.384E-01
   3.304  0.379E-01  0.379E-01
   3.314  0.373E-01  0.373E-01
   3.324  0.368E-01  0.368E-01
   3.334  0.362E-01  0.362E-01
   3.344  0.356E-01  0.356E-01
   3.354  0.350E-01  0.350E-01
   3.364  0.344E-01  0.344E-01
   3.374  0.337E-01  0.337E-01
   3.384  0.331E-01  0.331E-01
   3.394  0.325E-01  0.325E-01
   3.404  0.318E-01  0.318E-01
   3.414  0.312E-01  0.312E-01
   3.424  0.305E-01  0.305E-01
   3.434  0.298E-01  0.298E-01
   3.444  0.291E-01  0.291E-01
   3.454  0.285E-01  0.285E-01
   3.464  0.278E-01  0.278E-01
   3.474  0.271E-01  0.271E-01
   3.484  0.264E-01  0.264E-01
   3.494  0.257E-01  0.257E-01
   3.504  0.250E-01  0.250E-01
   3.514  0.243E-01  0.243E-01
   3.524  0.236E-01  0.236E-01
   3.534  0.229E-01  0.229E-01
   3.544  0.222E-01  0.222E-01
   3.554  0.215E-01  0.215E-01
   3.564  0.209E-01  0.209E-01
   3.574  0.202E-01  0.202E-01
   3.584  0.195E-01  0.195E-01
   3.594  0.188E-01  0.188E-01
   3.604  0.181E-01  0.181E-01
   3.614  0.175E-01  0.175E-01
   3.624  0.168E-01  0.168E-01
   3.634  0.162E-01  0.162E-01
   3.644  0.155E-01  0.155E-01
   3.654  0.149E-01  0.149E-01
   3.664  0.142E-01  0.142E-01
   3.674  0.136E-01  0.136E-01
   3.684  0.130E-01  0.130E-01
   3.694  0.124E-01  0.124E-01
   3.704  0.118E-01  0.118E-01
   3.714  0.112E-01  0.112E-01
   3.724  0.107E-01  0.107E-01
   3.734  0.101E-01  0.101E-01
   3.744  0.954E-02  0.954E-02
   3.754  0.900E-02  0.900E-02
   3.764  0.848E-02  0.848E-02
   3.774  0.797E-02  0.797E-02
   3.784  0.747E-02  0.747E-02
   3.794  0.698E-02  0.698E-02
   3.804  0.651E-02  0.651E-02
   3.814  0.605E-02  0.605E-02
   3.824  0.560E-02  0.560E-02
   3.834  0.517E-02  0.517E-02
   3.844  0.475E-02  0.475E-02
   3.854  0.435E-02  0.435E-02
   3.864  0.395E-02  0.395E-02
   3.874  0.358E-02  0.358E-02
   3.884  0.321E-02  0.321E-02
   3.894  0.286E-02  0.286E-02
   3.904  0.252E-02  0.252E-02
   3.914  0.220E-02  0.220E-02
   3.924  0.189E-02  0.189E-02
   3.934  0.159E-02  0.159E-02
   3.944  0.131E-02  0.131E-02
   3.954  0.104E-02  0.104E-02
   3.964  0.783E-03  0.783E-03
   3.974  0.538E-03  0.538E-03
   3.984  0.306E-03  0.306E-03
   3.994  0.861E-04  0.861E-04
   4.004 -0.122E-03 -0.122E-03
   4.014 -0.318E-03 -0.318E-03
   4.024 -0.502E-03 -0.502E-03
   4.034 -0.676E-03 -0.676E-03
   4.044 -0.838E-03 -0.838E-03
   4.054 -0.989E-03 -0.989E-03
   4.064 -0.113E-02 -0.113E-02
   4.074 -0.126E-02 -0.126E-02
   4.084 -0.138E-02 -0.138E-02
   4.094 -0.149E-02 -0.149E-02
   4.104 -0.159E-02 -0.159E-02
   4.114 -0.169E-02 -0.169E-02
   4.124 -0.177E-02 -0.177E-02
   4.134 -0.185E-02 -0.185E-02
   4.144 -0.191E-02 -0.191E-02
   4.154 -0.197E-02 -0.197E-02
   4.164 -0.203E-02 -0.203E-02
   4.174 -0.207E-02 -0.207E-02
   4.184 -0.211E-02 -0.211E-02
   4.194 -0.214E-02 -0.214E-02
   4.204 -0.217E-02 -0.217E-02
   4.214 -0.219E-02 -0.219E-02
   4.224 -0.221E-02 -0.221E-02
   4.234 -0.221E-02 -0.221E-02
   4.244 -0.222E-02 -0.222E-02
   4.254 -0.222E-02 -0.222E-02
   4.264 -0.221E-02 -0.221E-02
   4.274 -0.221E-02 -0.221E-02
   4.284 -0.219E-02 -0.219E-02
   4.294 -0.218E-02 -0.218E-02
   4.304 -0.216E-02 -0.216E-02
   4.314 -0.214E-02 -0.214E-02
   4.324 -0.211E-02 -0.211E-02
   4.334 -0.208E-02 -0.208E-02
   4.344 -0.205E-02 -0.205E-02
   4.354 -0.202E-02 -0.202E-02
   4.364 -0.199E-02 -0.199E-02
   4.374 -0.195E-02 -0.195E-02
   4.384 -0.191E-02 -0.191E-02
   4.394 -0.187E-02 -0.187E-02
   4.404 -0.183E-02 -0.183E-02
   4.414 -0.179E-02 -0.179E-02
   4.424 -0.175E-02 -0.175E-02
   4.434 -0.171E-02 -0.171E-02
   4.444 -0.166E-02 -0.166E-02
   4.454 -0.162E-02 -0.162E-02
   4.464 -0.158E-02 -0.158E-02
   4.474 -0.153E-02 -0.153E-02
   4.484 -0.149E-02 -0.149E-02
   4.494 -0.144E-02 -0.144E-02
   4.504 -0.140E-02 -0.140E-02
   4.514 -0.136E-02 -0.136E-02
   4.524 -0.131E-02 -0.131E-02
   4.534 -0.127E-02 -0.127E-02
   4.544 -0.123E-02 -0.123E-02
   4.554 -0.118E-02 -0.118E-02
   4.564 -0.114E-02 -0.114E-02
   4.574 -0.110E-02 -0.110E-02
   4.584 -0.106E-02 -0.106E-02
   4.594 -0.102E-02 -0.102E-02
   4.604 -0.982E-03 -0.982E-03
   4.614 -0.944E-03 -0.944E-03
   4.624 -0.906E-03 -0.906E-03
   4.634 -0.870E-03 -0.870E-03
   4.644 -0.834E-03 -0.834E-03
   4.654 -0.800E-03 -0.800E-03
   4.664 -0.766E-03 -0.766E-03
   4.674 -0.733E-03 -0.733E-03
   4.684 -0.701E-03 -0.701E-03
   4.694 -0.671E-03 -0.671E-03
   4.704 -0.641E-03 -0.641E-03
   4.714 -0.612E-03 -0.612E-03
   4.724 -0.584E-03 -0.584E-03
   4.734 -0.556E-03 -0.556E-03
   4.744 -0.530E-03 -0.530E-03
   4.754 -0.505E-03 -0.505E-03
   4.764 -0.480E-03 -0.480E-03
   4.774 -0.457E-03 -0.457E-03
   4.784 -0.434E-03 -0.434E-03
   4.794 -0.413E-03 -0.413E-03
   4.804 -0.392E-03 -0.392E-03
   4.814 -0.372E-03 -0.372E-03
   4.824 -0.352E-03 -0.352E-03
   4.834 -0.334E-03 -0.334E-03
   4.844 -0.316E-03 -0.316E-03
   4.854 -0.299E-03 -0.299E-03
   4.864 -0.283E-03 -0.283E-03
   4.874 -0.268E-03 -0.268E-03
   4.884 -0.253E-03 -0.253E-03
   4.894 -0.239E-03 -0.239E-03
   4.904 -0.226E-03 -0.226E-03
   4.914 -0.213E-03 -0.213E-03
   4.924 -0.201E-03 -0.201E-03
   4.934 -0.189E-03 -0.189E-03
   4.944 -0.178E-03 -0.178E-03
   4.954 -0.168E-03 -0.168E-03
   4.964 -0.158E-03 -0.158E-03
   4.974 -0.148E-03 -0.148E-03
   4.984 -0.139E-03 -0.139E-03
   4.994 -0.131E-03 -0.131E-03
   5.004 -0.123E-03 -0.123E-03
   5.014 -0.115E-03 -0.115E-03
   5.024 -0.108E-03 -0.108E-03
   5.034 -0.101E-03 -0.101E-03
   5.044 -0.948E-04 -0.948E-04
   5.054 -0.888E-04 -0.888E-04
   5.064 -0.830E-04 -0.830E-04
   5.074 -0.777E-04 -0.777E-04
   5.084 -0.726E-04 -0.726E-04
   5.094 -0.678E-04 -0.678E-04
   5.104 -0.633E-04 -0.633E-04
   5.114 -0.591E-04 -0.591E-04
   5.124 -0.551E-04 -0.551E-04
   5.134 -0.514E-04 -0.514E-04
   5.144 -0.479E-04 -0.479E-04
   5.154 -0.446E-04 -0.446E-04
   5.164 -0.415E-04 -0.415E-04
   5.174 -0.386E-04 -0.386E-04
   5.184 -0.359E-04 -0.359E-04
   5.194 -0.333E-04 -0.333E-04
   5.204 -0.310E-04 -0.310E-04
   5.214 -0.288E-04 -0.288E-04
   5.224 -0.267E-04 -0.267E-04
   5.234 -0.247E-04 -0.247E-04
   5.244 -0.229E-04 -0.229E-04
   5.254 -0.212E-04 -0.212E-04
   5.264 -0.197E-04 -0.197E-04
   5.274 -0.182E-04 -0.182E-04
   5.284 -0.168E-04 -0.168E-04
   5.294 -0.156E-04 -0.156E-04
