# E (eV)   ldos(E)   pdos(E)   
 -27.116 -0.301E-07 -0.301E-07
 -27.106 -0.325E-07 -0.325E-07
 -27.096 -0.351E-07 -0.351E-07
 -27.086 -0.378E-07 -0.378E-07
 -27.076 -0.407E-07 -0.407E-07
 -27.066 -0.439E-07 -0.439E-07
 -27.056 -0.472E-07 -0.472E-07
 -27.046 -0.508E-07 -0.508E-07
 -27.036 -0.546E-07 -0.546E-07
 -27.026 -0.587E-07 -0.587E-07
 -27.016 -0.631E-07 -0.631E-07
 -27.006 -0.677E-07 -0.677E-07
 -26.996 -0.727E-07 -0.727E-07
 -26.986 -0.779E-07 -0.779E-07
 -26.976 -0.835E-07 -0.835E-07
 -26.966 -0.895E-07 -0.895E-07
 -26.956 -0.958E-07 -0.958E-07
 -26.946 -0.103E-06 -0.103E-06
 -26.936 -0.110E-06 -0.110E-06
 -26.926 -0.117E-06 -0.117E-06
 -26.916 -0.125E-06 -0.125E-06
 -26.906 -0.134E-06 -0.134E-06
 -26.896 -0.143E-06 -0.143E-06
 -26.886 -0.152E-06 -0.152E-06
 -26.876 -0.162E-06 -0.162E-06
 -26.866 -0.173E-06 -0.173E-06
 -26.856 -0.184E-06 -0.184E-06
 -26.846 -0.196E-06 -0.196E-06
 -26.836 -0.208E-06 -0.208E-06
 -26.826 -0.222E-06 -0.222E-06
 -26.816 -0.235E-06 -0.235E-06
 -26.806 -0.250E-06 -0.250E-06
 -26.796 -0.265E-06 -0.265E-06
 -26.786 -0.281E-06 -0.281E-06
 -26.776 -0.298E-06 -0.298E-06
 -26.766 -0.316E-06 -0.316E-06
 -26.756 -0.335E-06 -0.335E-06
 -26.746 -0.354E-06 -0.354E-06
 -26.736 -0.375E-06 -0.375E-06
 -26.726 -0.396E-06 -0.396E-06
 -26.716 -0.418E-06 -0.418E-06
 -26.706 -0.442E-06 -0.442E-06
 -26.696 -0.466E-06 -0.466E-06
 -26.686 -0.491E-06 -0.491E-06
 -26.676 -0.518E-06 -0.518E-06
 -26.666 -0.545E-06 -0.545E-06
 -26.656 -0.574E-06 -0.574E-06
 -26.646 -0.603E-06 -0.603E-06
 -26.636 -0.634E-06 -0.634E-06
 -26.626 -0.666E-06 -0.666E-06
 -26.616 -0.699E-06 -0.699E-06
 -26.606 -0.734E-06 -0.734E-06
 -26.596 -0.769E-06 -0.769E-06
 -26.586 -0.806E-06 -0.806E-06
 -26.576 -0.844E-06 -0.844E-06
 -26.566 -0.883E-06 -0.883E-06
 -26.556 -0.923E-06 -0.923E-06
 -26.546 -0.965E-06 -0.965E-06
 -26.536 -0.101E-05 -0.101E-05
 -26.526 -0.105E-05 -0.105E-05
 -26.516 -0.110E-05 -0.110E-05
 -26.506 -0.114E-05 -0.114E-05
 -26.496 -0.119E-05 -0.119E-05
 -26.486 -0.124E-05 -0.124E-05
 -26.476 -0.129E-05 -0.129E-05
 -26.466 -0.134E-05 -0.134E-05
 -26.456 -0.139E-05 -0.139E-05
 -26.446 -0.144E-05 -0.144E-05
 -26.436 -0.149E-05 -0.149E-05
 -26.426 -0.154E-05 -0.154E-05
 -26.416 -0.160E-05 -0.160E-05
 -26.406 -0.165E-05 -0.165E-05
 -26.396 -0.170E-05 -0.170E-05
 -26.386 -0.176E-05 -0.176E-05
 -26.376 -0.181E-05 -0.181E-05
 -26.366 -0.187E-05 -0.187E-05
 -26.356 -0.192E-05 -0.192E-05
 -26.346 -0.198E-05 -0.198E-05
 -26.336 -0.203E-05 -0.203E-05
 -26.326 -0.208E-05 -0.208E-05
 -26.316 -0.214E-05 -0.214E-05
 -26.306 -0.219E-05 -0.219E-05
 -26.296 -0.224E-05 -0.224E-05
 -26.286 -0.229E-05 -0.229E-05
 -26.276 -0.233E-05 -0.233E-05
 -26.266 -0.238E-05 -0.238E-05
 -26.256 -0.242E-05 -0.242E-05
 -26.246 -0.246E-05 -0.246E-05
 -26.236 -0.250E-05 -0.250E-05
 -26.226 -0.254E-05 -0.254E-05
 -26.216 -0.257E-05 -0.257E-05
 -26.206 -0.260E-05 -0.260E-05
 -26.196 -0.262E-05 -0.262E-05
 -26.186 -0.264E-05 -0.264E-05
 -26.176 -0.266E-05 -0.266E-05
 -26.166 -0.267E-05 -0.267E-05
 -26.156 -0.267E-05 -0.267E-05
 -26.146 -0.267E-05 -0.267E-05
 -26.136 -0.267E-05 -0.267E-05
 -26.126 -0.266E-05 -0.266E-05
 -26.116 -0.264E-05 -0.264E-05
 -26.106 -0.261E-05 -0.261E-05
 -26.096 -0.258E-05 -0.258E-05
 -26.086 -0.254E-05 -0.254E-05
 -26.076 -0.249E-05 -0.249E-05
 -26.066 -0.243E-05 -0.243E-05
 -26.056 -0.236E-05 -0.236E-05
 -26.046 -0.228E-05 -0.228E-05
 -26.036 -0.219E-05 -0.219E-05
 -26.026 -0.210E-05 -0.210E-05
 -26.016 -0.199E-05 -0.199E-05
 -26.006 -0.187E-05 -0.187E-05
 -25.996 -0.173E-05 -0.173E-05
 -25.986 -0.159E-05 -0.159E-05
 -25.976 -0.143E-05 -0.143E-05
 -25.966 -0.126E-05 -0.126E-05
 -25.956 -0.108E-05 -0.108E-05
 -25.946 -0.880E-06 -0.880E-06
 -25.936 -0.668E-06 -0.668E-06
 -25.926 -0.441E-06 -0.441E-06
 -25.916 -0.199E-06 -0.199E-06
 -25.906  0.587E-07  0.587E-07
 -25.896  0.332E-06  0.332E-06
 -25.886  0.621E-06  0.621E-06
 -25.876  0.927E-06  0.927E-06
 -25.866  0.125E-05  0.125E-05
 -25.856  0.159E-05  0.159E-05
 -25.846  0.195E-05  0.195E-05
 -25.836  0.232E-05  0.232E-05
 -25.826  0.271E-05  0.271E-05
 -25.816  0.312E-05  0.312E-05
 -25.806  0.355E-05  0.355E-05
 -25.796  0.399E-05  0.399E-05
 -25.786  0.446E-05  0.446E-05
 -25.776  0.494E-05  0.494E-05
 -25.766  0.544E-05  0.544E-05
 -25.756  0.596E-05  0.596E-05
 -25.746  0.649E-05  0.649E-05
 -25.736  0.705E-05  0.705E-05
 -25.726  0.762E-05  0.762E-05
 -25.716  0.821E-05  0.821E-05
 -25.706  0.882E-05  0.882E-05
 -25.696  0.944E-05  0.944E-05
 -25.686  0.101E-04  0.101E-04
 -25.676  0.107E-04  0.107E-04
 -25.666  0.114E-04  0.114E-04
 -25.656  0.121E-04  0.121E-04
 -25.646  0.128E-04  0.128E-04
 -25.636  0.135E-04  0.135E-04
 -25.626  0.143E-04  0.143E-04
 -25.616  0.150E-04  0.150E-04
 -25.606  0.158E-04  0.158E-04
 -25.596  0.166E-04  0.166E-04
 -25.586  0.173E-04  0.173E-04
 -25.576  0.181E-04  0.181E-04
 -25.566  0.190E-04  0.190E-04
 -25.556  0.198E-04  0.198E-04
 -25.546  0.206E-04  0.206E-04
 -25.536  0.214E-04  0.214E-04
 -25.526  0.223E-04  0.223E-04
 -25.516  0.231E-04  0.231E-04
 -25.506  0.240E-04  0.240E-04
 -25.496  0.248E-04  0.248E-04
 -25.486  0.257E-04  0.257E-04
 -25.476  0.265E-04  0.265E-04
 -25.466  0.274E-04  0.274E-04
 -25.456  0.283E-04  0.283E-04
 -25.446  0.291E-04  0.291E-04
 -25.436  0.300E-04  0.300E-04
 -25.426  0.308E-04  0.308E-04
 -25.416  0.317E-04  0.317E-04
 -25.406  0.325E-04  0.325E-04
 -25.396  0.333E-04  0.333E-04
 -25.386  0.341E-04  0.341E-04
 -25.376  0.349E-04  0.349E-04
 -25.366  0.357E-04  0.357E-04
 -25.356  0.365E-04  0.365E-04
 -25.346  0.373E-04  0.373E-04
 -25.336  0.380E-04  0.380E-04
 -25.326  0.388E-04  0.388E-04
 -25.316  0.395E-04  0.395E-04
 -25.306  0.402E-04  0.402E-04
 -25.296  0.409E-04  0.409E-04
 -25.286  0.415E-04  0.415E-04
 -25.276  0.422E-04  0.422E-04
 -25.266  0.428E-04  0.428E-04
 -25.256  0.434E-04  0.434E-04
 -25.246  0.440E-04  0.440E-04
 -25.236  0.445E-04  0.445E-04
 -25.226  0.450E-04  0.450E-04
 -25.216  0.455E-04  0.455E-04
 -25.206  0.459E-04  0.459E-04
 -25.196  0.464E-04  0.464E-04
 -25.186  0.467E-04  0.467E-04
 -25.176  0.471E-04  0.471E-04
 -25.166  0.474E-04  0.474E-04
 -25.156  0.477E-04  0.477E-04
 -25.146  0.480E-04  0.480E-04
 -25.136  0.482E-04  0.482E-04
 -25.126  0.484E-04  0.484E-04
 -25.116  0.486E-04  0.486E-04
 -25.106  0.487E-04  0.487E-04
 -25.096  0.488E-04  0.488E-04
 -25.086  0.489E-04  0.489E-04
 -25.076  0.489E-04  0.489E-04
 -25.066  0.489E-04  0.489E-04
 -25.056  0.488E-04  0.488E-04
 -25.046  0.487E-04  0.487E-04
 -25.036  0.486E-04  0.486E-04
 -25.026  0.485E-04  0.485E-04
 -25.016  0.483E-04  0.483E-04
 -25.006  0.480E-04  0.480E-04
 -24.996  0.478E-04  0.478E-04
 -24.986  0.475E-04  0.475E-04
 -24.976  0.472E-04  0.472E-04
 -24.966  0.468E-04  0.468E-04
 -24.956  0.464E-04  0.464E-04
 -24.946  0.460E-04  0.460E-04
 -24.936  0.456E-04  0.456E-04
 -24.926  0.451E-04  0.451E-04
 -24.916  0.446E-04  0.446E-04
 -24.906  0.441E-04  0.441E-04
 -24.896  0.435E-04  0.435E-04
 -24.886  0.429E-04  0.429E-04
 -24.876  0.423E-04  0.423E-04
 -24.866  0.417E-04  0.417E-04
 -24.856  0.410E-04  0.410E-04
 -24.846  0.403E-04  0.403E-04
 -24.836  0.396E-04  0.396E-04
 -24.826  0.389E-04  0.389E-04
 -24.816  0.382E-04  0.382E-04
 -24.806  0.374E-04  0.374E-04
 -24.796  0.367E-04  0.367E-04
 -24.786  0.359E-04  0.359E-04
 -24.776  0.351E-04  0.351E-04
 -24.766  0.343E-04  0.343E-04
 -24.756  0.335E-04  0.335E-04
 -24.746  0.326E-04  0.326E-04
 -24.736  0.318E-04  0.318E-04
 -24.726  0.310E-04  0.310E-04
 -24.716  0.301E-04  0.301E-04
 -24.706  0.293E-04  0.293E-04
 -24.696  0.284E-04  0.284E-04
 -24.686  0.276E-04  0.276E-04
 -24.676  0.267E-04  0.267E-04
 -24.666  0.258E-04  0.258E-04
 -24.656  0.250E-04  0.250E-04
 -24.646  0.241E-04  0.241E-04
 -24.636  0.233E-04  0.233E-04
 -24.626  0.224E-04  0.224E-04
 -24.616  0.216E-04  0.216E-04
 -24.606  0.208E-04  0.208E-04
 -24.596  0.199E-04  0.199E-04
 -24.586  0.191E-04  0.191E-04
 -24.576  0.183E-04  0.183E-04
 -24.566  0.175E-04  0.175E-04
 -24.556  0.167E-04  0.167E-04
 -24.546  0.159E-04  0.159E-04
 -24.536  0.152E-04  0.152E-04
 -24.526  0.144E-04  0.144E-04
 -24.516  0.137E-04  0.137E-04
 -24.506  0.130E-04  0.130E-04
 -24.496  0.122E-04  0.122E-04
 -24.486  0.115E-04  0.115E-04
 -24.476  0.109E-04  0.109E-04
 -24.466  0.102E-04  0.102E-04
 -24.456  0.957E-05  0.957E-05
 -24.446  0.894E-05  0.894E-05
 -24.436  0.833E-05  0.833E-05
 -24.426  0.773E-05  0.773E-05
 -24.416  0.716E-05  0.716E-05
 -24.406  0.660E-05  0.660E-05
 -24.396  0.606E-05  0.606E-05
 -24.386  0.554E-05  0.554E-05
 -24.376  0.503E-05  0.503E-05
 -24.366  0.455E-05  0.455E-05
 -24.356  0.408E-05  0.408E-05
 -24.346  0.363E-05  0.363E-05
 -24.336  0.320E-05  0.320E-05
 -24.326  0.279E-05  0.279E-05
 -24.316  0.239E-05  0.239E-05
 -24.306  0.202E-05  0.202E-05
 -24.296  0.166E-05  0.166E-05
 -24.286  0.131E-05  0.131E-05
 -24.276  0.987E-06  0.987E-06
 -24.266  0.678E-06  0.678E-06
 -24.256  0.386E-06  0.386E-06
 -24.246  0.109E-06  0.109E-06
 -24.236 -0.151E-06 -0.151E-06
 -24.226 -0.396E-06 -0.396E-06
 -24.216 -0.626E-06 -0.626E-06
 -24.206 -0.841E-06 -0.841E-06
 -24.196 -0.104E-05 -0.104E-05
 -24.186 -0.123E-05 -0.123E-05
 -24.176 -0.140E-05 -0.140E-05
 -24.166 -0.156E-05 -0.156E-05
 -24.156 -0.171E-05 -0.171E-05
 -24.146 -0.184E-05 -0.184E-05
 -24.136 -0.197E-05 -0.197E-05
 -24.126 -0.208E-05 -0.208E-05
 -24.116 -0.218E-05 -0.218E-05
 -24.106 -0.227E-05 -0.227E-05
 -24.096 -0.235E-05 -0.235E-05
 -24.086 -0.242E-05 -0.242E-05
 -24.076 -0.248E-05 -0.248E-05
 -24.066 -0.253E-05 -0.253E-05
 -24.056 -0.257E-05 -0.257E-05
 -24.046 -0.261E-05 -0.261E-05
 -24.036 -0.263E-05 -0.263E-05
 -24.026 -0.265E-05 -0.265E-05
 -24.016 -0.267E-05 -0.267E-05
 -24.006 -0.267E-05 -0.267E-05
 -23.996 -0.267E-05 -0.267E-05
 -23.986 -0.267E-05 -0.267E-05
 -23.976 -0.266E-05 -0.266E-05
 -23.966 -0.264E-05 -0.264E-05
 -23.956 -0.263E-05 -0.263E-05
 -23.946 -0.260E-05 -0.260E-05
 -23.936 -0.257E-05 -0.257E-05
 -23.926 -0.254E-05 -0.254E-05
 -23.916 -0.251E-05 -0.251E-05
 -23.906 -0.247E-05 -0.247E-05
 -23.896 -0.243E-05 -0.243E-05
 -23.886 -0.239E-05 -0.239E-05
 -23.876 -0.234E-05 -0.234E-05
 -23.866 -0.230E-05 -0.230E-05
 -23.856 -0.225E-05 -0.225E-05
 -23.846 -0.220E-05 -0.220E-05
 -23.836 -0.215E-05 -0.215E-05
 -23.826 -0.209E-05 -0.209E-05
 -23.816 -0.204E-05 -0.204E-05
 -23.806 -0.199E-05 -0.199E-05
 -23.796 -0.193E-05 -0.193E-05
 -23.786 -0.188E-05 -0.188E-05
 -23.776 -0.182E-05 -0.182E-05
 -23.766 -0.177E-05 -0.177E-05
 -23.756 -0.171E-05 -0.171E-05
 -23.746 -0.166E-05 -0.166E-05
 -23.736 -0.161E-05 -0.161E-05
 -23.726 -0.155E-05 -0.155E-05
 -23.716 -0.150E-05 -0.150E-05
 -23.706 -0.145E-05 -0.145E-05
 -23.696 -0.140E-05 -0.140E-05
 -23.686 -0.134E-05 -0.134E-05
 -23.676 -0.129E-05 -0.129E-05
 -23.666 -0.125E-05 -0.125E-05
 -23.656 -0.120E-05 -0.120E-05
 -23.646 -0.115E-05 -0.115E-05
 -23.636 -0.110E-05 -0.110E-05
 -23.626 -0.106E-05 -0.106E-05
 -23.616 -0.102E-05 -0.102E-05
 -23.606 -0.973E-06 -0.973E-06
 -23.596 -0.931E-06 -0.931E-06
 -23.586 -0.890E-06 -0.890E-06
 -23.576 -0.851E-06 -0.851E-06
 -23.566 -0.813E-06 -0.813E-06
 -23.556 -0.776E-06 -0.776E-06
 -23.546 -0.740E-06 -0.740E-06
 -23.536 -0.706E-06 -0.706E-06
 -23.526 -0.672E-06 -0.672E-06
 -23.516 -0.640E-06 -0.640E-06
 -23.506 -0.609E-06 -0.609E-06
 -23.496 -0.579E-06 -0.579E-06
 -23.486 -0.550E-06 -0.550E-06
 -23.476 -0.523E-06 -0.523E-06
 -23.466 -0.496E-06 -0.496E-06
 -23.456 -0.471E-06 -0.471E-06
 -23.446 -0.446E-06 -0.446E-06
 -23.436 -0.423E-06 -0.423E-06
 -23.426 -0.400E-06 -0.400E-06
 -23.416 -0.379E-06 -0.379E-06
 -23.406 -0.358E-06 -0.358E-06
 -23.396 -0.338E-06 -0.338E-06
 -23.386 -0.320E-06 -0.320E-06
 -23.376 -0.302E-06 -0.302E-06
 -23.366 -0.285E-06 -0.285E-06
 -23.356 -0.268E-06 -0.268E-06
 -23.346 -0.253E-06 -0.253E-06
 -23.336 -0.238E-06 -0.238E-06
 -23.326 -0.224E-06 -0.224E-06
 -23.316 -0.211E-06 -0.211E-06
 -23.306 -0.198E-06 -0.198E-06
 -23.296 -0.186E-06 -0.186E-06
 -23.286 -0.175E-06 -0.175E-06
 -23.276 -0.164E-06 -0.164E-06
 -23.266 -0.154E-06 -0.154E-06
 -23.256 -0.144E-06 -0.144E-06
 -23.246 -0.135E-06 -0.135E-06
 -23.236 -0.127E-06 -0.127E-06
 -23.226 -0.119E-06 -0.119E-06
 -23.216 -0.111E-06 -0.111E-06
 -23.206 -0.104E-06 -0.104E-06
 -23.196 -0.970E-07 -0.970E-07
 -23.186 -0.906E-07 -0.906E-07
 -23.176 -0.846E-07 -0.846E-07
 -23.166 -0.790E-07 -0.790E-07
 -23.156 -0.736E-07 -0.736E-07
 -23.146 -0.686E-07 -0.686E-07
 -23.136 -0.639E-07 -0.639E-07
 -23.126 -0.595E-07 -0.595E-07
 -23.116 -0.554E-07 -0.554E-07
 -23.106 -0.515E-07 -0.515E-07
 -23.096 -0.479E-07 -0.479E-07
 -23.086 -0.445E-07 -0.445E-07
 -23.076 -0.413E-07 -0.413E-07
 -23.066 -0.384E-07 -0.384E-07
 -23.056 -0.356E-07 -0.356E-07
 -23.046 -0.330E-07 -0.330E-07
 -23.036 -0.306E-07 -0.306E-07
 -23.026 -0.283E-07 -0.283E-07
 -23.016 -0.262E-07 -0.262E-07
 -23.006 -0.243E-07 -0.243E-07
 -22.996 -0.224E-07 -0.224E-07
 -22.986 -0.207E-07 -0.207E-07
 -22.976 -0.192E-07 -0.192E-07
 -22.966 -0.177E-07 -0.177E-07
 -22.956 -0.163E-07 -0.163E-07
 -22.946 -0.151E-07 -0.151E-07
 -22.936 -0.139E-07 -0.139E-07
 -22.926 -0.128E-07 -0.128E-07
 -22.916 -0.118E-07 -0.118E-07
 -22.906 -0.109E-07 -0.109E-07
 -22.896 -0.100E-07 -0.100E-07
 -22.886 -0.919E-08 -0.919E-08
 -22.876 -0.845E-08 -0.845E-08
 -22.866 -0.777E-08 -0.777E-08
 -22.856 -0.714E-08 -0.714E-08
 -22.846 -0.655E-08 -0.655E-08
 -22.836 -0.601E-08 -0.601E-08
 -22.826 -0.551E-08 -0.551E-08
 -22.816 -0.506E-08 -0.506E-08
 -22.806 -0.463E-08 -0.463E-08
 -22.796 -0.425E-08 -0.425E-08
 -22.786 -0.389E-08 -0.389E-08
 -22.776 -0.356E-08 -0.356E-08
 -22.766 -0.326E-08 -0.326E-08
 -22.756 -0.298E-08 -0.298E-08
 -22.746 -0.273E-08 -0.273E-08
 -22.736 -0.249E-08 -0.249E-08
 -22.726 -0.228E-08 -0.228E-08
 -22.716 -0.208E-08 -0.208E-08
 -22.706 -0.191E-08 -0.191E-08
 -22.696 -0.174E-08 -0.174E-08
 -22.686 -0.159E-08 -0.159E-08
 -22.676 -0.146E-08 -0.146E-08
 -22.666 -0.134E-08 -0.134E-08
 -22.656 -0.122E-08 -0.122E-08
 -22.646 -0.112E-08 -0.112E-08
 -22.636 -0.103E-08 -0.103E-08
 -22.626 -0.948E-09 -0.948E-09
 -22.616 -0.873E-09 -0.873E-09
 -22.606 -0.806E-09 -0.806E-09
 -22.596 -0.747E-09 -0.747E-09
 -22.586 -0.694E-09 -0.694E-09
 -22.576 -0.647E-09 -0.647E-09
 -22.566 -0.607E-09 -0.607E-09
 -22.556 -0.571E-09 -0.571E-09
 -22.546 -0.541E-09 -0.541E-09
 -22.536 -0.516E-09 -0.516E-09
 -22.526 -0.495E-09 -0.495E-09
 -22.516 -0.479E-09 -0.479E-09
 -22.506 -0.467E-09 -0.467E-09
 -22.496 -0.458E-09 -0.458E-09
 -22.486 -0.454E-09 -0.454E-09
 -22.476 -0.454E-09 -0.454E-09
 -22.466 -0.457E-09 -0.457E-09
 -22.456 -0.464E-09 -0.464E-09
 -22.446 -0.474E-09 -0.474E-09
 -22.436 -0.489E-09 -0.489E-09
 -22.426 -0.506E-09 -0.506E-09
 -22.416 -0.528E-09 -0.528E-09
 -22.406 -0.553E-09 -0.553E-09
 -22.396 -0.582E-09 -0.582E-09
 -22.386 -0.614E-09 -0.614E-09
 -22.376 -0.651E-09 -0.651E-09
 -22.366 -0.692E-09 -0.692E-09
 -22.356 -0.737E-09 -0.737E-09
 -22.346 -0.786E-09 -0.786E-09
 -22.336 -0.840E-09 -0.840E-09
 -22.326 -0.899E-09 -0.899E-09
 -22.316 -0.963E-09 -0.963E-09
 -22.306 -0.103E-08 -0.103E-08
 -22.296 -0.111E-08 -0.111E-08
 -22.286 -0.119E-08 -0.119E-08
 -22.276 -0.127E-08 -0.127E-08
 -22.266 -0.137E-08 -0.137E-08
 -22.256 -0.147E-08 -0.147E-08
 -22.246 -0.157E-08 -0.157E-08
 -22.236 -0.169E-08 -0.169E-08
 -22.226 -0.181E-08 -0.181E-08
 -22.216 -0.194E-08 -0.194E-08
 -22.206 -0.208E-08 -0.208E-08
 -22.196 -0.223E-08 -0.223E-08
 -22.186 -0.239E-08 -0.239E-08
 -22.176 -0.256E-08 -0.256E-08
 -22.166 -0.274E-08 -0.274E-08
 -22.156 -0.293E-08 -0.293E-08
 -22.146 -0.313E-08 -0.313E-08
 -22.136 -0.334E-08 -0.334E-08
 -22.126 -0.357E-08 -0.357E-08
 -22.116 -0.381E-08 -0.381E-08
 -22.106 -0.407E-08 -0.407E-08
 -22.096 -0.434E-08 -0.434E-08
 -22.086 -0.462E-08 -0.462E-08
 -22.076 -0.492E-08 -0.492E-08
 -22.066 -0.524E-08 -0.524E-08
 -22.056 -0.558E-08 -0.558E-08
 -22.046 -0.593E-08 -0.593E-08
 -22.036 -0.631E-08 -0.631E-08
 -22.026 -0.670E-08 -0.670E-08
 -22.016 -0.711E-08 -0.711E-08
 -22.006 -0.755E-08 -0.755E-08
 -21.996 -0.801E-08 -0.801E-08
 -21.986 -0.849E-08 -0.849E-08
 -21.976 -0.899E-08 -0.899E-08
 -21.966 -0.952E-08 -0.952E-08
 -21.956 -0.101E-07 -0.101E-07
 -21.946 -0.107E-07 -0.107E-07
 -21.936 -0.113E-07 -0.113E-07
 -21.926 -0.119E-07 -0.119E-07
 -21.916 -0.125E-07 -0.125E-07
 -21.906 -0.132E-07 -0.132E-07
 -21.896 -0.140E-07 -0.140E-07
 -21.886 -0.147E-07 -0.147E-07
 -21.876 -0.155E-07 -0.155E-07
 -21.866 -0.163E-07 -0.163E-07
 -21.856 -0.171E-07 -0.171E-07
 -21.846 -0.180E-07 -0.180E-07
 -21.836 -0.189E-07 -0.189E-07
 -21.826 -0.199E-07 -0.199E-07
 -21.816 -0.208E-07 -0.208E-07
 -21.806 -0.218E-07 -0.218E-07
 -21.796 -0.229E-07 -0.229E-07
 -21.786 -0.240E-07 -0.240E-07
 -21.776 -0.251E-07 -0.251E-07
 -21.766 -0.262E-07 -0.262E-07
 -21.756 -0.274E-07 -0.274E-07
 -21.746 -0.286E-07 -0.286E-07
 -21.736 -0.298E-07 -0.298E-07
 -21.726 -0.311E-07 -0.311E-07
 -21.716 -0.324E-07 -0.324E-07
 -21.706 -0.337E-07 -0.337E-07
 -21.696 -0.351E-07 -0.351E-07
 -21.686 -0.365E-07 -0.365E-07
 -21.676 -0.379E-07 -0.379E-07
 -21.666 -0.393E-07 -0.393E-07
 -21.656 -0.408E-07 -0.408E-07
 -21.646 -0.422E-07 -0.422E-07
 -21.636 -0.437E-07 -0.437E-07
 -21.626 -0.452E-07 -0.452E-07
 -21.616 -0.468E-07 -0.468E-07
 -21.606 -0.483E-07 -0.483E-07
 -21.596 -0.498E-07 -0.498E-07
 -21.586 -0.514E-07 -0.514E-07
 -21.576 -0.529E-07 -0.529E-07
 -21.566 -0.545E-07 -0.545E-07
 -21.556 -0.560E-07 -0.560E-07
 -21.546 -0.575E-07 -0.575E-07
 -21.536 -0.590E-07 -0.590E-07
 -21.526 -0.605E-07 -0.605E-07
 -21.516 -0.619E-07 -0.619E-07
 -21.506 -0.634E-07 -0.634E-07
 -21.496 -0.647E-07 -0.647E-07
 -21.486 -0.661E-07 -0.661E-07
 -21.476 -0.673E-07 -0.673E-07
 -21.466 -0.686E-07 -0.686E-07
 -21.456 -0.697E-07 -0.697E-07
 -21.446 -0.708E-07 -0.708E-07
 -21.436 -0.718E-07 -0.718E-07
 -21.426 -0.727E-07 -0.727E-07
 -21.416 -0.735E-07 -0.735E-07
 -21.406 -0.742E-07 -0.742E-07
 -21.396 -0.747E-07 -0.747E-07
 -21.386 -0.752E-07 -0.752E-07
 -21.376 -0.755E-07 -0.755E-07
 -21.366 -0.757E-07 -0.757E-07
 -21.356 -0.757E-07 -0.757E-07
 -21.346 -0.755E-07 -0.755E-07
 -21.336 -0.752E-07 -0.752E-07
 -21.326 -0.747E-07 -0.747E-07
 -21.316 -0.740E-07 -0.740E-07
 -21.306 -0.731E-07 -0.731E-07
 -21.296 -0.719E-07 -0.719E-07
 -21.286 -0.705E-07 -0.705E-07
 -21.276 -0.689E-07 -0.689E-07
 -21.266 -0.670E-07 -0.670E-07
 -21.256 -0.649E-07 -0.649E-07
 -21.246 -0.625E-07 -0.625E-07
 -21.236 -0.597E-07 -0.597E-07
 -21.226 -0.567E-07 -0.567E-07
 -21.216 -0.534E-07 -0.534E-07
 -21.206 -0.497E-07 -0.497E-07
 -21.196 -0.457E-07 -0.457E-07
 -21.186 -0.414E-07 -0.414E-07
 -21.176 -0.367E-07 -0.367E-07
 -21.166 -0.316E-07 -0.316E-07
 -21.156 -0.262E-07 -0.262E-07
 -21.146 -0.203E-07 -0.203E-07
 -21.136 -0.141E-07 -0.141E-07
 -21.126 -0.745E-08 -0.745E-08
 -21.116 -0.387E-09 -0.387E-09
 -21.106  0.711E-08  0.711E-08
 -21.096  0.150E-07  0.150E-07
 -21.086  0.234E-07  0.234E-07
 -21.076  0.322E-07  0.322E-07
 -21.066  0.415E-07  0.415E-07
 -21.056  0.512E-07  0.512E-07
 -21.046  0.614E-07  0.614E-07
 -21.036  0.721E-07  0.721E-07
 -21.026  0.832E-07  0.832E-07
 -21.016  0.948E-07  0.948E-07
 -21.006  0.107E-06  0.107E-06
 -20.996  0.119E-06  0.119E-06
 -20.986  0.132E-06  0.132E-06
 -20.976  0.146E-06  0.146E-06
 -20.966  0.160E-06  0.160E-06
 -20.956  0.174E-06  0.174E-06
 -20.946  0.189E-06  0.189E-06
 -20.936  0.204E-06  0.204E-06
 -20.926  0.220E-06  0.220E-06
 -20.916  0.236E-06  0.236E-06
 -20.906  0.253E-06  0.253E-06
 -20.896  0.270E-06  0.270E-06
 -20.886  0.287E-06  0.287E-06
 -20.876  0.305E-06  0.305E-06
 -20.866  0.323E-06  0.323E-06
 -20.856  0.342E-06  0.342E-06
 -20.846  0.361E-06  0.361E-06
 -20.836  0.380E-06  0.380E-06
 -20.826  0.399E-06  0.399E-06
 -20.816  0.419E-06  0.419E-06
 -20.806  0.439E-06  0.439E-06
 -20.796  0.459E-06  0.459E-06
 -20.786  0.479E-06  0.479E-06
 -20.776  0.500E-06  0.500E-06
 -20.766  0.521E-06  0.521E-06
 -20.756  0.541E-06  0.541E-06
 -20.746  0.562E-06  0.562E-06
 -20.736  0.583E-06  0.583E-06
 -20.726  0.604E-06  0.604E-06
 -20.716  0.625E-06  0.625E-06
 -20.706  0.646E-06  0.646E-06
 -20.696  0.666E-06  0.666E-06
 -20.686  0.687E-06  0.687E-06
 -20.676  0.708E-06  0.708E-06
 -20.666  0.728E-06  0.728E-06
 -20.656  0.748E-06  0.748E-06
 -20.646  0.767E-06  0.767E-06
 -20.636  0.787E-06  0.787E-06
 -20.626  0.806E-06  0.806E-06
 -20.616  0.825E-06  0.825E-06
 -20.606  0.843E-06  0.843E-06
 -20.596  0.861E-06  0.861E-06
 -20.586  0.878E-06  0.878E-06
 -20.576  0.894E-06  0.894E-06
 -20.566  0.910E-06  0.910E-06
 -20.556  0.926E-06  0.926E-06
 -20.546  0.941E-06  0.941E-06
 -20.536  0.955E-06  0.955E-06
 -20.526  0.968E-06  0.968E-06
 -20.516  0.981E-06  0.981E-06
 -20.506  0.993E-06  0.993E-06
 -20.496  0.100E-05  0.100E-05
 -20.486  0.101E-05  0.101E-05
 -20.476  0.102E-05  0.102E-05
 -20.466  0.103E-05  0.103E-05
 -20.456  0.104E-05  0.104E-05
 -20.446  0.104E-05  0.104E-05
 -20.436  0.105E-05  0.105E-05
 -20.426  0.105E-05  0.105E-05
 -20.416  0.106E-05  0.106E-05
 -20.406  0.106E-05  0.106E-05
 -20.396  0.106E-05  0.106E-05
 -20.386  0.106E-05  0.106E-05
 -20.376  0.106E-05  0.106E-05
 -20.366  0.106E-05  0.106E-05
 -20.356  0.106E-05  0.106E-05
 -20.346  0.105E-05  0.105E-05
 -20.336  0.105E-05  0.105E-05
 -20.326  0.104E-05  0.104E-05
 -20.316  0.103E-05  0.103E-05
 -20.306  0.103E-05  0.103E-05
 -20.296  0.102E-05  0.102E-05
 -20.286  0.101E-05  0.101E-05
 -20.276  0.996E-06  0.996E-06
 -20.266  0.984E-06  0.984E-06
 -20.256  0.971E-06  0.971E-06
 -20.246  0.957E-06  0.957E-06
 -20.236  0.943E-06  0.943E-06
 -20.226  0.928E-06  0.928E-06
 -20.216  0.912E-06  0.912E-06
 -20.206  0.896E-06  0.896E-06
 -20.196  0.879E-06  0.879E-06
 -20.186  0.861E-06  0.861E-06
 -20.176  0.843E-06  0.843E-06
 -20.166  0.825E-06  0.825E-06
 -20.156  0.806E-06  0.806E-06
 -20.146  0.787E-06  0.787E-06
 -20.136  0.768E-06  0.768E-06
 -20.126  0.749E-06  0.749E-06
 -20.116  0.730E-06  0.730E-06
 -20.106  0.711E-06  0.711E-06
 -20.096  0.692E-06  0.692E-06
 -20.086  0.674E-06  0.674E-06
 -20.076  0.656E-06  0.656E-06
 -20.066  0.639E-06  0.639E-06
 -20.056  0.622E-06  0.622E-06
 -20.046  0.606E-06  0.606E-06
 -20.036  0.590E-06  0.590E-06
 -20.026  0.576E-06  0.576E-06
 -20.016  0.563E-06  0.563E-06
 -20.006  0.550E-06  0.550E-06
 -19.996  0.540E-06  0.540E-06
 -19.986  0.530E-06  0.530E-06
 -19.976  0.522E-06  0.522E-06
 -19.966  0.516E-06  0.516E-06
 -19.956  0.511E-06  0.511E-06
 -19.946  0.509E-06  0.509E-06
 -19.936  0.508E-06  0.508E-06
 -19.926  0.510E-06  0.510E-06
 -19.916  0.513E-06  0.513E-06
 -19.906  0.519E-06  0.519E-06
 -19.896  0.528E-06  0.528E-06
 -19.886  0.539E-06  0.539E-06
 -19.876  0.553E-06  0.553E-06
 -19.866  0.569E-06  0.569E-06
 -19.856  0.589E-06  0.589E-06
 -19.846  0.611E-06  0.611E-06
 -19.836  0.637E-06  0.637E-06
 -19.826  0.666E-06  0.666E-06
 -19.816  0.698E-06  0.698E-06
 -19.806  0.733E-06  0.733E-06
 -19.796  0.772E-06  0.772E-06
 -19.786  0.814E-06  0.814E-06
 -19.776  0.860E-06  0.860E-06
 -19.766  0.910E-06  0.910E-06
 -19.756  0.963E-06  0.963E-06
 -19.746  0.102E-05  0.102E-05
 -19.736  0.108E-05  0.108E-05
 -19.726  0.115E-05  0.115E-05
 -19.716  0.121E-05  0.121E-05
 -19.706  0.129E-05  0.129E-05
 -19.696  0.136E-05  0.136E-05
 -19.686  0.144E-05  0.144E-05
 -19.676  0.153E-05  0.153E-05
 -19.666  0.162E-05  0.162E-05
 -19.656  0.171E-05  0.171E-05
 -19.646  0.181E-05  0.181E-05
 -19.636  0.191E-05  0.191E-05
 -19.626  0.201E-05  0.201E-05
 -19.616  0.212E-05  0.212E-05
 -19.606  0.223E-05  0.223E-05
 -19.596  0.234E-05  0.234E-05
 -19.586  0.246E-05  0.246E-05
 -19.576  0.258E-05  0.258E-05
 -19.566  0.271E-05  0.271E-05
 -19.556  0.284E-05  0.284E-05
 -19.546  0.297E-05  0.297E-05
 -19.536  0.311E-05  0.311E-05
 -19.526  0.324E-05  0.324E-05
 -19.516  0.338E-05  0.338E-05
 -19.506  0.353E-05  0.353E-05
 -19.496  0.367E-05  0.367E-05
 -19.486  0.382E-05  0.382E-05
 -19.476  0.397E-05  0.397E-05
 -19.466  0.412E-05  0.412E-05
 -19.456  0.428E-05  0.428E-05
 -19.446  0.443E-05  0.443E-05
 -19.436  0.459E-05  0.459E-05
 -19.426  0.475E-05  0.475E-05
 -19.416  0.491E-05  0.491E-05
 -19.406  0.506E-05  0.506E-05
 -19.396  0.522E-05  0.522E-05
 -19.386  0.538E-05  0.538E-05
 -19.376  0.555E-05  0.555E-05
 -19.366  0.570E-05  0.570E-05
 -19.356  0.586E-05  0.586E-05
 -19.346  0.602E-05  0.602E-05
 -19.336  0.618E-05  0.618E-05
 -19.326  0.634E-05  0.634E-05
 -19.316  0.649E-05  0.649E-05
 -19.306  0.665E-05  0.665E-05
 -19.296  0.680E-05  0.680E-05
 -19.286  0.695E-05  0.695E-05
 -19.276  0.709E-05  0.709E-05
 -19.266  0.724E-05  0.724E-05
 -19.256  0.738E-05  0.738E-05
 -19.246  0.752E-05  0.752E-05
 -19.236  0.765E-05  0.765E-05
 -19.226  0.778E-05  0.778E-05
 -19.216  0.791E-05  0.791E-05
 -19.206  0.803E-05  0.803E-05
 -19.196  0.815E-05  0.815E-05
 -19.186  0.826E-05  0.826E-05
 -19.176  0.837E-05  0.837E-05
 -19.166  0.847E-05  0.847E-05
 -19.156  0.857E-05  0.857E-05
 -19.146  0.867E-05  0.867E-05
 -19.136  0.875E-05  0.875E-05
 -19.126  0.884E-05  0.884E-05
 -19.116  0.891E-05  0.891E-05
 -19.106  0.898E-05  0.898E-05
 -19.096  0.905E-05  0.905E-05
 -19.086  0.911E-05  0.911E-05
 -19.076  0.916E-05  0.916E-05
 -19.066  0.920E-05  0.920E-05
 -19.056  0.924E-05  0.924E-05
 -19.046  0.927E-05  0.927E-05
 -19.036  0.930E-05  0.930E-05
 -19.026  0.932E-05  0.932E-05
 -19.016  0.933E-05  0.933E-05
 -19.006  0.934E-05  0.934E-05
 -18.996  0.933E-05  0.933E-05
 -18.986  0.933E-05  0.933E-05
 -18.976  0.931E-05  0.931E-05
 -18.966  0.929E-05  0.929E-05
 -18.956  0.926E-05  0.926E-05
 -18.946  0.923E-05  0.923E-05
 -18.936  0.918E-05  0.918E-05
 -18.926  0.913E-05  0.913E-05
 -18.916  0.908E-05  0.908E-05
 -18.906  0.902E-05  0.902E-05
 -18.896  0.895E-05  0.895E-05
 -18.886  0.888E-05  0.888E-05
 -18.876  0.880E-05  0.880E-05
 -18.866  0.871E-05  0.871E-05
 -18.856  0.862E-05  0.862E-05
 -18.846  0.852E-05  0.852E-05
 -18.836  0.842E-05  0.842E-05
 -18.826  0.831E-05  0.831E-05
 -18.816  0.820E-05  0.820E-05
 -18.806  0.808E-05  0.808E-05
 -18.796  0.796E-05  0.796E-05
 -18.786  0.783E-05  0.783E-05
 -18.776  0.770E-05  0.770E-05
 -18.766  0.757E-05  0.757E-05
 -18.756  0.743E-05  0.743E-05
 -18.746  0.728E-05  0.728E-05
 -18.736  0.714E-05  0.714E-05
 -18.726  0.699E-05  0.699E-05
 -18.716  0.683E-05  0.683E-05
 -18.706  0.668E-05  0.668E-05
 -18.696  0.652E-05  0.652E-05
 -18.686  0.636E-05  0.636E-05
 -18.676  0.620E-05  0.620E-05
 -18.666  0.603E-05  0.603E-05
 -18.656  0.587E-05  0.587E-05
 -18.646  0.570E-05  0.570E-05
 -18.636  0.553E-05  0.553E-05
 -18.626  0.536E-05  0.536E-05
 -18.616  0.519E-05  0.519E-05
 -18.606  0.502E-05  0.502E-05
 -18.596  0.485E-05  0.485E-05
 -18.586  0.468E-05  0.468E-05
 -18.576  0.451E-05  0.451E-05
 -18.566  0.434E-05  0.434E-05
 -18.556  0.416E-05  0.416E-05
 -18.546  0.399E-05  0.399E-05
 -18.536  0.383E-05  0.383E-05
 -18.526  0.366E-05  0.366E-05
 -18.516  0.349E-05  0.349E-05
 -18.506  0.332E-05  0.332E-05
 -18.496  0.316E-05  0.316E-05
 -18.486  0.300E-05  0.300E-05
 -18.476  0.284E-05  0.284E-05
 -18.466  0.268E-05  0.268E-05
 -18.456  0.252E-05  0.252E-05
 -18.446  0.237E-05  0.237E-05
 -18.436  0.221E-05  0.221E-05
 -18.426  0.206E-05  0.206E-05
 -18.416  0.192E-05  0.192E-05
 -18.406  0.177E-05  0.177E-05
 -18.396  0.163E-05  0.163E-05
 -18.386  0.149E-05  0.149E-05
 -18.376  0.135E-05  0.135E-05
 -18.366  0.122E-05  0.122E-05
 -18.356  0.108E-05  0.108E-05
 -18.346  0.955E-06  0.955E-06
 -18.336  0.829E-06  0.829E-06
 -18.326  0.706E-06  0.706E-06
 -18.316  0.586E-06  0.586E-06
 -18.306  0.469E-06  0.469E-06
 -18.296  0.355E-06  0.355E-06
 -18.286  0.244E-06  0.244E-06
 -18.276  0.136E-06  0.136E-06
 -18.266  0.314E-07  0.314E-07
 -18.256 -0.704E-07 -0.704E-07
 -18.246 -0.169E-06 -0.169E-06
 -18.236 -0.265E-06 -0.265E-06
 -18.226 -0.357E-06 -0.357E-06
 -18.216 -0.447E-06 -0.447E-06
 -18.206 -0.533E-06 -0.533E-06
 -18.196 -0.616E-06 -0.616E-06
 -18.186 -0.697E-06 -0.697E-06
 -18.176 -0.774E-06 -0.774E-06
 -18.166 -0.848E-06 -0.848E-06
 -18.156 -0.919E-06 -0.919E-06
 -18.146 -0.987E-06 -0.987E-06
 -18.136 -0.105E-05 -0.105E-05
 -18.126 -0.111E-05 -0.111E-05
 -18.116 -0.117E-05 -0.117E-05
 -18.106 -0.123E-05 -0.123E-05
 -18.096 -0.128E-05 -0.128E-05
 -18.086 -0.133E-05 -0.133E-05
 -18.076 -0.138E-05 -0.138E-05
 -18.066 -0.142E-05 -0.142E-05
 -18.056 -0.146E-05 -0.146E-05
 -18.046 -0.150E-05 -0.150E-05
 -18.036 -0.153E-05 -0.153E-05
 -18.026 -0.156E-05 -0.156E-05
 -18.016 -0.159E-05 -0.159E-05
 -18.006 -0.162E-05 -0.162E-05
 -17.996 -0.164E-05 -0.164E-05
 -17.986 -0.165E-05 -0.165E-05
 -17.976 -0.167E-05 -0.167E-05
 -17.966 -0.168E-05 -0.168E-05
 -17.956 -0.169E-05 -0.169E-05
 -17.946 -0.169E-05 -0.169E-05
 -17.936 -0.169E-05 -0.169E-05
 -17.926 -0.168E-05 -0.168E-05
 -17.916 -0.167E-05 -0.167E-05
 -17.906 -0.166E-05 -0.166E-05
 -17.896 -0.164E-05 -0.164E-05
 -17.886 -0.162E-05 -0.162E-05
 -17.876 -0.159E-05 -0.159E-05
 -17.866 -0.156E-05 -0.156E-05
 -17.856 -0.153E-05 -0.153E-05
 -17.846 -0.149E-05 -0.149E-05
 -17.836 -0.144E-05 -0.144E-05
 -17.826 -0.139E-05 -0.139E-05
 -17.816 -0.134E-05 -0.134E-05
 -17.806 -0.127E-05 -0.127E-05
 -17.796 -0.121E-05 -0.121E-05
 -17.786 -0.113E-05 -0.113E-05
 -17.776 -0.106E-05 -0.106E-05
 -17.766 -0.972E-06 -0.972E-06
 -17.756 -0.881E-06 -0.881E-06
 -17.746 -0.784E-06 -0.784E-06
 -17.736 -0.681E-06 -0.681E-06
 -17.726 -0.571E-06 -0.571E-06
 -17.716 -0.455E-06 -0.455E-06
 -17.706 -0.332E-06 -0.332E-06
 -17.696 -0.201E-06 -0.201E-06
 -17.686 -0.641E-07 -0.641E-07
 -17.676  0.804E-07  0.804E-07
 -17.666  0.232E-06  0.232E-06
 -17.656  0.391E-06  0.391E-06
 -17.646  0.558E-06  0.558E-06
 -17.636  0.732E-06  0.732E-06
 -17.626  0.914E-06  0.914E-06
 -17.616  0.110E-05  0.110E-05
 -17.606  0.130E-05  0.130E-05
 -17.596  0.150E-05  0.150E-05
 -17.586  0.172E-05  0.172E-05
 -17.576  0.194E-05  0.194E-05
 -17.566  0.217E-05  0.217E-05
 -17.556  0.240E-05  0.240E-05
 -17.546  0.265E-05  0.265E-05
 -17.536  0.290E-05  0.290E-05
 -17.526  0.316E-05  0.316E-05
 -17.516  0.342E-05  0.342E-05
 -17.506  0.370E-05  0.370E-05
 -17.496  0.398E-05  0.398E-05
 -17.486  0.427E-05  0.427E-05
 -17.476  0.456E-05  0.456E-05
 -17.466  0.487E-05  0.487E-05
 -17.456  0.518E-05  0.518E-05
 -17.446  0.549E-05  0.549E-05
 -17.436  0.582E-05  0.582E-05
 -17.426  0.614E-05  0.614E-05
 -17.416  0.648E-05  0.648E-05
 -17.406  0.682E-05  0.682E-05
 -17.396  0.716E-05  0.716E-05
 -17.386  0.751E-05  0.751E-05
 -17.376  0.787E-05  0.787E-05
 -17.366  0.823E-05  0.823E-05
 -17.356  0.859E-05  0.859E-05
 -17.346  0.896E-05  0.896E-05
 -17.336  0.933E-05  0.933E-05
 -17.326  0.970E-05  0.970E-05
 -17.316  0.101E-04  0.101E-04
 -17.306  0.105E-04  0.105E-04
 -17.296  0.108E-04  0.108E-04
 -17.286  0.112E-04  0.112E-04
 -17.276  0.116E-04  0.116E-04
 -17.266  0.120E-04  0.120E-04
 -17.256  0.124E-04  0.124E-04
 -17.246  0.127E-04  0.127E-04
 -17.236  0.131E-04  0.131E-04
 -17.226  0.135E-04  0.135E-04
 -17.216  0.139E-04  0.139E-04
 -17.206  0.142E-04  0.142E-04
 -17.196  0.146E-04  0.146E-04
 -17.186  0.150E-04  0.150E-04
 -17.176  0.153E-04  0.153E-04
 -17.166  0.157E-04  0.157E-04
 -17.156  0.160E-04  0.160E-04
 -17.146  0.163E-04  0.163E-04
 -17.136  0.167E-04  0.167E-04
 -17.126  0.170E-04  0.170E-04
 -17.116  0.173E-04  0.173E-04
 -17.106  0.176E-04  0.176E-04
 -17.096  0.179E-04  0.179E-04
 -17.086  0.182E-04  0.182E-04
 -17.076  0.185E-04  0.185E-04
 -17.066  0.188E-04  0.188E-04
 -17.056  0.190E-04  0.190E-04
 -17.046  0.193E-04  0.193E-04
 -17.036  0.195E-04  0.195E-04
 -17.026  0.198E-04  0.198E-04
 -17.016  0.200E-04  0.200E-04
 -17.006  0.202E-04  0.202E-04
 -16.996  0.204E-04  0.204E-04
 -16.986  0.205E-04  0.205E-04
 -16.976  0.207E-04  0.207E-04
 -16.966  0.208E-04  0.208E-04
 -16.956  0.210E-04  0.210E-04
 -16.946  0.211E-04  0.211E-04
 -16.936  0.212E-04  0.212E-04
 -16.926  0.213E-04  0.213E-04
 -16.916  0.213E-04  0.213E-04
 -16.906  0.214E-04  0.214E-04
 -16.896  0.214E-04  0.214E-04
 -16.886  0.215E-04  0.215E-04
 -16.876  0.215E-04  0.215E-04
 -16.866  0.215E-04  0.215E-04
 -16.856  0.215E-04  0.215E-04
 -16.846  0.214E-04  0.214E-04
 -16.836  0.214E-04  0.214E-04
 -16.826  0.213E-04  0.213E-04
 -16.816  0.212E-04  0.212E-04
 -16.806  0.211E-04  0.211E-04
 -16.796  0.210E-04  0.210E-04
 -16.786  0.209E-04  0.209E-04
 -16.776  0.208E-04  0.208E-04
 -16.766  0.206E-04  0.206E-04
 -16.756  0.204E-04  0.204E-04
 -16.746  0.203E-04  0.203E-04
 -16.736  0.201E-04  0.201E-04
 -16.726  0.199E-04  0.199E-04
 -16.716  0.196E-04  0.196E-04
 -16.706  0.194E-04  0.194E-04
 -16.696  0.192E-04  0.192E-04
 -16.686  0.189E-04  0.189E-04
 -16.676  0.186E-04  0.186E-04
 -16.666  0.184E-04  0.184E-04
 -16.656  0.181E-04  0.181E-04
 -16.646  0.178E-04  0.178E-04
 -16.636  0.175E-04  0.175E-04
 -16.626  0.172E-04  0.172E-04
 -16.616  0.168E-04  0.168E-04
 -16.606  0.165E-04  0.165E-04
 -16.596  0.162E-04  0.162E-04
 -16.586  0.158E-04  0.158E-04
 -16.576  0.155E-04  0.155E-04
 -16.566  0.151E-04  0.151E-04
 -16.556  0.148E-04  0.148E-04
 -16.546  0.144E-04  0.144E-04
 -16.536  0.141E-04  0.141E-04
 -16.526  0.137E-04  0.137E-04
 -16.516  0.133E-04  0.133E-04
 -16.506  0.130E-04  0.130E-04
 -16.496  0.126E-04  0.126E-04
 -16.486  0.122E-04  0.122E-04
 -16.476  0.118E-04  0.118E-04
 -16.466  0.115E-04  0.115E-04
 -16.456  0.111E-04  0.111E-04
 -16.446  0.107E-04  0.107E-04
 -16.436  0.103E-04  0.103E-04
 -16.426  0.997E-05  0.997E-05
 -16.416  0.960E-05  0.960E-05
 -16.406  0.924E-05  0.924E-05
 -16.396  0.888E-05  0.888E-05
 -16.386  0.852E-05  0.852E-05
 -16.376  0.817E-05  0.817E-05
 -16.366  0.782E-05  0.782E-05
 -16.356  0.747E-05  0.747E-05
 -16.346  0.713E-05  0.713E-05
 -16.336  0.680E-05  0.680E-05
 -16.326  0.647E-05  0.647E-05
 -16.316  0.615E-05  0.615E-05
 -16.306  0.583E-05  0.583E-05
 -16.296  0.552E-05  0.552E-05
 -16.286  0.522E-05  0.522E-05
 -16.276  0.492E-05  0.492E-05
 -16.266  0.463E-05  0.463E-05
 -16.256  0.435E-05  0.435E-05
 -16.246  0.407E-05  0.407E-05
 -16.236  0.381E-05  0.381E-05
 -16.226  0.355E-05  0.355E-05
 -16.216  0.329E-05  0.329E-05
 -16.206  0.305E-05  0.305E-05
 -16.196  0.281E-05  0.281E-05
 -16.186  0.258E-05  0.258E-05
 -16.176  0.236E-05  0.236E-05
 -16.166  0.215E-05  0.215E-05
 -16.156  0.195E-05  0.195E-05
 -16.146  0.175E-05  0.175E-05
 -16.136  0.156E-05  0.156E-05
 -16.126  0.138E-05  0.138E-05
 -16.116  0.120E-05  0.120E-05
 -16.106  0.104E-05  0.104E-05
 -16.096  0.878E-06  0.878E-06
 -16.086  0.727E-06  0.727E-06
 -16.076  0.583E-06  0.583E-06
 -16.066  0.447E-06  0.447E-06
 -16.056  0.317E-06  0.317E-06
 -16.046  0.195E-06  0.195E-06
 -16.036  0.793E-07  0.793E-07
 -16.026 -0.295E-07 -0.295E-07
 -16.016 -0.132E-06 -0.132E-06
 -16.006 -0.228E-06 -0.228E-06
 -15.996 -0.317E-06 -0.317E-06
 -15.986 -0.401E-06 -0.401E-06
 -15.976 -0.479E-06 -0.479E-06
 -15.966 -0.551E-06 -0.551E-06
 -15.956 -0.617E-06 -0.617E-06
 -15.946 -0.679E-06 -0.679E-06
 -15.936 -0.735E-06 -0.735E-06
 -15.926 -0.786E-06 -0.786E-06
 -15.916 -0.832E-06 -0.832E-06
 -15.906 -0.874E-06 -0.874E-06
 -15.896 -0.912E-06 -0.912E-06
 -15.886 -0.945E-06 -0.945E-06
 -15.876 -0.974E-06 -0.974E-06
 -15.866 -0.100E-05 -0.100E-05
 -15.856 -0.102E-05 -0.102E-05
 -15.846 -0.104E-05 -0.104E-05
 -15.836 -0.106E-05 -0.106E-05
 -15.826 -0.107E-05 -0.107E-05
 -15.816 -0.108E-05 -0.108E-05
 -15.806 -0.108E-05 -0.108E-05
 -15.796 -0.109E-05 -0.109E-05
 -15.786 -0.109E-05 -0.109E-05
 -15.776 -0.109E-05 -0.109E-05
 -15.766 -0.108E-05 -0.108E-05
 -15.756 -0.108E-05 -0.108E-05
 -15.746 -0.107E-05 -0.107E-05
 -15.736 -0.107E-05 -0.107E-05
 -15.726 -0.106E-05 -0.106E-05
 -15.716 -0.105E-05 -0.105E-05
 -15.706 -0.103E-05 -0.103E-05
 -15.696 -0.102E-05 -0.102E-05
 -15.686 -0.101E-05 -0.101E-05
 -15.676 -0.991E-06 -0.991E-06
 -15.666 -0.976E-06 -0.976E-06
 -15.656 -0.959E-06 -0.959E-06
 -15.646 -0.943E-06 -0.943E-06
 -15.636 -0.926E-06 -0.926E-06
 -15.626 -0.908E-06 -0.908E-06
 -15.616 -0.890E-06 -0.890E-06
 -15.606 -0.873E-06 -0.873E-06
 -15.596 -0.855E-06 -0.855E-06
 -15.586 -0.837E-06 -0.837E-06
 -15.576 -0.819E-06 -0.819E-06
 -15.566 -0.802E-06 -0.802E-06
 -15.556 -0.784E-06 -0.784E-06
 -15.546 -0.767E-06 -0.767E-06
 -15.536 -0.751E-06 -0.751E-06
 -15.526 -0.735E-06 -0.735E-06
 -15.516 -0.719E-06 -0.719E-06
 -15.506 -0.704E-06 -0.704E-06
 -15.496 -0.689E-06 -0.689E-06
 -15.486 -0.675E-06 -0.675E-06
 -15.476 -0.661E-06 -0.661E-06
 -15.466 -0.649E-06 -0.649E-06
 -15.456 -0.637E-06 -0.637E-06
 -15.446 -0.625E-06 -0.625E-06
 -15.436 -0.615E-06 -0.615E-06
 -15.426 -0.605E-06 -0.605E-06
 -15.416 -0.596E-06 -0.596E-06
 -15.406 -0.588E-06 -0.588E-06
 -15.396 -0.581E-06 -0.581E-06
 -15.386 -0.575E-06 -0.575E-06
 -15.376 -0.569E-06 -0.569E-06
 -15.366 -0.565E-06 -0.565E-06
 -15.356 -0.561E-06 -0.561E-06
 -15.346 -0.558E-06 -0.558E-06
 -15.336 -0.557E-06 -0.557E-06
 -15.326 -0.556E-06 -0.556E-06
 -15.316 -0.556E-06 -0.556E-06
 -15.306 -0.557E-06 -0.557E-06
 -15.296 -0.559E-06 -0.559E-06
 -15.286 -0.562E-06 -0.562E-06
 -15.276 -0.566E-06 -0.566E-06
 -15.266 -0.570E-06 -0.570E-06
 -15.256 -0.576E-06 -0.576E-06
 -15.246 -0.583E-06 -0.583E-06
 -15.236 -0.590E-06 -0.590E-06
 -15.226 -0.598E-06 -0.598E-06
 -15.216 -0.608E-06 -0.608E-06
 -15.206 -0.618E-06 -0.618E-06
 -15.196 -0.629E-06 -0.629E-06
 -15.186 -0.640E-06 -0.640E-06
 -15.176 -0.653E-06 -0.653E-06
 -15.166 -0.666E-06 -0.666E-06
 -15.156 -0.680E-06 -0.680E-06
 -15.146 -0.695E-06 -0.695E-06
 -15.136 -0.710E-06 -0.710E-06
 -15.126 -0.726E-06 -0.726E-06
 -15.116 -0.742E-06 -0.742E-06
 -15.106 -0.759E-06 -0.759E-06
 -15.096 -0.777E-06 -0.777E-06
 -15.086 -0.795E-06 -0.795E-06
 -15.076 -0.813E-06 -0.813E-06
 -15.066 -0.832E-06 -0.832E-06
 -15.056 -0.851E-06 -0.851E-06
 -15.046 -0.870E-06 -0.870E-06
 -15.036 -0.889E-06 -0.889E-06
 -15.026 -0.909E-06 -0.909E-06
 -15.016 -0.928E-06 -0.928E-06
 -15.006 -0.948E-06 -0.948E-06
 -14.996 -0.967E-06 -0.967E-06
 -14.986 -0.986E-06 -0.986E-06
 -14.976 -0.100E-05 -0.100E-05
 -14.966 -0.102E-05 -0.102E-05
 -14.956 -0.104E-05 -0.104E-05
 -14.946 -0.106E-05 -0.106E-05
 -14.936 -0.107E-05 -0.107E-05
 -14.926 -0.109E-05 -0.109E-05
 -14.916 -0.111E-05 -0.111E-05
 -14.906 -0.112E-05 -0.112E-05
 -14.896 -0.113E-05 -0.113E-05
 -14.886 -0.114E-05 -0.114E-05
 -14.876 -0.115E-05 -0.115E-05
 -14.866 -0.116E-05 -0.116E-05
 -14.856 -0.117E-05 -0.117E-05
 -14.846 -0.117E-05 -0.117E-05
 -14.836 -0.118E-05 -0.118E-05
 -14.826 -0.118E-05 -0.118E-05
 -14.816 -0.118E-05 -0.118E-05
 -14.806 -0.117E-05 -0.117E-05
 -14.796 -0.117E-05 -0.117E-05
 -14.786 -0.116E-05 -0.116E-05
 -14.776 -0.115E-05 -0.115E-05
 -14.766 -0.113E-05 -0.113E-05
 -14.756 -0.111E-05 -0.111E-05
 -14.746 -0.109E-05 -0.109E-05
 -14.736 -0.107E-05 -0.107E-05
 -14.726 -0.104E-05 -0.104E-05
 -14.716 -0.101E-05 -0.101E-05
 -14.706 -0.969E-06 -0.969E-06
 -14.696 -0.928E-06 -0.928E-06
 -14.686 -0.882E-06 -0.882E-06
 -14.676 -0.833E-06 -0.833E-06
 -14.666 -0.778E-06 -0.778E-06
 -14.656 -0.719E-06 -0.719E-06
 -14.646 -0.654E-06 -0.654E-06
 -14.636 -0.584E-06 -0.584E-06
 -14.626 -0.509E-06 -0.509E-06
 -14.616 -0.428E-06 -0.428E-06
 -14.606 -0.342E-06 -0.342E-06
 -14.596 -0.249E-06 -0.249E-06
 -14.586 -0.151E-06 -0.151E-06
 -14.576 -0.459E-07 -0.459E-07
 -14.566  0.651E-07  0.651E-07
 -14.556  0.183E-06  0.183E-06
 -14.546  0.307E-06  0.307E-06
 -14.536  0.437E-06  0.437E-06
 -14.526  0.575E-06  0.575E-06
 -14.516  0.719E-06  0.719E-06
 -14.506  0.871E-06  0.871E-06
 -14.496  0.103E-05  0.103E-05
 -14.486  0.120E-05  0.120E-05
 -14.476  0.137E-05  0.137E-05
 -14.466  0.155E-05  0.155E-05
 -14.456  0.174E-05  0.174E-05
 -14.446  0.193E-05  0.193E-05
 -14.436  0.213E-05  0.213E-05
 -14.426  0.234E-05  0.234E-05
 -14.416  0.256E-05  0.256E-05
 -14.406  0.279E-05  0.279E-05
 -14.396  0.302E-05  0.302E-05
 -14.386  0.326E-05  0.326E-05
 -14.376  0.351E-05  0.351E-05
 -14.366  0.376E-05  0.376E-05
 -14.356  0.402E-05  0.402E-05
 -14.346  0.429E-05  0.429E-05
 -14.336  0.457E-05  0.457E-05
 -14.326  0.485E-05  0.485E-05
 -14.316  0.514E-05  0.514E-05
 -14.306  0.544E-05  0.544E-05
 -14.296  0.574E-05  0.574E-05
 -14.286  0.605E-05  0.605E-05
 -14.276  0.636E-05  0.636E-05
 -14.266  0.668E-05  0.668E-05
 -14.256  0.701E-05  0.701E-05
 -14.246  0.734E-05  0.734E-05
 -14.236  0.768E-05  0.768E-05
 -14.226  0.802E-05  0.802E-05
 -14.216  0.837E-05  0.837E-05
 -14.206  0.872E-05  0.872E-05
 -14.196  0.908E-05  0.908E-05
 -14.186  0.944E-05  0.944E-05
 -14.176  0.980E-05  0.980E-05
 -14.166  0.102E-04  0.102E-04
 -14.156  0.105E-04  0.105E-04
 -14.146  0.109E-04  0.109E-04
 -14.136  0.113E-04  0.113E-04
 -14.126  0.117E-04  0.117E-04
 -14.116  0.120E-04  0.120E-04
 -14.106  0.124E-04  0.124E-04
 -14.096  0.128E-04  0.128E-04
 -14.086  0.132E-04  0.132E-04
 -14.076  0.135E-04  0.135E-04
 -14.066  0.139E-04  0.139E-04
 -14.056  0.143E-04  0.143E-04
 -14.046  0.147E-04  0.147E-04
 -14.036  0.150E-04  0.150E-04
 -14.026  0.154E-04  0.154E-04
 -14.016  0.158E-04  0.158E-04
 -14.006  0.161E-04  0.161E-04
 -13.996  0.165E-04  0.165E-04
 -13.986  0.169E-04  0.169E-04
 -13.976  0.172E-04  0.172E-04
 -13.966  0.176E-04  0.176E-04
 -13.956  0.179E-04  0.179E-04
 -13.946  0.182E-04  0.182E-04
 -13.936  0.186E-04  0.186E-04
 -13.926  0.189E-04  0.189E-04
 -13.916  0.192E-04  0.192E-04
 -13.906  0.195E-04  0.195E-04
 -13.896  0.198E-04  0.198E-04
 -13.886  0.201E-04  0.201E-04
 -13.876  0.204E-04  0.204E-04
 -13.866  0.207E-04  0.207E-04
 -13.856  0.210E-04  0.210E-04
 -13.846  0.212E-04  0.212E-04
 -13.836  0.215E-04  0.215E-04
 -13.826  0.217E-04  0.217E-04
 -13.816  0.220E-04  0.220E-04
 -13.806  0.222E-04  0.222E-04
 -13.796  0.224E-04  0.224E-04
 -13.786  0.226E-04  0.226E-04
 -13.776  0.228E-04  0.228E-04
 -13.766  0.230E-04  0.230E-04
 -13.756  0.232E-04  0.232E-04
 -13.746  0.233E-04  0.233E-04
 -13.736  0.235E-04  0.235E-04
 -13.726  0.236E-04  0.236E-04
 -13.716  0.237E-04  0.237E-04
 -13.706  0.239E-04  0.239E-04
 -13.696  0.240E-04  0.240E-04
 -13.686  0.240E-04  0.240E-04
 -13.676  0.241E-04  0.241E-04
 -13.666  0.242E-04  0.242E-04
 -13.656  0.243E-04  0.243E-04
 -13.646  0.243E-04  0.243E-04
 -13.636  0.243E-04  0.243E-04
 -13.626  0.244E-04  0.244E-04
 -13.616  0.244E-04  0.244E-04
 -13.606  0.244E-04  0.244E-04
 -13.596  0.243E-04  0.243E-04
 -13.586  0.243E-04  0.243E-04
 -13.576  0.243E-04  0.243E-04
 -13.566  0.242E-04  0.242E-04
 -13.556  0.242E-04  0.242E-04
 -13.546  0.241E-04  0.241E-04
 -13.536  0.240E-04  0.240E-04
 -13.526  0.240E-04  0.240E-04
 -13.516  0.239E-04  0.239E-04
 -13.506  0.238E-04  0.238E-04
 -13.496  0.236E-04  0.236E-04
 -13.486  0.235E-04  0.235E-04
 -13.476  0.234E-04  0.234E-04
 -13.466  0.232E-04  0.232E-04
 -13.456  0.231E-04  0.231E-04
 -13.446  0.229E-04  0.229E-04
 -13.436  0.228E-04  0.228E-04
 -13.426  0.226E-04  0.226E-04
 -13.416  0.224E-04  0.224E-04
 -13.406  0.222E-04  0.222E-04
 -13.396  0.220E-04  0.220E-04
 -13.386  0.218E-04  0.218E-04
 -13.376  0.216E-04  0.216E-04
 -13.366  0.214E-04  0.214E-04
 -13.356  0.211E-04  0.211E-04
 -13.346  0.209E-04  0.209E-04
 -13.336  0.207E-04  0.207E-04
 -13.326  0.204E-04  0.204E-04
 -13.316  0.202E-04  0.202E-04
 -13.306  0.199E-04  0.199E-04
 -13.296  0.197E-04  0.197E-04
 -13.286  0.194E-04  0.194E-04
 -13.276  0.192E-04  0.192E-04
 -13.266  0.189E-04  0.189E-04
 -13.256  0.186E-04  0.186E-04
 -13.246  0.184E-04  0.184E-04
 -13.236  0.181E-04  0.181E-04
 -13.226  0.178E-04  0.178E-04
 -13.216  0.175E-04  0.175E-04
 -13.206  0.173E-04  0.173E-04
 -13.196  0.170E-04  0.170E-04
 -13.186  0.167E-04  0.167E-04
 -13.176  0.164E-04  0.164E-04
 -13.166  0.161E-04  0.161E-04
 -13.156  0.159E-04  0.159E-04
 -13.146  0.156E-04  0.156E-04
 -13.136  0.153E-04  0.153E-04
 -13.126  0.150E-04  0.150E-04
 -13.116  0.147E-04  0.147E-04
 -13.106  0.144E-04  0.144E-04
 -13.096  0.141E-04  0.141E-04
 -13.086  0.138E-04  0.138E-04
 -13.076  0.135E-04  0.135E-04
 -13.066  0.133E-04  0.133E-04
 -13.056  0.130E-04  0.130E-04
 -13.046  0.127E-04  0.127E-04
 -13.036  0.124E-04  0.124E-04
 -13.026  0.121E-04  0.121E-04
 -13.016  0.118E-04  0.118E-04
 -13.006  0.116E-04  0.116E-04
 -12.996  0.113E-04  0.113E-04
 -12.986  0.110E-04  0.110E-04
 -12.976  0.107E-04  0.107E-04
 -12.966  0.104E-04  0.104E-04
 -12.956  0.102E-04  0.102E-04
 -12.946  0.988E-05  0.988E-05
 -12.936  0.961E-05  0.961E-05
 -12.926  0.934E-05  0.934E-05
 -12.916  0.907E-05  0.907E-05
 -12.906  0.880E-05  0.880E-05
 -12.896  0.853E-05  0.853E-05
 -12.886  0.826E-05  0.826E-05
 -12.876  0.800E-05  0.800E-05
 -12.866  0.774E-05  0.774E-05
 -12.856  0.748E-05  0.748E-05
 -12.846  0.722E-05  0.722E-05
 -12.836  0.696E-05  0.696E-05
 -12.826  0.670E-05  0.670E-05
 -12.816  0.645E-05  0.645E-05
 -12.806  0.619E-05  0.619E-05
 -12.796  0.594E-05  0.594E-05
 -12.786  0.569E-05  0.569E-05
 -12.776  0.545E-05  0.545E-05
 -12.766  0.520E-05  0.520E-05
 -12.756  0.495E-05  0.495E-05
 -12.746  0.471E-05  0.471E-05
 -12.736  0.447E-05  0.447E-05
 -12.726  0.423E-05  0.423E-05
 -12.716  0.399E-05  0.399E-05
 -12.706  0.375E-05  0.375E-05
 -12.696  0.352E-05  0.352E-05
 -12.686  0.328E-05  0.328E-05
 -12.676  0.305E-05  0.305E-05
 -12.666  0.282E-05  0.282E-05
 -12.656  0.259E-05  0.259E-05
 -12.646  0.236E-05  0.236E-05
 -12.636  0.213E-05  0.213E-05
 -12.626  0.191E-05  0.191E-05
 -12.616  0.169E-05  0.169E-05
 -12.606  0.146E-05  0.146E-05
 -12.596  0.124E-05  0.124E-05
 -12.586  0.103E-05  0.103E-05
 -12.576  0.809E-06  0.809E-06
 -12.566  0.594E-06  0.594E-06
 -12.556  0.381E-06  0.381E-06
 -12.546  0.170E-06  0.170E-06
 -12.536 -0.384E-07 -0.384E-07
 -12.526 -0.245E-06 -0.245E-06
 -12.516 -0.449E-06 -0.449E-06
 -12.506 -0.651E-06 -0.651E-06
 -12.496 -0.851E-06 -0.851E-06
 -12.486 -0.105E-05 -0.105E-05
 -12.476 -0.124E-05 -0.124E-05
 -12.466 -0.143E-05 -0.143E-05
 -12.456 -0.162E-05 -0.162E-05
 -12.446 -0.181E-05 -0.181E-05
 -12.436 -0.199E-05 -0.199E-05
 -12.426 -0.216E-05 -0.216E-05
 -12.416 -0.234E-05 -0.234E-05
 -12.406 -0.251E-05 -0.251E-05
 -12.396 -0.267E-05 -0.267E-05
 -12.386 -0.283E-05 -0.283E-05
 -12.376 -0.299E-05 -0.299E-05
 -12.366 -0.314E-05 -0.314E-05
 -12.356 -0.328E-05 -0.328E-05
 -12.346 -0.342E-05 -0.342E-05
 -12.336 -0.355E-05 -0.355E-05
 -12.326 -0.368E-05 -0.368E-05
 -12.316 -0.380E-05 -0.380E-05
 -12.306 -0.391E-05 -0.391E-05
 -12.296 -0.401E-05 -0.401E-05
 -12.286 -0.411E-05 -0.411E-05
 -12.276 -0.419E-05 -0.419E-05
 -12.266 -0.427E-05 -0.427E-05
 -12.256 -0.434E-05 -0.434E-05
 -12.246 -0.440E-05 -0.440E-05
 -12.236 -0.444E-05 -0.444E-05
 -12.226 -0.448E-05 -0.448E-05
 -12.216 -0.450E-05 -0.450E-05
 -12.206 -0.452E-05 -0.452E-05
 -12.196 -0.451E-05 -0.451E-05
 -12.186 -0.450E-05 -0.450E-05
 -12.176 -0.447E-05 -0.447E-05
 -12.166 -0.443E-05 -0.443E-05
 -12.156 -0.437E-05 -0.437E-05
 -12.146 -0.430E-05 -0.430E-05
 -12.136 -0.421E-05 -0.421E-05
 -12.126 -0.410E-05 -0.410E-05
 -12.116 -0.398E-05 -0.398E-05
 -12.106 -0.384E-05 -0.384E-05
 -12.096 -0.368E-05 -0.368E-05
 -12.086 -0.350E-05 -0.350E-05
 -12.076 -0.330E-05 -0.330E-05
 -12.066 -0.308E-05 -0.308E-05
 -12.056 -0.284E-05 -0.284E-05
 -12.046 -0.257E-05 -0.257E-05
 -12.036 -0.229E-05 -0.229E-05
 -12.026 -0.198E-05 -0.198E-05
 -12.016 -0.165E-05 -0.165E-05
 -12.006 -0.129E-05 -0.129E-05
 -11.996 -0.914E-06 -0.914E-06
 -11.986 -0.510E-06 -0.510E-06
 -11.976 -0.803E-07 -0.803E-07
 -11.966  0.375E-06  0.375E-06
 -11.956  0.856E-06  0.856E-06
 -11.946  0.136E-05  0.136E-05
 -11.936  0.190E-05  0.190E-05
 -11.926  0.246E-05  0.246E-05
 -11.916  0.305E-05  0.305E-05
 -11.906  0.367E-05  0.367E-05
 -11.896  0.431E-05  0.431E-05
 -11.886  0.498E-05  0.498E-05
 -11.876  0.569E-05  0.569E-05
 -11.866  0.641E-05  0.641E-05
 -11.856  0.717E-05  0.717E-05
 -11.846  0.796E-05  0.796E-05
 -11.836  0.877E-05  0.877E-05
 -11.826  0.961E-05  0.961E-05
 -11.816  0.105E-04  0.105E-04
 -11.806  0.114E-04  0.114E-04
 -11.796  0.123E-04  0.123E-04
 -11.786  0.132E-04  0.132E-04
 -11.776  0.142E-04  0.142E-04
 -11.766  0.152E-04  0.152E-04
 -11.756  0.163E-04  0.163E-04
 -11.746  0.173E-04  0.173E-04
 -11.736  0.184E-04  0.184E-04
 -11.726  0.195E-04  0.195E-04
 -11.716  0.206E-04  0.206E-04
 -11.706  0.217E-04  0.217E-04
 -11.696  0.229E-04  0.229E-04
 -11.686  0.241E-04  0.241E-04
 -11.676  0.253E-04  0.253E-04
 -11.666  0.265E-04  0.265E-04
 -11.656  0.277E-04  0.277E-04
 -11.646  0.290E-04  0.290E-04
 -11.636  0.302E-04  0.302E-04
 -11.626  0.315E-04  0.315E-04
 -11.616  0.328E-04  0.328E-04
 -11.606  0.341E-04  0.341E-04
 -11.596  0.354E-04  0.354E-04
 -11.586  0.367E-04  0.367E-04
 -11.576  0.380E-04  0.380E-04
 -11.566  0.393E-04  0.393E-04
 -11.556  0.406E-04  0.406E-04
 -11.546  0.419E-04  0.419E-04
 -11.536  0.432E-04  0.432E-04
 -11.526  0.445E-04  0.445E-04
 -11.516  0.458E-04  0.458E-04
 -11.506  0.470E-04  0.470E-04
 -11.496  0.483E-04  0.483E-04
 -11.486  0.495E-04  0.495E-04
 -11.476  0.508E-04  0.508E-04
 -11.466  0.520E-04  0.520E-04
 -11.456  0.532E-04  0.532E-04
 -11.446  0.544E-04  0.544E-04
 -11.436  0.555E-04  0.555E-04
 -11.426  0.566E-04  0.566E-04
 -11.416  0.577E-04  0.577E-04
 -11.406  0.588E-04  0.588E-04
 -11.396  0.598E-04  0.598E-04
 -11.386  0.608E-04  0.608E-04
 -11.376  0.617E-04  0.617E-04
 -11.366  0.626E-04  0.626E-04
 -11.356  0.634E-04  0.634E-04
 -11.346  0.642E-04  0.642E-04
 -11.336  0.650E-04  0.650E-04
 -11.326  0.657E-04  0.657E-04
 -11.316  0.664E-04  0.664E-04
 -11.306  0.669E-04  0.669E-04
 -11.296  0.675E-04  0.675E-04
 -11.286  0.679E-04  0.679E-04
 -11.276  0.683E-04  0.683E-04
 -11.266  0.687E-04  0.687E-04
 -11.256  0.689E-04  0.689E-04
 -11.246  0.691E-04  0.691E-04
 -11.236  0.692E-04  0.692E-04
 -11.226  0.692E-04  0.692E-04
 -11.216  0.692E-04  0.692E-04
 -11.206  0.690E-04  0.690E-04
 -11.196  0.688E-04  0.688E-04
 -11.186  0.684E-04  0.684E-04
 -11.176  0.680E-04  0.680E-04
 -11.166  0.675E-04  0.675E-04
 -11.156  0.668E-04  0.668E-04
 -11.146  0.661E-04  0.661E-04
 -11.136  0.652E-04  0.652E-04
 -11.126  0.643E-04  0.643E-04
 -11.116  0.632E-04  0.632E-04
 -11.106  0.620E-04  0.620E-04
 -11.096  0.606E-04  0.606E-04
 -11.086  0.591E-04  0.591E-04
 -11.076  0.575E-04  0.575E-04
 -11.066  0.558E-04  0.558E-04
 -11.056  0.539E-04  0.539E-04
 -11.046  0.518E-04  0.518E-04
 -11.036  0.496E-04  0.496E-04
 -11.026  0.472E-04  0.472E-04
 -11.016  0.446E-04  0.446E-04
 -11.006  0.419E-04  0.419E-04
 -10.996  0.390E-04  0.390E-04
 -10.986  0.358E-04  0.358E-04
 -10.976  0.325E-04  0.325E-04
 -10.966  0.290E-04  0.290E-04
 -10.956  0.252E-04  0.252E-04
 -10.946  0.213E-04  0.213E-04
 -10.936  0.171E-04  0.171E-04
 -10.926  0.126E-04  0.126E-04
 -10.916  0.793E-05  0.793E-05
 -10.906  0.296E-05  0.296E-05
 -10.896 -0.228E-05 -0.228E-05
 -10.886 -0.780E-05 -0.780E-05
 -10.876 -0.136E-04 -0.136E-04
 -10.866 -0.197E-04 -0.197E-04
 -10.856 -0.262E-04 -0.262E-04
 -10.846 -0.330E-04 -0.330E-04
 -10.836 -0.401E-04 -0.401E-04
 -10.826 -0.476E-04 -0.476E-04
 -10.816 -0.554E-04 -0.554E-04
 -10.806 -0.637E-04 -0.637E-04
 -10.796 -0.723E-04 -0.723E-04
 -10.786 -0.814E-04 -0.814E-04
 -10.776 -0.909E-04 -0.909E-04
 -10.766 -0.101E-03 -0.101E-03
 -10.756 -0.111E-03 -0.111E-03
 -10.746 -0.122E-03 -0.122E-03
 -10.736 -0.133E-03 -0.133E-03
 -10.726 -0.145E-03 -0.145E-03
 -10.716 -0.158E-03 -0.158E-03
 -10.706 -0.171E-03 -0.171E-03
 -10.696 -0.184E-03 -0.184E-03
 -10.686 -0.198E-03 -0.198E-03
 -10.676 -0.213E-03 -0.213E-03
 -10.666 -0.228E-03 -0.228E-03
 -10.656 -0.244E-03 -0.244E-03
 -10.646 -0.261E-03 -0.261E-03
 -10.636 -0.278E-03 -0.278E-03
 -10.626 -0.296E-03 -0.296E-03
 -10.616 -0.315E-03 -0.315E-03
 -10.606 -0.334E-03 -0.334E-03
 -10.596 -0.354E-03 -0.354E-03
 -10.586 -0.375E-03 -0.375E-03
 -10.576 -0.396E-03 -0.396E-03
 -10.566 -0.419E-03 -0.419E-03
 -10.556 -0.442E-03 -0.442E-03
 -10.546 -0.465E-03 -0.465E-03
 -10.536 -0.490E-03 -0.490E-03
 -10.526 -0.516E-03 -0.516E-03
 -10.516 -0.542E-03 -0.542E-03
 -10.506 -0.569E-03 -0.569E-03
 -10.496 -0.597E-03 -0.597E-03
 -10.486 -0.625E-03 -0.625E-03
 -10.476 -0.655E-03 -0.655E-03
 -10.466 -0.685E-03 -0.685E-03
 -10.456 -0.716E-03 -0.716E-03
 -10.446 -0.748E-03 -0.748E-03
 -10.436 -0.781E-03 -0.781E-03
 -10.426 -0.814E-03 -0.814E-03
 -10.416 -0.848E-03 -0.848E-03
 -10.406 -0.883E-03 -0.883E-03
 -10.396 -0.918E-03 -0.918E-03
 -10.386 -0.954E-03 -0.954E-03
 -10.376 -0.991E-03 -0.991E-03
 -10.366 -0.103E-02 -0.103E-02
 -10.356 -0.107E-02 -0.107E-02
 -10.346 -0.110E-02 -0.110E-02
 -10.336 -0.114E-02 -0.114E-02
 -10.326 -0.118E-02 -0.118E-02
 -10.316 -0.122E-02 -0.122E-02
 -10.306 -0.126E-02 -0.126E-02
 -10.296 -0.130E-02 -0.130E-02
 -10.286 -0.134E-02 -0.134E-02
 -10.276 -0.138E-02 -0.138E-02
 -10.266 -0.142E-02 -0.142E-02
 -10.256 -0.146E-02 -0.146E-02
 -10.246 -0.150E-02 -0.150E-02
 -10.236 -0.154E-02 -0.154E-02
 -10.226 -0.158E-02 -0.158E-02
 -10.216 -0.161E-02 -0.161E-02
 -10.206 -0.165E-02 -0.165E-02
 -10.196 -0.169E-02 -0.169E-02
 -10.186 -0.172E-02 -0.172E-02
 -10.176 -0.176E-02 -0.176E-02
 -10.166 -0.179E-02 -0.179E-02
 -10.156 -0.182E-02 -0.182E-02
 -10.146 -0.185E-02 -0.185E-02
 -10.136 -0.187E-02 -0.187E-02
 -10.126 -0.190E-02 -0.190E-02
 -10.116 -0.192E-02 -0.192E-02
 -10.106 -0.194E-02 -0.194E-02
 -10.096 -0.196E-02 -0.196E-02
 -10.086 -0.197E-02 -0.197E-02
 -10.076 -0.198E-02 -0.198E-02
 -10.066 -0.199E-02 -0.199E-02
 -10.056 -0.199E-02 -0.199E-02
 -10.046 -0.199E-02 -0.199E-02
 -10.036 -0.199E-02 -0.199E-02
 -10.026 -0.198E-02 -0.198E-02
 -10.016 -0.196E-02 -0.196E-02
 -10.006 -0.194E-02 -0.194E-02
  -9.996 -0.192E-02 -0.192E-02
  -9.986 -0.189E-02 -0.189E-02
  -9.976 -0.185E-02 -0.185E-02
  -9.966 -0.181E-02 -0.181E-02
  -9.956 -0.176E-02 -0.176E-02
  -9.946 -0.170E-02 -0.170E-02
  -9.936 -0.163E-02 -0.163E-02
  -9.926 -0.156E-02 -0.156E-02
  -9.916 -0.148E-02 -0.148E-02
  -9.906 -0.140E-02 -0.140E-02
  -9.896 -0.130E-02 -0.130E-02
  -9.886 -0.120E-02 -0.120E-02
  -9.876 -0.108E-02 -0.108E-02
  -9.866 -0.958E-03 -0.958E-03
  -9.856 -0.825E-03 -0.825E-03
  -9.846 -0.682E-03 -0.682E-03
  -9.836 -0.529E-03 -0.529E-03
  -9.826 -0.365E-03 -0.365E-03
  -9.816 -0.189E-03 -0.189E-03
  -9.806 -0.323E-05 -0.323E-05
  -9.796  0.194E-03  0.194E-03
  -9.786  0.404E-03  0.404E-03
  -9.776  0.625E-03  0.625E-03
  -9.766  0.859E-03  0.859E-03
  -9.756  0.111E-02  0.111E-02
  -9.746  0.136E-02  0.136E-02
  -9.736  0.164E-02  0.164E-02
  -9.726  0.192E-02  0.192E-02
  -9.716  0.222E-02  0.222E-02
  -9.706  0.253E-02  0.253E-02
  -9.696  0.285E-02  0.285E-02
  -9.686  0.319E-02  0.319E-02
  -9.676  0.354E-02  0.354E-02
  -9.666  0.391E-02  0.391E-02
  -9.656  0.429E-02  0.429E-02
  -9.646  0.468E-02  0.468E-02
  -9.636  0.509E-02  0.509E-02
  -9.626  0.551E-02  0.551E-02
  -9.616  0.595E-02  0.595E-02
  -9.606  0.639E-02  0.639E-02
  -9.596  0.686E-02  0.686E-02
  -9.586  0.733E-02  0.733E-02
  -9.576  0.782E-02  0.782E-02
  -9.566  0.832E-02  0.832E-02
  -9.556  0.884E-02  0.884E-02
  -9.546  0.936E-02  0.936E-02
  -9.536  0.990E-02  0.990E-02
  -9.526  0.105E-01  0.105E-01
  -9.516  0.110E-01  0.110E-01
  -9.506  0.116E-01  0.116E-01
  -9.496  0.122E-01  0.122E-01
  -9.486  0.128E-01  0.128E-01
  -9.476  0.134E-01  0.134E-01
  -9.466  0.140E-01  0.140E-01
  -9.456  0.146E-01  0.146E-01
  -9.446  0.153E-01  0.153E-01
  -9.436  0.159E-01  0.159E-01
  -9.426  0.166E-01  0.166E-01
  -9.416  0.172E-01  0.172E-01
  -9.406  0.179E-01  0.179E-01
  -9.396  0.185E-01  0.185E-01
  -9.386  0.192E-01  0.192E-01
  -9.376  0.199E-01  0.199E-01
  -9.366  0.206E-01  0.206E-01
  -9.356  0.213E-01  0.213E-01
  -9.346  0.219E-01  0.219E-01
  -9.336  0.226E-01  0.226E-01
  -9.326  0.233E-01  0.233E-01
  -9.316  0.240E-01  0.240E-01
  -9.306  0.247E-01  0.247E-01
  -9.296  0.254E-01  0.254E-01
  -9.286  0.261E-01  0.261E-01
  -9.276  0.267E-01  0.267E-01
  -9.266  0.274E-01  0.274E-01
  -9.256  0.281E-01  0.281E-01
  -9.246  0.287E-01  0.287E-01
  -9.236  0.294E-01  0.294E-01
  -9.226  0.300E-01  0.300E-01
  -9.216  0.307E-01  0.307E-01
  -9.206  0.313E-01  0.313E-01
  -9.196  0.319E-01  0.319E-01
  -9.186  0.325E-01  0.325E-01
  -9.176  0.331E-01  0.331E-01
  -9.166  0.337E-01  0.337E-01
  -9.156  0.343E-01  0.343E-01
  -9.146  0.348E-01  0.348E-01
  -9.136  0.354E-01  0.354E-01
  -9.126  0.359E-01  0.359E-01
  -9.116  0.364E-01  0.364E-01
  -9.106  0.369E-01  0.369E-01
  -9.096  0.374E-01  0.374E-01
  -9.086  0.378E-01  0.378E-01
  -9.076  0.382E-01  0.382E-01
  -9.066  0.386E-01  0.386E-01
  -9.056  0.390E-01  0.390E-01
  -9.046  0.394E-01  0.394E-01
  -9.036  0.398E-01  0.398E-01
  -9.026  0.401E-01  0.401E-01
  -9.016  0.404E-01  0.404E-01
  -9.006  0.407E-01  0.407E-01
  -8.996  0.409E-01  0.409E-01
  -8.986  0.412E-01  0.412E-01
  -8.976  0.414E-01  0.414E-01
  -8.966  0.416E-01  0.416E-01
  -8.956  0.418E-01  0.418E-01
  -8.946  0.419E-01  0.419E-01
  -8.936  0.420E-01  0.420E-01
  -8.926  0.421E-01  0.421E-01
  -8.916  0.422E-01  0.422E-01
  -8.906  0.423E-01  0.423E-01
  -8.896  0.423E-01  0.423E-01
  -8.886  0.423E-01  0.423E-01
  -8.876  0.423E-01  0.423E-01
  -8.866  0.422E-01  0.422E-01
  -8.856  0.422E-01  0.422E-01
  -8.846  0.421E-01  0.421E-01
  -8.836  0.420E-01  0.420E-01
  -8.826  0.419E-01  0.419E-01
  -8.816  0.417E-01  0.417E-01
  -8.806  0.415E-01  0.415E-01
  -8.796  0.413E-01  0.413E-01
  -8.786  0.411E-01  0.411E-01
  -8.776  0.409E-01  0.409E-01
  -8.766  0.407E-01  0.407E-01
  -8.756  0.404E-01  0.404E-01
  -8.746  0.401E-01  0.401E-01
  -8.736  0.398E-01  0.398E-01
  -8.726  0.395E-01  0.395E-01
  -8.716  0.392E-01  0.392E-01
  -8.706  0.388E-01  0.388E-01
  -8.696  0.385E-01  0.385E-01
  -8.686  0.381E-01  0.381E-01
  -8.676  0.377E-01  0.377E-01
  -8.666  0.373E-01  0.373E-01
  -8.656  0.369E-01  0.369E-01
  -8.646  0.365E-01  0.365E-01
  -8.636  0.361E-01  0.361E-01
  -8.626  0.357E-01  0.357E-01
  -8.616  0.352E-01  0.352E-01
  -8.606  0.348E-01  0.348E-01
  -8.596  0.343E-01  0.343E-01
  -8.586  0.339E-01  0.339E-01
  -8.576  0.334E-01  0.334E-01
  -8.566  0.330E-01  0.330E-01
  -8.556  0.325E-01  0.325E-01
  -8.546  0.320E-01  0.320E-01
  -8.536  0.316E-01  0.316E-01
  -8.526  0.311E-01  0.311E-01
  -8.516  0.306E-01  0.306E-01
  -8.506  0.302E-01  0.302E-01
  -8.496  0.297E-01  0.297E-01
  -8.486  0.292E-01  0.292E-01
  -8.476  0.288E-01  0.288E-01
  -8.466  0.283E-01  0.283E-01
  -8.456  0.279E-01  0.279E-01
  -8.446  0.274E-01  0.274E-01
  -8.436  0.270E-01  0.270E-01
  -8.426  0.266E-01  0.266E-01
  -8.416  0.261E-01  0.261E-01
  -8.406  0.257E-01  0.257E-01
  -8.396  0.253E-01  0.253E-01
  -8.386  0.249E-01  0.249E-01
  -8.376  0.245E-01  0.245E-01
  -8.366  0.241E-01  0.241E-01
  -8.356  0.237E-01  0.237E-01
  -8.346  0.234E-01  0.234E-01
  -8.336  0.230E-01  0.230E-01
  -8.326  0.227E-01  0.227E-01
  -8.316  0.223E-01  0.223E-01
  -8.306  0.220E-01  0.220E-01
  -8.296  0.217E-01  0.217E-01
  -8.286  0.214E-01  0.214E-01
  -8.276  0.211E-01  0.211E-01
  -8.266  0.209E-01  0.209E-01
  -8.256  0.206E-01  0.206E-01
  -8.246  0.203E-01  0.203E-01
  -8.236  0.201E-01  0.201E-01
  -8.226  0.199E-01  0.199E-01
  -8.216  0.197E-01  0.197E-01
  -8.206  0.195E-01  0.195E-01
  -8.196  0.193E-01  0.193E-01
  -8.186  0.191E-01  0.191E-01
  -8.176  0.190E-01  0.190E-01
  -8.166  0.188E-01  0.188E-01
  -8.156  0.187E-01  0.187E-01
  -8.146  0.186E-01  0.186E-01
  -8.136  0.185E-01  0.185E-01
  -8.126  0.184E-01  0.184E-01
  -8.116  0.183E-01  0.183E-01
  -8.106  0.183E-01  0.183E-01
  -8.096  0.182E-01  0.182E-01
  -8.086  0.182E-01  0.182E-01
  -8.076  0.182E-01  0.182E-01
  -8.066  0.181E-01  0.181E-01
  -8.056  0.181E-01  0.181E-01
  -8.046  0.182E-01  0.182E-01
  -8.036  0.182E-01  0.182E-01
  -8.026  0.182E-01  0.182E-01
  -8.016  0.183E-01  0.183E-01
  -8.006  0.184E-01  0.184E-01
  -7.996  0.184E-01  0.184E-01
  -7.986  0.185E-01  0.185E-01
  -7.976  0.186E-01  0.186E-01
  -7.966  0.187E-01  0.187E-01
  -7.956  0.189E-01  0.189E-01
  -7.946  0.190E-01  0.190E-01
  -7.936  0.191E-01  0.191E-01
  -7.926  0.193E-01  0.193E-01
  -7.916  0.195E-01  0.195E-01
  -7.906  0.196E-01  0.196E-01
  -7.896  0.198E-01  0.198E-01
  -7.886  0.200E-01  0.200E-01
  -7.876  0.202E-01  0.202E-01
  -7.866  0.204E-01  0.204E-01
  -7.856  0.206E-01  0.206E-01
  -7.846  0.208E-01  0.208E-01
  -7.836  0.211E-01  0.211E-01
  -7.826  0.213E-01  0.213E-01
  -7.816  0.216E-01  0.216E-01
  -7.806  0.218E-01  0.218E-01
  -7.796  0.221E-01  0.221E-01
  -7.786  0.223E-01  0.223E-01
  -7.776  0.226E-01  0.226E-01
  -7.766  0.229E-01  0.229E-01
  -7.756  0.231E-01  0.231E-01
  -7.746  0.234E-01  0.234E-01
  -7.736  0.237E-01  0.237E-01
  -7.726  0.240E-01  0.240E-01
  -7.716  0.243E-01  0.243E-01
  -7.706  0.246E-01  0.246E-01
  -7.696  0.248E-01  0.248E-01
  -7.686  0.251E-01  0.251E-01
  -7.676  0.254E-01  0.254E-01
  -7.666  0.257E-01  0.257E-01
  -7.656  0.260E-01  0.260E-01
  -7.646  0.263E-01  0.263E-01
  -7.636  0.266E-01  0.266E-01
  -7.626  0.269E-01  0.269E-01
  -7.616  0.272E-01  0.272E-01
  -7.606  0.274E-01  0.274E-01
  -7.596  0.277E-01  0.277E-01
  -7.586  0.280E-01  0.280E-01
  -7.576  0.283E-01  0.283E-01
  -7.566  0.285E-01  0.285E-01
  -7.556  0.288E-01  0.288E-01
  -7.546  0.290E-01  0.290E-01
  -7.536  0.293E-01  0.293E-01
  -7.526  0.295E-01  0.295E-01
  -7.516  0.298E-01  0.298E-01
  -7.506  0.300E-01  0.300E-01
  -7.496  0.302E-01  0.302E-01
  -7.486  0.304E-01  0.304E-01
  -7.476  0.306E-01  0.306E-01
  -7.466  0.308E-01  0.308E-01
  -7.456  0.310E-01  0.310E-01
  -7.446  0.312E-01  0.312E-01
  -7.436  0.313E-01  0.313E-01
  -7.426  0.315E-01  0.315E-01
  -7.416  0.316E-01  0.316E-01
  -7.406  0.317E-01  0.317E-01
  -7.396  0.319E-01  0.319E-01
  -7.386  0.320E-01  0.320E-01
  -7.376  0.320E-01  0.320E-01
  -7.366  0.321E-01  0.321E-01
  -7.356  0.322E-01  0.322E-01
  -7.346  0.322E-01  0.322E-01
  -7.336  0.323E-01  0.323E-01
  -7.326  0.323E-01  0.323E-01
  -7.316  0.323E-01  0.323E-01
  -7.306  0.323E-01  0.323E-01
  -7.296  0.323E-01  0.323E-01
  -7.286  0.323E-01  0.323E-01
  -7.276  0.322E-01  0.322E-01
  -7.266  0.321E-01  0.321E-01
  -7.256  0.321E-01  0.321E-01
  -7.246  0.320E-01  0.320E-01
  -7.236  0.319E-01  0.319E-01
  -7.226  0.318E-01  0.318E-01
  -7.216  0.316E-01  0.316E-01
  -7.206  0.315E-01  0.315E-01
  -7.196  0.313E-01  0.313E-01
  -7.186  0.311E-01  0.311E-01
  -7.176  0.309E-01  0.309E-01
  -7.166  0.307E-01  0.307E-01
  -7.156  0.305E-01  0.305E-01
  -7.146  0.302E-01  0.302E-01
  -7.136  0.300E-01  0.300E-01
  -7.126  0.297E-01  0.297E-01
  -7.116  0.295E-01  0.295E-01
  -7.106  0.292E-01  0.292E-01
  -7.096  0.289E-01  0.289E-01
  -7.086  0.285E-01  0.285E-01
  -7.076  0.282E-01  0.282E-01
  -7.066  0.279E-01  0.279E-01
  -7.056  0.275E-01  0.275E-01
  -7.046  0.271E-01  0.271E-01
  -7.036  0.268E-01  0.268E-01
  -7.026  0.264E-01  0.264E-01
  -7.016  0.260E-01  0.260E-01
  -7.006  0.256E-01  0.256E-01
  -6.996  0.252E-01  0.252E-01
  -6.986  0.247E-01  0.247E-01
  -6.976  0.243E-01  0.243E-01
  -6.966  0.239E-01  0.239E-01
  -6.956  0.234E-01  0.234E-01
  -6.946  0.230E-01  0.230E-01
  -6.936  0.225E-01  0.225E-01
  -6.926  0.220E-01  0.220E-01
  -6.916  0.216E-01  0.216E-01
  -6.906  0.211E-01  0.211E-01
  -6.896  0.206E-01  0.206E-01
  -6.886  0.202E-01  0.202E-01
  -6.876  0.197E-01  0.197E-01
  -6.866  0.192E-01  0.192E-01
  -6.856  0.187E-01  0.187E-01
  -6.846  0.182E-01  0.182E-01
  -6.836  0.178E-01  0.178E-01
  -6.826  0.173E-01  0.173E-01
  -6.816  0.168E-01  0.168E-01
  -6.806  0.163E-01  0.163E-01
  -6.796  0.159E-01  0.159E-01
  -6.786  0.154E-01  0.154E-01
  -6.776  0.150E-01  0.150E-01
  -6.766  0.145E-01  0.145E-01
  -6.756  0.141E-01  0.141E-01
  -6.746  0.136E-01  0.136E-01
  -6.736  0.132E-01  0.132E-01
  -6.726  0.128E-01  0.128E-01
  -6.716  0.124E-01  0.124E-01
  -6.706  0.120E-01  0.120E-01
  -6.696  0.116E-01  0.116E-01
  -6.686  0.112E-01  0.112E-01
  -6.676  0.108E-01  0.108E-01
  -6.666  0.105E-01  0.105E-01
  -6.656  0.101E-01  0.101E-01
  -6.646  0.981E-02  0.981E-02
  -6.636  0.951E-02  0.951E-02
  -6.626  0.921E-02  0.921E-02
  -6.616  0.894E-02  0.894E-02
  -6.606  0.868E-02  0.868E-02
  -6.596  0.843E-02  0.843E-02
  -6.586  0.821E-02  0.821E-02
  -6.576  0.800E-02  0.800E-02
  -6.566  0.781E-02  0.781E-02
  -6.556  0.765E-02  0.765E-02
  -6.546  0.750E-02  0.750E-02
  -6.536  0.737E-02  0.737E-02
  -6.526  0.726E-02  0.726E-02
  -6.516  0.718E-02  0.718E-02
  -6.506  0.712E-02  0.712E-02
  -6.496  0.707E-02  0.707E-02
  -6.486  0.705E-02  0.705E-02
  -6.476  0.705E-02  0.705E-02
  -6.466  0.708E-02  0.708E-02
  -6.456  0.713E-02  0.713E-02
  -6.446  0.720E-02  0.720E-02
  -6.436  0.729E-02  0.729E-02
  -6.426  0.740E-02  0.740E-02
  -6.416  0.754E-02  0.754E-02
  -6.406  0.771E-02  0.771E-02
  -6.396  0.789E-02  0.789E-02
  -6.386  0.810E-02  0.810E-02
  -6.376  0.833E-02  0.833E-02
  -6.366  0.858E-02  0.858E-02
  -6.356  0.886E-02  0.886E-02
  -6.346  0.916E-02  0.916E-02
  -6.336  0.948E-02  0.948E-02
  -6.326  0.982E-02  0.982E-02
  -6.316  0.102E-01  0.102E-01
  -6.306  0.106E-01  0.106E-01
  -6.296  0.110E-01  0.110E-01
  -6.286  0.114E-01  0.114E-01
  -6.276  0.118E-01  0.118E-01
  -6.266  0.123E-01  0.123E-01
  -6.256  0.128E-01  0.128E-01
  -6.246  0.133E-01  0.133E-01
  -6.236  0.138E-01  0.138E-01
  -6.226  0.143E-01  0.143E-01
  -6.216  0.149E-01  0.149E-01
  -6.206  0.154E-01  0.154E-01
  -6.196  0.160E-01  0.160E-01
  -6.186  0.166E-01  0.166E-01
  -6.176  0.172E-01  0.172E-01
  -6.166  0.178E-01  0.178E-01
  -6.156  0.184E-01  0.184E-01
  -6.146  0.190E-01  0.190E-01
  -6.136  0.197E-01  0.197E-01
  -6.126  0.203E-01  0.203E-01
  -6.116  0.210E-01  0.210E-01
  -6.106  0.216E-01  0.216E-01
  -6.096  0.223E-01  0.223E-01
  -6.086  0.229E-01  0.229E-01
  -6.076  0.236E-01  0.236E-01
  -6.066  0.243E-01  0.243E-01
  -6.056  0.249E-01  0.249E-01
  -6.046  0.256E-01  0.256E-01
  -6.036  0.263E-01  0.263E-01
  -6.026  0.269E-01  0.269E-01
  -6.016  0.276E-01  0.276E-01
  -6.006  0.282E-01  0.282E-01
  -5.996  0.289E-01  0.289E-01
  -5.986  0.295E-01  0.295E-01
  -5.976  0.301E-01  0.301E-01
  -5.966  0.307E-01  0.307E-01
  -5.956  0.313E-01  0.313E-01
  -5.946  0.319E-01  0.319E-01
  -5.936  0.325E-01  0.325E-01
  -5.926  0.331E-01  0.331E-01
  -5.916  0.336E-01  0.336E-01
  -5.906  0.341E-01  0.341E-01
  -5.896  0.346E-01  0.346E-01
  -5.886  0.351E-01  0.351E-01
  -5.876  0.356E-01  0.356E-01
  -5.866  0.361E-01  0.361E-01
  -5.856  0.365E-01  0.365E-01
  -5.846  0.370E-01  0.370E-01
  -5.836  0.374E-01  0.374E-01
  -5.826  0.377E-01  0.377E-01
  -5.816  0.381E-01  0.381E-01
  -5.806  0.384E-01  0.384E-01
  -5.796  0.388E-01  0.388E-01
  -5.786  0.391E-01  0.391E-01
  -5.776  0.393E-01  0.393E-01
  -5.766  0.396E-01  0.396E-01
  -5.756  0.398E-01  0.398E-01
  -5.746  0.400E-01  0.400E-01
  -5.736  0.402E-01  0.402E-01
  -5.726  0.403E-01  0.403E-01
  -5.716  0.405E-01  0.405E-01
  -5.706  0.406E-01  0.406E-01
  -5.696  0.407E-01  0.407E-01
  -5.686  0.407E-01  0.407E-01
  -5.676  0.408E-01  0.408E-01
  -5.666  0.408E-01  0.408E-01
  -5.656  0.408E-01  0.408E-01
  -5.646  0.408E-01  0.408E-01
  -5.636  0.408E-01  0.408E-01
  -5.626  0.407E-01  0.407E-01
  -5.616  0.407E-01  0.407E-01
  -5.606  0.406E-01  0.406E-01
  -5.596  0.405E-01  0.405E-01
  -5.586  0.404E-01  0.404E-01
  -5.576  0.402E-01  0.402E-01
  -5.566  0.401E-01  0.401E-01
  -5.556  0.399E-01  0.399E-01
  -5.546  0.398E-01  0.398E-01
  -5.536  0.396E-01  0.396E-01
  -5.526  0.394E-01  0.394E-01
  -5.516  0.392E-01  0.392E-01
  -5.506  0.390E-01  0.390E-01
  -5.496  0.388E-01  0.388E-01
  -5.486  0.386E-01  0.386E-01
  -5.476  0.384E-01  0.384E-01
  -5.466  0.382E-01  0.382E-01
  -5.456  0.380E-01  0.380E-01
  -5.446  0.378E-01  0.378E-01
  -5.436  0.376E-01  0.376E-01
  -5.426  0.374E-01  0.374E-01
  -5.416  0.372E-01  0.372E-01
  -5.406  0.370E-01  0.370E-01
  -5.396  0.368E-01  0.368E-01
  -5.386  0.367E-01  0.367E-01
  -5.376  0.365E-01  0.365E-01
  -5.366  0.364E-01  0.364E-01
  -5.356  0.362E-01  0.362E-01
  -5.346  0.361E-01  0.361E-01
  -5.336  0.360E-01  0.360E-01
  -5.326  0.360E-01  0.360E-01
  -5.316  0.359E-01  0.359E-01
  -5.306  0.359E-01  0.359E-01
  -5.296  0.359E-01  0.359E-01
  -5.286  0.359E-01  0.359E-01
  -5.276  0.359E-01  0.359E-01
  -5.266  0.360E-01  0.360E-01
  -5.256  0.361E-01  0.361E-01
  -5.246  0.362E-01  0.362E-01
  -5.236  0.363E-01  0.363E-01
  -5.226  0.365E-01  0.365E-01
  -5.216  0.367E-01  0.367E-01
  -5.206  0.369E-01  0.369E-01
  -5.196  0.372E-01  0.372E-01
  -5.186  0.375E-01  0.375E-01
  -5.176  0.378E-01  0.378E-01
  -5.166  0.382E-01  0.382E-01
  -5.156  0.386E-01  0.386E-01
  -5.146  0.390E-01  0.390E-01
  -5.136  0.395E-01  0.395E-01
  -5.126  0.400E-01  0.400E-01
  -5.116  0.405E-01  0.405E-01
  -5.106  0.411E-01  0.411E-01
  -5.096  0.417E-01  0.417E-01
  -5.086  0.423E-01  0.423E-01
  -5.076  0.430E-01  0.430E-01
  -5.066  0.437E-01  0.437E-01
  -5.056  0.444E-01  0.444E-01
  -5.046  0.452E-01  0.452E-01
  -5.036  0.460E-01  0.460E-01
  -5.026  0.469E-01  0.469E-01
  -5.016  0.477E-01  0.477E-01
  -5.006  0.486E-01  0.486E-01
  -4.996  0.496E-01  0.496E-01
  -4.986  0.505E-01  0.505E-01
  -4.976  0.515E-01  0.515E-01
  -4.966  0.526E-01  0.526E-01
  -4.956  0.536E-01  0.536E-01
  -4.946  0.547E-01  0.547E-01
  -4.936  0.558E-01  0.558E-01
  -4.926  0.570E-01  0.570E-01
  -4.916  0.581E-01  0.581E-01
  -4.906  0.593E-01  0.593E-01
  -4.896  0.605E-01  0.605E-01
  -4.886  0.617E-01  0.617E-01
  -4.876  0.630E-01  0.630E-01
  -4.866  0.642E-01  0.642E-01
  -4.856  0.655E-01  0.655E-01
  -4.846  0.668E-01  0.668E-01
  -4.836  0.681E-01  0.681E-01
  -4.826  0.694E-01  0.694E-01
  -4.816  0.707E-01  0.707E-01
  -4.806  0.721E-01  0.721E-01
  -4.796  0.734E-01  0.734E-01
  -4.786  0.747E-01  0.747E-01
  -4.776  0.761E-01  0.761E-01
  -4.766  0.774E-01  0.774E-01
  -4.756  0.788E-01  0.788E-01
  -4.746  0.801E-01  0.801E-01
  -4.736  0.815E-01  0.815E-01
  -4.726  0.828E-01  0.828E-01
  -4.716  0.841E-01  0.841E-01
  -4.706  0.855E-01  0.855E-01
  -4.696  0.868E-01  0.868E-01
  -4.686  0.881E-01  0.881E-01
  -4.676  0.893E-01  0.893E-01
  -4.666  0.906E-01  0.906E-01
  -4.656  0.919E-01  0.919E-01
  -4.646  0.931E-01  0.931E-01
  -4.636  0.943E-01  0.943E-01
  -4.626  0.955E-01  0.955E-01
  -4.616  0.966E-01  0.966E-01
  -4.606  0.978E-01  0.978E-01
  -4.596  0.989E-01  0.989E-01
  -4.586  0.100E+00  0.100E+00
  -4.576  0.101E+00  0.101E+00
  -4.566  0.102E+00  0.102E+00
  -4.556  0.103E+00  0.103E+00
  -4.546  0.104E+00  0.104E+00
  -4.536  0.105E+00  0.105E+00
  -4.526  0.106E+00  0.106E+00
  -4.516  0.107E+00  0.107E+00
  -4.506  0.107E+00  0.107E+00
  -4.496  0.108E+00  0.108E+00
  -4.486  0.109E+00  0.109E+00
  -4.476  0.110E+00  0.110E+00
  -4.466  0.110E+00  0.110E+00
  -4.456  0.111E+00  0.111E+00
  -4.446  0.111E+00  0.111E+00
  -4.436  0.112E+00  0.112E+00
  -4.426  0.112E+00  0.112E+00
  -4.416  0.113E+00  0.113E+00
  -4.406  0.113E+00  0.113E+00
  -4.396  0.113E+00  0.113E+00
  -4.386  0.114E+00  0.114E+00
  -4.376  0.114E+00  0.114E+00
  -4.366  0.114E+00  0.114E+00
  -4.356  0.114E+00  0.114E+00
  -4.346  0.114E+00  0.114E+00
  -4.336  0.114E+00  0.114E+00
  -4.326  0.114E+00  0.114E+00
  -4.316  0.114E+00  0.114E+00
  -4.306  0.114E+00  0.114E+00
  -4.296  0.114E+00  0.114E+00
  -4.286  0.114E+00  0.114E+00
  -4.276  0.114E+00  0.114E+00
  -4.266  0.113E+00  0.113E+00
  -4.256  0.113E+00  0.113E+00
  -4.246  0.113E+00  0.113E+00
  -4.236  0.112E+00  0.112E+00
  -4.226  0.112E+00  0.112E+00
  -4.216  0.111E+00  0.111E+00
  -4.206  0.111E+00  0.111E+00
  -4.196  0.110E+00  0.110E+00
  -4.186  0.110E+00  0.110E+00
  -4.176  0.109E+00  0.109E+00
  -4.166  0.108E+00  0.108E+00
  -4.156  0.108E+00  0.108E+00
  -4.146  0.107E+00  0.107E+00
  -4.136  0.106E+00  0.106E+00
  -4.126  0.105E+00  0.105E+00
  -4.116  0.104E+00  0.104E+00
  -4.106  0.103E+00  0.103E+00
  -4.096  0.103E+00  0.103E+00
  -4.086  0.102E+00  0.102E+00
  -4.076  0.101E+00  0.101E+00
  -4.066  0.996E-01  0.996E-01
  -4.056  0.986E-01  0.986E-01
  -4.046  0.976E-01  0.976E-01
  -4.036  0.965E-01  0.965E-01
  -4.026  0.954E-01  0.954E-01
  -4.016  0.943E-01  0.943E-01
  -4.006  0.932E-01  0.932E-01
  -3.996  0.920E-01  0.920E-01
  -3.986  0.909E-01  0.909E-01
  -3.976  0.897E-01  0.897E-01
  -3.966  0.886E-01  0.886E-01
  -3.956  0.874E-01  0.874E-01
  -3.946  0.862E-01  0.862E-01
  -3.936  0.850E-01  0.850E-01
  -3.926  0.838E-01  0.838E-01
  -3.916  0.826E-01  0.826E-01
  -3.906  0.813E-01  0.813E-01
  -3.896  0.801E-01  0.801E-01
  -3.886  0.789E-01  0.789E-01
  -3.876  0.777E-01  0.777E-01
  -3.866  0.765E-01  0.765E-01
  -3.856  0.753E-01  0.753E-01
  -3.846  0.741E-01  0.741E-01
  -3.836  0.728E-01  0.728E-01
  -3.826  0.716E-01  0.716E-01
  -3.816  0.705E-01  0.705E-01
  -3.806  0.693E-01  0.693E-01
  -3.796  0.681E-01  0.681E-01
  -3.786  0.669E-01  0.669E-01
  -3.776  0.658E-01  0.658E-01
  -3.766  0.647E-01  0.647E-01
  -3.756  0.635E-01  0.635E-01
  -3.746  0.624E-01  0.624E-01
  -3.736  0.613E-01  0.613E-01
  -3.726  0.603E-01  0.603E-01
  -3.716  0.592E-01  0.592E-01
  -3.706  0.582E-01  0.582E-01
  -3.696  0.572E-01  0.572E-01
  -3.686  0.562E-01  0.562E-01
  -3.676  0.552E-01  0.552E-01
  -3.666  0.543E-01  0.543E-01
  -3.656  0.533E-01  0.533E-01
  -3.646  0.524E-01  0.524E-01
  -3.636  0.516E-01  0.516E-01
  -3.626  0.507E-01  0.507E-01
  -3.616  0.499E-01  0.499E-01
  -3.606  0.491E-01  0.491E-01
  -3.596  0.483E-01  0.483E-01
  -3.586  0.476E-01  0.476E-01
  -3.576  0.469E-01  0.469E-01
  -3.566  0.462E-01  0.462E-01
  -3.556  0.455E-01  0.455E-01
  -3.546  0.449E-01  0.449E-01
  -3.536  0.443E-01  0.443E-01
  -3.526  0.438E-01  0.438E-01
  -3.516  0.433E-01  0.433E-01
  -3.506  0.428E-01  0.428E-01
  -3.496  0.423E-01  0.423E-01
  -3.486  0.419E-01  0.419E-01
  -3.476  0.415E-01  0.415E-01
  -3.466  0.412E-01  0.412E-01
  -3.456  0.409E-01  0.409E-01
  -3.446  0.406E-01  0.406E-01
  -3.436  0.404E-01  0.404E-01
  -3.426  0.402E-01  0.402E-01
  -3.416  0.400E-01  0.400E-01
  -3.406  0.399E-01  0.399E-01
  -3.396  0.398E-01  0.398E-01
  -3.386  0.398E-01  0.398E-01
  -3.376  0.398E-01  0.398E-01
  -3.366  0.398E-01  0.398E-01
  -3.356  0.398E-01  0.398E-01
  -3.346  0.400E-01  0.400E-01
  -3.336  0.401E-01  0.401E-01
  -3.326  0.403E-01  0.403E-01
  -3.316  0.405E-01  0.405E-01
  -3.306  0.408E-01  0.408E-01
  -3.296  0.410E-01  0.410E-01
  -3.286  0.414E-01  0.414E-01
  -3.276  0.417E-01  0.417E-01
  -3.266  0.422E-01  0.422E-01
  -3.256  0.426E-01  0.426E-01
  -3.246  0.431E-01  0.431E-01
  -3.236  0.436E-01  0.436E-01
  -3.226  0.441E-01  0.441E-01
  -3.216  0.447E-01  0.447E-01
  -3.206  0.453E-01  0.453E-01
  -3.196  0.460E-01  0.460E-01
  -3.186  0.467E-01  0.467E-01
  -3.176  0.474E-01  0.474E-01
  -3.166  0.481E-01  0.481E-01
  -3.156  0.489E-01  0.489E-01
  -3.146  0.497E-01  0.497E-01
  -3.136  0.505E-01  0.505E-01
  -3.126  0.514E-01  0.514E-01
  -3.116  0.522E-01  0.522E-01
  -3.106  0.531E-01  0.531E-01
  -3.096  0.541E-01  0.541E-01
  -3.086  0.550E-01  0.550E-01
  -3.076  0.560E-01  0.560E-01
  -3.066  0.569E-01  0.569E-01
  -3.056  0.579E-01  0.579E-01
  -3.046  0.590E-01  0.590E-01
  -3.036  0.600E-01  0.600E-01
  -3.026  0.610E-01  0.610E-01
  -3.016  0.621E-01  0.621E-01
  -3.006  0.632E-01  0.632E-01
  -2.996  0.642E-01  0.642E-01
  -2.986  0.653E-01  0.653E-01
  -2.976  0.664E-01  0.664E-01
  -2.966  0.675E-01  0.675E-01
  -2.956  0.686E-01  0.686E-01
  -2.946  0.697E-01  0.697E-01
  -2.936  0.708E-01  0.708E-01
  -2.926  0.719E-01  0.719E-01
  -2.916  0.729E-01  0.729E-01
  -2.906  0.740E-01  0.740E-01
  -2.896  0.751E-01  0.751E-01
  -2.886  0.762E-01  0.762E-01
  -2.876  0.772E-01  0.772E-01
  -2.866  0.782E-01  0.782E-01
  -2.856  0.793E-01  0.793E-01
  -2.846  0.803E-01  0.803E-01
  -2.836  0.813E-01  0.813E-01
  -2.826  0.822E-01  0.822E-01
  -2.816  0.832E-01  0.832E-01
  -2.806  0.841E-01  0.841E-01
  -2.796  0.851E-01  0.851E-01
  -2.786  0.859E-01  0.859E-01
  -2.776  0.868E-01  0.868E-01
  -2.766  0.877E-01  0.877E-01
  -2.756  0.885E-01  0.885E-01
  -2.746  0.893E-01  0.893E-01
  -2.736  0.900E-01  0.900E-01
  -2.726  0.907E-01  0.907E-01
  -2.716  0.914E-01  0.914E-01
  -2.706  0.921E-01  0.921E-01
  -2.696  0.927E-01  0.927E-01
  -2.686  0.933E-01  0.933E-01
  -2.676  0.939E-01  0.939E-01
  -2.666  0.944E-01  0.944E-01
  -2.656  0.949E-01  0.949E-01
  -2.646  0.954E-01  0.954E-01
  -2.636  0.958E-01  0.958E-01
  -2.626  0.962E-01  0.962E-01
  -2.616  0.966E-01  0.966E-01
  -2.606  0.969E-01  0.969E-01
  -2.596  0.972E-01  0.972E-01
  -2.586  0.974E-01  0.974E-01
  -2.576  0.976E-01  0.976E-01
  -2.566  0.978E-01  0.978E-01
  -2.556  0.980E-01  0.980E-01
  -2.546  0.981E-01  0.981E-01
  -2.536  0.981E-01  0.981E-01
  -2.526  0.982E-01  0.982E-01
  -2.516  0.982E-01  0.982E-01
  -2.506  0.981E-01  0.981E-01
  -2.496  0.981E-01  0.981E-01
  -2.486  0.980E-01  0.980E-01
  -2.476  0.978E-01  0.978E-01
  -2.466  0.977E-01  0.977E-01
  -2.456  0.975E-01  0.975E-01
  -2.446  0.973E-01  0.973E-01
  -2.436  0.970E-01  0.970E-01
  -2.426  0.967E-01  0.967E-01
  -2.416  0.964E-01  0.964E-01
  -2.406  0.961E-01  0.961E-01
  -2.396  0.957E-01  0.957E-01
  -2.386  0.953E-01  0.953E-01
  -2.376  0.949E-01  0.949E-01
  -2.366  0.944E-01  0.944E-01
  -2.356  0.939E-01  0.939E-01
  -2.346  0.935E-01  0.935E-01
  -2.336  0.929E-01  0.929E-01
  -2.326  0.924E-01  0.924E-01
  -2.316  0.918E-01  0.918E-01
  -2.306  0.913E-01  0.913E-01
  -2.296  0.907E-01  0.907E-01
  -2.286  0.901E-01  0.901E-01
  -2.276  0.894E-01  0.894E-01
  -2.266  0.888E-01  0.888E-01
  -2.256  0.881E-01  0.881E-01
  -2.246  0.874E-01  0.874E-01
  -2.236  0.868E-01  0.868E-01
  -2.226  0.861E-01  0.861E-01
  -2.216  0.853E-01  0.853E-01
  -2.206  0.846E-01  0.846E-01
  -2.196  0.839E-01  0.839E-01
  -2.186  0.832E-01  0.832E-01
  -2.176  0.824E-01  0.824E-01
  -2.166  0.817E-01  0.817E-01
  -2.156  0.809E-01  0.809E-01
  -2.146  0.801E-01  0.801E-01
  -2.136  0.794E-01  0.794E-01
  -2.126  0.786E-01  0.786E-01
  -2.116  0.778E-01  0.778E-01
  -2.106  0.770E-01  0.770E-01
  -2.096  0.762E-01  0.762E-01
  -2.086  0.754E-01  0.754E-01
  -2.076  0.746E-01  0.746E-01
  -2.066  0.739E-01  0.739E-01
  -2.056  0.731E-01  0.731E-01
  -2.046  0.723E-01  0.723E-01
  -2.036  0.715E-01  0.715E-01
  -2.026  0.707E-01  0.707E-01
  -2.016  0.699E-01  0.699E-01
  -2.006  0.691E-01  0.691E-01
  -1.996  0.684E-01  0.684E-01
  -1.986  0.676E-01  0.676E-01
  -1.976  0.668E-01  0.668E-01
  -1.966  0.661E-01  0.661E-01
  -1.956  0.653E-01  0.653E-01
  -1.946  0.645E-01  0.645E-01
  -1.936  0.638E-01  0.638E-01
  -1.926  0.630E-01  0.630E-01
  -1.916  0.623E-01  0.623E-01
  -1.906  0.616E-01  0.616E-01
  -1.896  0.609E-01  0.609E-01
  -1.886  0.601E-01  0.601E-01
  -1.876  0.594E-01  0.594E-01
  -1.866  0.587E-01  0.587E-01
  -1.856  0.580E-01  0.580E-01
  -1.846  0.574E-01  0.574E-01
  -1.836  0.567E-01  0.567E-01
  -1.826  0.560E-01  0.560E-01
  -1.816  0.554E-01  0.554E-01
  -1.806  0.547E-01  0.547E-01
  -1.796  0.541E-01  0.541E-01
  -1.786  0.535E-01  0.535E-01
  -1.776  0.529E-01  0.529E-01
  -1.766  0.523E-01  0.523E-01
  -1.756  0.517E-01  0.517E-01
  -1.746  0.511E-01  0.511E-01
  -1.736  0.506E-01  0.506E-01
  -1.726  0.500E-01  0.500E-01
  -1.716  0.495E-01  0.495E-01
  -1.706  0.490E-01  0.490E-01
  -1.696  0.485E-01  0.485E-01
  -1.686  0.480E-01  0.480E-01
  -1.676  0.475E-01  0.475E-01
  -1.666  0.470E-01  0.470E-01
  -1.656  0.465E-01  0.465E-01
  -1.646  0.461E-01  0.461E-01
  -1.636  0.457E-01  0.457E-01
  -1.626  0.453E-01  0.453E-01
  -1.616  0.449E-01  0.449E-01
  -1.606  0.445E-01  0.445E-01
  -1.596  0.441E-01  0.441E-01
  -1.586  0.437E-01  0.437E-01
  -1.576  0.434E-01  0.434E-01
  -1.566  0.430E-01  0.430E-01
  -1.556  0.427E-01  0.427E-01
  -1.546  0.424E-01  0.424E-01
  -1.536  0.421E-01  0.421E-01
  -1.526  0.418E-01  0.418E-01
  -1.516  0.416E-01  0.416E-01
  -1.506  0.413E-01  0.413E-01
  -1.496  0.411E-01  0.411E-01
  -1.486  0.409E-01  0.409E-01
  -1.476  0.407E-01  0.407E-01
  -1.466  0.405E-01  0.405E-01
  -1.456  0.403E-01  0.403E-01
  -1.446  0.401E-01  0.401E-01
  -1.436  0.399E-01  0.399E-01
  -1.426  0.398E-01  0.398E-01
  -1.416  0.396E-01  0.396E-01
  -1.406  0.395E-01  0.395E-01
  -1.396  0.394E-01  0.394E-01
  -1.386  0.393E-01  0.393E-01
  -1.376  0.392E-01  0.392E-01
  -1.366  0.391E-01  0.391E-01
  -1.356  0.390E-01  0.390E-01
  -1.346  0.390E-01  0.390E-01
  -1.336  0.389E-01  0.389E-01
  -1.326  0.388E-01  0.388E-01
  -1.316  0.388E-01  0.388E-01
  -1.306  0.388E-01  0.388E-01
  -1.296  0.387E-01  0.387E-01
  -1.286  0.387E-01  0.387E-01
  -1.276  0.387E-01  0.387E-01
  -1.266  0.387E-01  0.387E-01
  -1.256  0.387E-01  0.387E-01
  -1.246  0.387E-01  0.387E-01
  -1.236  0.387E-01  0.387E-01
  -1.226  0.387E-01  0.387E-01
  -1.216  0.387E-01  0.387E-01
  -1.206  0.387E-01  0.387E-01
  -1.196  0.387E-01  0.387E-01
  -1.186  0.387E-01  0.387E-01
  -1.176  0.387E-01  0.387E-01
  -1.166  0.387E-01  0.387E-01
  -1.156  0.387E-01  0.387E-01
  -1.146  0.387E-01  0.387E-01
  -1.136  0.387E-01  0.387E-01
  -1.126  0.387E-01  0.387E-01
  -1.116  0.387E-01  0.387E-01
  -1.106  0.387E-01  0.387E-01
  -1.096  0.387E-01  0.387E-01
  -1.086  0.387E-01  0.387E-01
  -1.076  0.386E-01  0.386E-01
  -1.066  0.386E-01  0.386E-01
  -1.056  0.386E-01  0.386E-01
  -1.046  0.385E-01  0.385E-01
  -1.036  0.385E-01  0.385E-01
  -1.026  0.384E-01  0.384E-01
  -1.016  0.384E-01  0.384E-01
  -1.006  0.383E-01  0.383E-01
  -0.996  0.382E-01  0.382E-01
  -0.986  0.381E-01  0.381E-01
  -0.976  0.380E-01  0.380E-01
  -0.966  0.379E-01  0.379E-01
  -0.956  0.378E-01  0.378E-01
  -0.946  0.377E-01  0.377E-01
  -0.936  0.375E-01  0.375E-01
  -0.926  0.374E-01  0.374E-01
  -0.916  0.372E-01  0.372E-01
  -0.906  0.371E-01  0.371E-01
  -0.896  0.369E-01  0.369E-01
  -0.886  0.367E-01  0.367E-01
  -0.876  0.365E-01  0.365E-01
  -0.866  0.363E-01  0.363E-01
  -0.856  0.360E-01  0.360E-01
  -0.846  0.358E-01  0.358E-01
  -0.836  0.356E-01  0.356E-01
  -0.826  0.353E-01  0.353E-01
  -0.816  0.350E-01  0.350E-01
  -0.806  0.348E-01  0.348E-01
  -0.796  0.345E-01  0.345E-01
  -0.786  0.342E-01  0.342E-01
  -0.776  0.339E-01  0.339E-01
  -0.766  0.335E-01  0.335E-01
  -0.756  0.332E-01  0.332E-01
  -0.746  0.329E-01  0.329E-01
  -0.736  0.325E-01  0.325E-01
  -0.726  0.322E-01  0.322E-01
  -0.716  0.318E-01  0.318E-01
  -0.706  0.315E-01  0.315E-01
  -0.696  0.311E-01  0.311E-01
  -0.686  0.307E-01  0.307E-01
  -0.676  0.304E-01  0.304E-01
  -0.666  0.300E-01  0.300E-01
  -0.656  0.296E-01  0.296E-01
  -0.646  0.292E-01  0.292E-01
  -0.636  0.288E-01  0.288E-01
  -0.626  0.284E-01  0.284E-01
  -0.616  0.280E-01  0.280E-01
  -0.606  0.277E-01  0.277E-01
  -0.596  0.273E-01  0.273E-01
  -0.586  0.269E-01  0.269E-01
  -0.576  0.265E-01  0.265E-01
  -0.566  0.261E-01  0.261E-01
  -0.556  0.257E-01  0.257E-01
  -0.546  0.254E-01  0.254E-01
  -0.536  0.250E-01  0.250E-01
  -0.526  0.246E-01  0.246E-01
  -0.516  0.243E-01  0.243E-01
  -0.506  0.240E-01  0.240E-01
  -0.496  0.236E-01  0.236E-01
  -0.486  0.233E-01  0.233E-01
  -0.476  0.230E-01  0.230E-01
  -0.466  0.227E-01  0.227E-01
  -0.456  0.224E-01  0.224E-01
  -0.446  0.222E-01  0.222E-01
  -0.436  0.219E-01  0.219E-01
  -0.426  0.217E-01  0.217E-01
  -0.416  0.215E-01  0.215E-01
  -0.406  0.213E-01  0.213E-01
  -0.396  0.211E-01  0.211E-01
  -0.386  0.209E-01  0.209E-01
  -0.376  0.208E-01  0.208E-01
  -0.366  0.206E-01  0.206E-01
  -0.356  0.205E-01  0.205E-01
  -0.346  0.205E-01  0.205E-01
  -0.336  0.204E-01  0.204E-01
  -0.326  0.204E-01  0.204E-01
  -0.316  0.204E-01  0.204E-01
  -0.306  0.204E-01  0.204E-01
  -0.296  0.204E-01  0.204E-01
  -0.286  0.205E-01  0.205E-01
  -0.276  0.206E-01  0.206E-01
  -0.266  0.207E-01  0.207E-01
  -0.256  0.208E-01  0.208E-01
  -0.246  0.210E-01  0.210E-01
  -0.236  0.212E-01  0.212E-01
  -0.226  0.214E-01  0.214E-01
  -0.216  0.216E-01  0.216E-01
  -0.206  0.219E-01  0.219E-01
  -0.196  0.222E-01  0.222E-01
  -0.186  0.225E-01  0.225E-01
  -0.176  0.229E-01  0.229E-01
  -0.166  0.233E-01  0.233E-01
  -0.156  0.237E-01  0.237E-01
  -0.146  0.241E-01  0.241E-01
  -0.136  0.246E-01  0.246E-01
  -0.126  0.250E-01  0.250E-01
  -0.116  0.255E-01  0.255E-01
  -0.106  0.261E-01  0.261E-01
  -0.096  0.266E-01  0.266E-01
  -0.086  0.272E-01  0.272E-01
  -0.076  0.278E-01  0.278E-01
  -0.066  0.284E-01  0.284E-01
  -0.056  0.291E-01  0.291E-01
  -0.046  0.297E-01  0.297E-01
  -0.036  0.304E-01  0.304E-01
  -0.026  0.311E-01  0.311E-01
  -0.016  0.318E-01  0.318E-01
  -0.006  0.326E-01  0.326E-01
   0.004  0.333E-01  0.333E-01
   0.014  0.341E-01  0.341E-01
   0.024  0.349E-01  0.349E-01
   0.034  0.357E-01  0.357E-01
   0.044  0.365E-01  0.365E-01
   0.054  0.373E-01  0.373E-01
   0.064  0.382E-01  0.382E-01
   0.074  0.390E-01  0.390E-01
   0.084  0.399E-01  0.399E-01
   0.094  0.407E-01  0.407E-01
   0.104  0.416E-01  0.416E-01
   0.114  0.425E-01  0.425E-01
   0.124  0.434E-01  0.434E-01
   0.134  0.443E-01  0.443E-01
   0.144  0.452E-01  0.452E-01
   0.154  0.461E-01  0.461E-01
   0.164  0.470E-01  0.470E-01
   0.174  0.479E-01  0.479E-01
   0.184  0.488E-01  0.488E-01
   0.194  0.497E-01  0.497E-01
   0.204  0.506E-01  0.506E-01
   0.214  0.515E-01  0.515E-01
   0.224  0.524E-01  0.524E-01
   0.234  0.533E-01  0.533E-01
   0.244  0.542E-01  0.542E-01
   0.254  0.550E-01  0.550E-01
   0.264  0.559E-01  0.559E-01
   0.274  0.568E-01  0.568E-01
   0.284  0.577E-01  0.577E-01
   0.294  0.586E-01  0.586E-01
   0.304  0.594E-01  0.594E-01
   0.314  0.603E-01  0.603E-01
   0.324  0.611E-01  0.611E-01
   0.334  0.620E-01  0.620E-01
   0.344  0.628E-01  0.628E-01
   0.354  0.636E-01  0.636E-01
   0.364  0.644E-01  0.644E-01
   0.374  0.653E-01  0.653E-01
   0.384  0.661E-01  0.661E-01
   0.394  0.669E-01  0.669E-01
   0.404  0.677E-01  0.677E-01
   0.414  0.685E-01  0.685E-01
   0.424  0.693E-01  0.693E-01
   0.434  0.700E-01  0.700E-01
   0.444  0.708E-01  0.708E-01
   0.454  0.716E-01  0.716E-01
   0.464  0.724E-01  0.724E-01
   0.474  0.731E-01  0.731E-01
   0.484  0.739E-01  0.739E-01
   0.494  0.747E-01  0.747E-01
   0.504  0.754E-01  0.754E-01
   0.514  0.762E-01  0.762E-01
   0.524  0.770E-01  0.770E-01
   0.534  0.777E-01  0.777E-01
   0.544  0.785E-01  0.785E-01
   0.554  0.793E-01  0.793E-01
   0.564  0.800E-01  0.800E-01
   0.574  0.808E-01  0.808E-01
   0.584  0.816E-01  0.816E-01
   0.594  0.824E-01  0.824E-01
   0.604  0.832E-01  0.832E-01
   0.614  0.840E-01  0.840E-01
   0.624  0.848E-01  0.848E-01
   0.634  0.856E-01  0.856E-01
   0.644  0.864E-01  0.864E-01
   0.654  0.873E-01  0.873E-01
   0.664  0.881E-01  0.881E-01
   0.674  0.890E-01  0.890E-01
   0.684  0.898E-01  0.898E-01
   0.694  0.907E-01  0.907E-01
   0.704  0.916E-01  0.916E-01
   0.714  0.925E-01  0.925E-01
   0.724  0.935E-01  0.935E-01
   0.734  0.944E-01  0.944E-01
   0.744  0.954E-01  0.954E-01
   0.754  0.964E-01  0.964E-01
   0.764  0.974E-01  0.974E-01
   0.774  0.984E-01  0.984E-01
   0.784  0.994E-01  0.994E-01
   0.794  0.100E+00  0.100E+00
   0.804  0.102E+00  0.102E+00
   0.814  0.103E+00  0.103E+00
   0.824  0.104E+00  0.104E+00
   0.834  0.105E+00  0.105E+00
   0.844  0.106E+00  0.106E+00
   0.854  0.107E+00  0.107E+00
   0.864  0.108E+00  0.108E+00
   0.874  0.109E+00  0.109E+00
   0.884  0.111E+00  0.111E+00
   0.894  0.112E+00  0.112E+00
   0.904  0.113E+00  0.113E+00
   0.914  0.114E+00  0.114E+00
   0.924  0.116E+00  0.116E+00
   0.934  0.117E+00  0.117E+00
   0.944  0.118E+00  0.118E+00
   0.954  0.119E+00  0.119E+00
   0.964  0.121E+00  0.121E+00
   0.974  0.122E+00  0.122E+00
   0.984  0.123E+00  0.123E+00
   0.994  0.125E+00  0.125E+00
   1.004  0.126E+00  0.126E+00
   1.014  0.127E+00  0.127E+00
   1.024  0.129E+00  0.129E+00
   1.034  0.130E+00  0.130E+00
   1.044  0.132E+00  0.132E+00
   1.054  0.133E+00  0.133E+00
   1.064  0.134E+00  0.134E+00
   1.074  0.136E+00  0.136E+00
   1.084  0.137E+00  0.137E+00
   1.094  0.138E+00  0.138E+00
   1.104  0.140E+00  0.140E+00
   1.114  0.141E+00  0.141E+00
   1.124  0.142E+00  0.142E+00
   1.134  0.144E+00  0.144E+00
   1.144  0.145E+00  0.145E+00
   1.154  0.146E+00  0.146E+00
   1.164  0.148E+00  0.148E+00
   1.174  0.149E+00  0.149E+00
   1.184  0.150E+00  0.150E+00
   1.194  0.152E+00  0.152E+00
   1.204  0.153E+00  0.153E+00
   1.214  0.154E+00  0.154E+00
   1.224  0.155E+00  0.155E+00
   1.234  0.156E+00  0.156E+00
   1.244  0.157E+00  0.157E+00
   1.254  0.159E+00  0.159E+00
   1.264  0.160E+00  0.160E+00
   1.274  0.161E+00  0.161E+00
   1.284  0.162E+00  0.162E+00
   1.294  0.163E+00  0.163E+00
   1.304  0.164E+00  0.164E+00
   1.314  0.165E+00  0.165E+00
   1.324  0.165E+00  0.165E+00
   1.334  0.166E+00  0.166E+00
   1.344  0.167E+00  0.167E+00
   1.354  0.168E+00  0.168E+00
   1.364  0.168E+00  0.168E+00
   1.374  0.169E+00  0.169E+00
   1.384  0.170E+00  0.170E+00
   1.394  0.170E+00  0.170E+00
   1.404  0.171E+00  0.171E+00
   1.414  0.171E+00  0.171E+00
   1.424  0.172E+00  0.172E+00
   1.434  0.172E+00  0.172E+00
   1.444  0.172E+00  0.172E+00
   1.454  0.173E+00  0.173E+00
   1.464  0.173E+00  0.173E+00
   1.474  0.173E+00  0.173E+00
   1.484  0.173E+00  0.173E+00
   1.494  0.173E+00  0.173E+00
   1.504  0.173E+00  0.173E+00
   1.514  0.173E+00  0.173E+00
   1.524  0.173E+00  0.173E+00
   1.534  0.173E+00  0.173E+00
   1.544  0.173E+00  0.173E+00
   1.554  0.173E+00  0.173E+00
   1.564  0.172E+00  0.172E+00
   1.574  0.172E+00  0.172E+00
   1.584  0.171E+00  0.171E+00
   1.594  0.171E+00  0.171E+00
   1.604  0.170E+00  0.170E+00
   1.614  0.170E+00  0.170E+00
   1.624  0.169E+00  0.169E+00
   1.634  0.168E+00  0.168E+00
   1.644  0.168E+00  0.168E+00
   1.654  0.167E+00  0.167E+00
   1.664  0.166E+00  0.166E+00
   1.674  0.165E+00  0.165E+00
   1.684  0.164E+00  0.164E+00
   1.694  0.163E+00  0.163E+00
   1.704  0.162E+00  0.162E+00
   1.714  0.161E+00  0.161E+00
   1.724  0.160E+00  0.160E+00
   1.734  0.159E+00  0.159E+00
   1.744  0.157E+00  0.157E+00
   1.754  0.156E+00  0.156E+00
   1.764  0.155E+00  0.155E+00
   1.774  0.153E+00  0.153E+00
   1.784  0.152E+00  0.152E+00
   1.794  0.151E+00  0.151E+00
   1.804  0.149E+00  0.149E+00
   1.814  0.148E+00  0.148E+00
   1.824  0.146E+00  0.146E+00
   1.834  0.145E+00  0.145E+00
   1.844  0.143E+00  0.143E+00
   1.854  0.142E+00  0.142E+00
   1.864  0.140E+00  0.140E+00
   1.874  0.139E+00  0.139E+00
   1.884  0.137E+00  0.137E+00
   1.894  0.135E+00  0.135E+00
   1.904  0.134E+00  0.134E+00
   1.914  0.132E+00  0.132E+00
   1.924  0.131E+00  0.131E+00
   1.934  0.129E+00  0.129E+00
   1.944  0.128E+00  0.128E+00
   1.954  0.126E+00  0.126E+00
   1.964  0.125E+00  0.125E+00
   1.974  0.123E+00  0.123E+00
   1.984  0.122E+00  0.122E+00
   1.994  0.121E+00  0.121E+00
   2.004  0.119E+00  0.119E+00
   2.014  0.118E+00  0.118E+00
   2.024  0.117E+00  0.117E+00
   2.034  0.116E+00  0.116E+00
   2.044  0.115E+00  0.115E+00
   2.054  0.113E+00  0.113E+00
   2.064  0.113E+00  0.113E+00
   2.074  0.112E+00  0.112E+00
   2.084  0.111E+00  0.111E+00
   2.094  0.110E+00  0.110E+00
   2.104  0.109E+00  0.109E+00
   2.114  0.109E+00  0.109E+00
   2.124  0.108E+00  0.108E+00
   2.134  0.108E+00  0.108E+00
   2.144  0.107E+00  0.107E+00
   2.154  0.107E+00  0.107E+00
   2.164  0.107E+00  0.107E+00
   2.174  0.107E+00  0.107E+00
   2.184  0.107E+00  0.107E+00
   2.194  0.107E+00  0.107E+00
   2.204  0.108E+00  0.108E+00
   2.214  0.108E+00  0.108E+00
   2.224  0.109E+00  0.109E+00
   2.234  0.109E+00  0.109E+00
   2.244  0.110E+00  0.110E+00
   2.254  0.111E+00  0.111E+00
   2.264  0.112E+00  0.112E+00
   2.274  0.113E+00  0.113E+00
   2.284  0.115E+00  0.115E+00
   2.294  0.116E+00  0.116E+00
   2.304  0.117E+00  0.117E+00
   2.314  0.119E+00  0.119E+00
   2.324  0.121E+00  0.121E+00
   2.334  0.123E+00  0.123E+00
   2.344  0.125E+00  0.125E+00
   2.354  0.127E+00  0.127E+00
   2.364  0.129E+00  0.129E+00
   2.374  0.131E+00  0.131E+00
   2.384  0.134E+00  0.134E+00
   2.394  0.136E+00  0.136E+00
   2.404  0.139E+00  0.139E+00
   2.414  0.142E+00  0.142E+00
   2.424  0.145E+00  0.145E+00
   2.434  0.148E+00  0.148E+00
   2.444  0.151E+00  0.151E+00
   2.454  0.154E+00  0.154E+00
   2.464  0.157E+00  0.157E+00
   2.474  0.161E+00  0.161E+00
   2.484  0.164E+00  0.164E+00
   2.494  0.167E+00  0.167E+00
   2.504  0.171E+00  0.171E+00
   2.514  0.174E+00  0.174E+00
   2.524  0.178E+00  0.178E+00
   2.534  0.182E+00  0.182E+00
   2.544  0.185E+00  0.185E+00
   2.554  0.189E+00  0.189E+00
   2.564  0.193E+00  0.193E+00
   2.574  0.197E+00  0.197E+00
   2.584  0.201E+00  0.201E+00
   2.594  0.204E+00  0.204E+00
   2.604  0.208E+00  0.208E+00
   2.614  0.212E+00  0.212E+00
   2.624  0.216E+00  0.216E+00
   2.634  0.219E+00  0.219E+00
   2.644  0.223E+00  0.223E+00
   2.654  0.227E+00  0.227E+00
   2.664  0.230E+00  0.230E+00
   2.674  0.234E+00  0.234E+00
   2.684  0.237E+00  0.237E+00
   2.694  0.241E+00  0.241E+00
   2.704  0.244E+00  0.244E+00
   2.714  0.248E+00  0.248E+00
   2.724  0.251E+00  0.251E+00
   2.734  0.254E+00  0.254E+00
   2.744  0.257E+00  0.257E+00
   2.754  0.260E+00  0.260E+00
   2.764  0.262E+00  0.262E+00
   2.774  0.265E+00  0.265E+00
   2.784  0.268E+00  0.268E+00
   2.794  0.270E+00  0.270E+00
   2.804  0.272E+00  0.272E+00
   2.814  0.274E+00  0.274E+00
   2.824  0.276E+00  0.276E+00
   2.834  0.278E+00  0.278E+00
   2.844  0.279E+00  0.279E+00
   2.854  0.281E+00  0.281E+00
   2.864  0.282E+00  0.282E+00
   2.874  0.283E+00  0.283E+00
   2.884  0.284E+00  0.284E+00
   2.894  0.285E+00  0.285E+00
   2.904  0.286E+00  0.286E+00
   2.914  0.286E+00  0.286E+00
   2.924  0.286E+00  0.286E+00
   2.934  0.286E+00  0.286E+00
   2.944  0.286E+00  0.286E+00
   2.954  0.286E+00  0.286E+00
   2.964  0.285E+00  0.285E+00
   2.974  0.284E+00  0.284E+00
   2.984  0.284E+00  0.284E+00
   2.994  0.283E+00  0.283E+00
   3.004  0.281E+00  0.281E+00
   3.014  0.280E+00  0.280E+00
   3.024  0.278E+00  0.278E+00
   3.034  0.276E+00  0.276E+00
   3.044  0.274E+00  0.274E+00
   3.054  0.272E+00  0.272E+00
   3.064  0.270E+00  0.270E+00
   3.074  0.267E+00  0.267E+00
   3.084  0.265E+00  0.265E+00
   3.094  0.262E+00  0.262E+00
   3.104  0.259E+00  0.259E+00
   3.114  0.256E+00  0.256E+00
   3.124  0.253E+00  0.253E+00
   3.134  0.249E+00  0.249E+00
   3.144  0.246E+00  0.246E+00
   3.154  0.242E+00  0.242E+00
   3.164  0.238E+00  0.238E+00
   3.174  0.235E+00  0.235E+00
   3.184  0.231E+00  0.231E+00
   3.194  0.226E+00  0.226E+00
   3.204  0.222E+00  0.222E+00
   3.214  0.218E+00  0.218E+00
   3.224  0.214E+00  0.214E+00
   3.234  0.209E+00  0.209E+00
   3.244  0.205E+00  0.205E+00
   3.254  0.200E+00  0.200E+00
   3.264  0.195E+00  0.195E+00
   3.274  0.191E+00  0.191E+00
   3.284  0.186E+00  0.186E+00
   3.294  0.181E+00  0.181E+00
   3.304  0.176E+00  0.176E+00
   3.314  0.172E+00  0.172E+00
   3.324  0.167E+00  0.167E+00
   3.334  0.162E+00  0.162E+00
   3.344  0.157E+00  0.157E+00
   3.354  0.152E+00  0.152E+00
   3.364  0.147E+00  0.147E+00
   3.374  0.143E+00  0.143E+00
   3.384  0.138E+00  0.138E+00
   3.394  0.133E+00  0.133E+00
   3.404  0.128E+00  0.128E+00
   3.414  0.123E+00  0.123E+00
   3.424  0.119E+00  0.119E+00
   3.434  0.114E+00  0.114E+00
   3.444  0.109E+00  0.109E+00
   3.454  0.105E+00  0.105E+00
   3.464  0.100E+00  0.100E+00
   3.474  0.959E-01  0.959E-01
   3.484  0.916E-01  0.916E-01
   3.494  0.873E-01  0.873E-01
   3.504  0.831E-01  0.831E-01
   3.514  0.789E-01  0.789E-01
   3.524  0.748E-01  0.748E-01
   3.534  0.709E-01  0.709E-01
   3.544  0.670E-01  0.670E-01
   3.554  0.632E-01  0.632E-01
   3.564  0.595E-01  0.595E-01
   3.574  0.558E-01  0.558E-01
   3.584  0.523E-01  0.523E-01
   3.594  0.489E-01  0.489E-01
   3.604  0.455E-01  0.455E-01
   3.614  0.423E-01  0.423E-01
   3.624  0.392E-01  0.392E-01
   3.634  0.361E-01  0.361E-01
   3.644  0.332E-01  0.332E-01
   3.654  0.303E-01  0.303E-01
   3.664  0.276E-01  0.276E-01
   3.674  0.249E-01  0.249E-01
   3.684  0.224E-01  0.224E-01
   3.694  0.200E-01  0.200E-01
   3.704  0.176E-01  0.176E-01
   3.714  0.154E-01  0.154E-01
   3.724  0.132E-01  0.132E-01
   3.734  0.112E-01  0.112E-01
   3.744  0.923E-02  0.923E-02
   3.754  0.737E-02  0.737E-02
   3.764  0.560E-02  0.560E-02
   3.774  0.392E-02  0.392E-02
   3.784  0.233E-02  0.233E-02
   3.794  0.826E-03  0.826E-03
   3.804 -0.591E-03 -0.591E-03
   3.814 -0.192E-02 -0.192E-02
   3.824 -0.318E-02 -0.318E-02
   3.834 -0.435E-02 -0.435E-02
   3.844 -0.544E-02 -0.544E-02
   3.854 -0.646E-02 -0.646E-02
   3.864 -0.741E-02 -0.741E-02
   3.874 -0.829E-02 -0.829E-02
   3.884 -0.909E-02 -0.909E-02
   3.894 -0.983E-02 -0.983E-02
   3.904 -0.105E-01 -0.105E-01
   3.914 -0.111E-01 -0.111E-01
   3.924 -0.117E-01 -0.117E-01
   3.934 -0.122E-01 -0.122E-01
   3.944 -0.126E-01 -0.126E-01
   3.954 -0.130E-01 -0.130E-01
   3.964 -0.134E-01 -0.134E-01
   3.974 -0.137E-01 -0.137E-01
   3.984 -0.139E-01 -0.139E-01
   3.994 -0.141E-01 -0.141E-01
   4.004 -0.143E-01 -0.143E-01
   4.014 -0.144E-01 -0.144E-01
   4.024 -0.145E-01 -0.145E-01
   4.034 -0.145E-01 -0.145E-01
   4.044 -0.146E-01 -0.146E-01
   4.054 -0.145E-01 -0.145E-01
   4.064 -0.145E-01 -0.145E-01
   4.074 -0.144E-01 -0.144E-01
   4.084 -0.144E-01 -0.144E-01
   4.094 -0.142E-01 -0.142E-01
   4.104 -0.141E-01 -0.141E-01
   4.114 -0.139E-01 -0.139E-01
   4.124 -0.138E-01 -0.138E-01
   4.134 -0.136E-01 -0.136E-01
   4.144 -0.134E-01 -0.134E-01
   4.154 -0.132E-01 -0.132E-01
   4.164 -0.129E-01 -0.129E-01
   4.174 -0.127E-01 -0.127E-01
   4.184 -0.124E-01 -0.124E-01
   4.194 -0.122E-01 -0.122E-01
   4.204 -0.119E-01 -0.119E-01
   4.214 -0.116E-01 -0.116E-01
   4.224 -0.114E-01 -0.114E-01
   4.234 -0.111E-01 -0.111E-01
   4.244 -0.108E-01 -0.108E-01
   4.254 -0.105E-01 -0.105E-01
   4.264 -0.102E-01 -0.102E-01
   4.274 -0.992E-02 -0.992E-02
   4.284 -0.963E-02 -0.963E-02
   4.294 -0.934E-02 -0.934E-02
   4.304 -0.905E-02 -0.905E-02
   4.314 -0.877E-02 -0.877E-02
   4.324 -0.848E-02 -0.848E-02
   4.334 -0.820E-02 -0.820E-02
   4.344 -0.792E-02 -0.792E-02
   4.354 -0.765E-02 -0.765E-02
   4.364 -0.738E-02 -0.738E-02
   4.374 -0.711E-02 -0.711E-02
   4.384 -0.685E-02 -0.685E-02
   4.394 -0.659E-02 -0.659E-02
   4.404 -0.634E-02 -0.634E-02
   4.414 -0.609E-02 -0.609E-02
   4.424 -0.585E-02 -0.585E-02
   4.434 -0.562E-02 -0.562E-02
   4.444 -0.539E-02 -0.539E-02
   4.454 -0.516E-02 -0.516E-02
   4.464 -0.495E-02 -0.495E-02
   4.474 -0.473E-02 -0.473E-02
   4.484 -0.453E-02 -0.453E-02
   4.494 -0.433E-02 -0.433E-02
   4.504 -0.414E-02 -0.414E-02
   4.514 -0.395E-02 -0.395E-02
   4.524 -0.377E-02 -0.377E-02
   4.534 -0.360E-02 -0.360E-02
   4.544 -0.343E-02 -0.343E-02
   4.554 -0.327E-02 -0.327E-02
   4.564 -0.311E-02 -0.311E-02
   4.574 -0.296E-02 -0.296E-02
   4.584 -0.281E-02 -0.281E-02
   4.594 -0.267E-02 -0.267E-02
   4.604 -0.254E-02 -0.254E-02
   4.614 -0.241E-02 -0.241E-02
   4.624 -0.229E-02 -0.229E-02
   4.634 -0.217E-02 -0.217E-02
   4.644 -0.206E-02 -0.206E-02
   4.654 -0.195E-02 -0.195E-02
   4.664 -0.184E-02 -0.184E-02
   4.674 -0.174E-02 -0.174E-02
   4.684 -0.165E-02 -0.165E-02
   4.694 -0.156E-02 -0.156E-02
   4.704 -0.147E-02 -0.147E-02
   4.714 -0.139E-02 -0.139E-02
   4.724 -0.131E-02 -0.131E-02
   4.734 -0.124E-02 -0.124E-02
   4.744 -0.117E-02 -0.117E-02
   4.754 -0.110E-02 -0.110E-02
   4.764 -0.103E-02 -0.103E-02
   4.774 -0.973E-03 -0.973E-03
   4.784 -0.916E-03 -0.916E-03
   4.794 -0.861E-03 -0.861E-03
   4.804 -0.809E-03 -0.809E-03
   4.814 -0.760E-03 -0.760E-03
   4.824 -0.713E-03 -0.713E-03
   4.834 -0.669E-03 -0.669E-03
   4.844 -0.628E-03 -0.628E-03
   4.854 -0.588E-03 -0.588E-03
   4.864 -0.551E-03 -0.551E-03
   4.874 -0.516E-03 -0.516E-03
   4.884 -0.483E-03 -0.483E-03
   4.894 -0.452E-03 -0.452E-03
   4.904 -0.423E-03 -0.423E-03
   4.914 -0.395E-03 -0.395E-03
   4.924 -0.369E-03 -0.369E-03
   4.934 -0.344E-03 -0.344E-03
   4.944 -0.321E-03 -0.321E-03
   4.954 -0.300E-03 -0.300E-03
   4.964 -0.280E-03 -0.280E-03
   4.974 -0.260E-03 -0.260E-03
   4.984 -0.243E-03 -0.243E-03
   4.994 -0.226E-03 -0.226E-03
   5.004 -0.210E-03 -0.210E-03
   5.014 -0.195E-03 -0.195E-03
   5.024 -0.182E-03 -0.182E-03
   5.034 -0.169E-03 -0.169E-03
   5.044 -0.157E-03 -0.157E-03
   5.054 -0.146E-03 -0.146E-03
   5.064 -0.135E-03 -0.135E-03
   5.074 -0.125E-03 -0.125E-03
   5.084 -0.116E-03 -0.116E-03
   5.094 -0.108E-03 -0.108E-03
   5.104 -0.997E-04 -0.997E-04
   5.114 -0.923E-04 -0.923E-04
   5.124 -0.854E-04 -0.854E-04
   5.134 -0.790E-04 -0.790E-04
   5.144 -0.730E-04 -0.730E-04
   5.154 -0.674E-04 -0.674E-04
   5.164 -0.623E-04 -0.623E-04
   5.174 -0.575E-04 -0.575E-04
   5.184 -0.531E-04 -0.531E-04
   5.194 -0.489E-04 -0.489E-04
   5.204 -0.451E-04 -0.451E-04
   5.214 -0.416E-04 -0.416E-04
   5.224 -0.383E-04 -0.383E-04
   5.234 -0.353E-04 -0.353E-04
   5.244 -0.324E-04 -0.324E-04
   5.254 -0.298E-04 -0.298E-04
   5.264 -0.274E-04 -0.274E-04
   5.274 -0.252E-04 -0.252E-04
   5.284 -0.232E-04 -0.232E-04
   5.294 -0.213E-04 -0.213E-04
