# E (eV)   ldos(E)   pdos(E)   
 -27.116 -0.306E-03 -0.306E-03
 -27.106 -0.330E-03 -0.330E-03
 -27.096 -0.356E-03 -0.356E-03
 -27.086 -0.384E-03 -0.384E-03
 -27.076 -0.414E-03 -0.414E-03
 -27.066 -0.446E-03 -0.446E-03
 -27.056 -0.480E-03 -0.480E-03
 -27.046 -0.516E-03 -0.516E-03
 -27.036 -0.555E-03 -0.555E-03
 -27.026 -0.597E-03 -0.597E-03
 -27.016 -0.642E-03 -0.642E-03
 -27.006 -0.689E-03 -0.689E-03
 -26.996 -0.739E-03 -0.739E-03
 -26.986 -0.793E-03 -0.793E-03
 -26.976 -0.850E-03 -0.850E-03
 -26.966 -0.911E-03 -0.911E-03
 -26.956 -0.976E-03 -0.976E-03
 -26.946 -0.104E-02 -0.104E-02
 -26.936 -0.112E-02 -0.112E-02
 -26.926 -0.120E-02 -0.120E-02
 -26.916 -0.128E-02 -0.128E-02
 -26.906 -0.136E-02 -0.136E-02
 -26.896 -0.146E-02 -0.146E-02
 -26.886 -0.155E-02 -0.155E-02
 -26.876 -0.166E-02 -0.166E-02
 -26.866 -0.177E-02 -0.177E-02
 -26.856 -0.188E-02 -0.188E-02
 -26.846 -0.200E-02 -0.200E-02
 -26.836 -0.213E-02 -0.213E-02
 -26.826 -0.227E-02 -0.227E-02
 -26.816 -0.241E-02 -0.241E-02
 -26.806 -0.256E-02 -0.256E-02
 -26.796 -0.272E-02 -0.272E-02
 -26.786 -0.288E-02 -0.288E-02
 -26.776 -0.306E-02 -0.306E-02
 -26.766 -0.324E-02 -0.324E-02
 -26.756 -0.343E-02 -0.343E-02
 -26.746 -0.363E-02 -0.363E-02
 -26.736 -0.384E-02 -0.384E-02
 -26.726 -0.406E-02 -0.406E-02
 -26.716 -0.429E-02 -0.429E-02
 -26.706 -0.453E-02 -0.453E-02
 -26.696 -0.478E-02 -0.478E-02
 -26.686 -0.504E-02 -0.504E-02
 -26.676 -0.532E-02 -0.532E-02
 -26.666 -0.560E-02 -0.560E-02
 -26.656 -0.590E-02 -0.590E-02
 -26.646 -0.620E-02 -0.620E-02
 -26.636 -0.652E-02 -0.652E-02
 -26.626 -0.686E-02 -0.686E-02
 -26.616 -0.720E-02 -0.720E-02
 -26.606 -0.756E-02 -0.756E-02
 -26.596 -0.792E-02 -0.792E-02
 -26.586 -0.830E-02 -0.830E-02
 -26.576 -0.870E-02 -0.870E-02
 -26.566 -0.910E-02 -0.910E-02
 -26.556 -0.952E-02 -0.952E-02
 -26.546 -0.995E-02 -0.995E-02
 -26.536 -0.104E-01 -0.104E-01
 -26.526 -0.109E-01 -0.109E-01
 -26.516 -0.113E-01 -0.113E-01
 -26.506 -0.118E-01 -0.118E-01
 -26.496 -0.123E-01 -0.123E-01
 -26.486 -0.128E-01 -0.128E-01
 -26.476 -0.133E-01 -0.133E-01
 -26.466 -0.138E-01 -0.138E-01
 -26.456 -0.144E-01 -0.144E-01
 -26.446 -0.149E-01 -0.149E-01
 -26.436 -0.154E-01 -0.154E-01
 -26.426 -0.160E-01 -0.160E-01
 -26.416 -0.166E-01 -0.166E-01
 -26.406 -0.171E-01 -0.171E-01
 -26.396 -0.177E-01 -0.177E-01
 -26.386 -0.183E-01 -0.183E-01
 -26.376 -0.188E-01 -0.188E-01
 -26.366 -0.194E-01 -0.194E-01
 -26.356 -0.200E-01 -0.200E-01
 -26.346 -0.206E-01 -0.206E-01
 -26.336 -0.211E-01 -0.211E-01
 -26.326 -0.217E-01 -0.217E-01
 -26.316 -0.223E-01 -0.223E-01
 -26.306 -0.228E-01 -0.228E-01
 -26.296 -0.234E-01 -0.234E-01
 -26.286 -0.239E-01 -0.239E-01
 -26.276 -0.244E-01 -0.244E-01
 -26.266 -0.249E-01 -0.249E-01
 -26.256 -0.253E-01 -0.253E-01
 -26.246 -0.258E-01 -0.258E-01
 -26.236 -0.262E-01 -0.262E-01
 -26.226 -0.266E-01 -0.266E-01
 -26.216 -0.269E-01 -0.269E-01
 -26.206 -0.273E-01 -0.273E-01
 -26.196 -0.275E-01 -0.275E-01
 -26.186 -0.278E-01 -0.278E-01
 -26.176 -0.280E-01 -0.280E-01
 -26.166 -0.281E-01 -0.281E-01
 -26.156 -0.282E-01 -0.282E-01
 -26.146 -0.282E-01 -0.282E-01
 -26.136 -0.282E-01 -0.282E-01
 -26.126 -0.281E-01 -0.281E-01
 -26.116 -0.280E-01 -0.280E-01
 -26.106 -0.277E-01 -0.277E-01
 -26.096 -0.274E-01 -0.274E-01
 -26.086 -0.270E-01 -0.270E-01
 -26.076 -0.265E-01 -0.265E-01
 -26.066 -0.260E-01 -0.260E-01
 -26.056 -0.253E-01 -0.253E-01
 -26.046 -0.245E-01 -0.245E-01
 -26.036 -0.237E-01 -0.237E-01
 -26.026 -0.227E-01 -0.227E-01
 -26.016 -0.216E-01 -0.216E-01
 -26.006 -0.204E-01 -0.204E-01
 -25.996 -0.191E-01 -0.191E-01
 -25.986 -0.176E-01 -0.176E-01
 -25.976 -0.160E-01 -0.160E-01
 -25.966 -0.143E-01 -0.143E-01
 -25.956 -0.124E-01 -0.124E-01
 -25.946 -0.104E-01 -0.104E-01
 -25.936 -0.824E-02 -0.824E-02
 -25.926 -0.593E-02 -0.593E-02
 -25.916 -0.346E-02 -0.346E-02
 -25.906 -0.824E-03 -0.824E-03
 -25.896  0.197E-02  0.197E-02
 -25.886  0.494E-02  0.494E-02
 -25.876  0.808E-02  0.808E-02
 -25.866  0.114E-01  0.114E-01
 -25.856  0.149E-01  0.149E-01
 -25.846  0.185E-01  0.185E-01
 -25.836  0.224E-01  0.224E-01
 -25.826  0.264E-01  0.264E-01
 -25.816  0.307E-01  0.307E-01
 -25.806  0.351E-01  0.351E-01
 -25.796  0.397E-01  0.397E-01
 -25.786  0.445E-01  0.445E-01
 -25.776  0.495E-01  0.495E-01
 -25.766  0.546E-01  0.546E-01
 -25.756  0.600E-01  0.600E-01
 -25.746  0.656E-01  0.656E-01
 -25.736  0.713E-01  0.713E-01
 -25.726  0.773E-01  0.773E-01
 -25.716  0.834E-01  0.834E-01
 -25.706  0.897E-01  0.897E-01
 -25.696  0.962E-01  0.962E-01
 -25.686  0.103E+00  0.103E+00
 -25.676  0.110E+00  0.110E+00
 -25.666  0.117E+00  0.117E+00
 -25.656  0.124E+00  0.124E+00
 -25.646  0.131E+00  0.131E+00
 -25.636  0.139E+00  0.139E+00
 -25.626  0.147E+00  0.147E+00
 -25.616  0.154E+00  0.154E+00
 -25.606  0.162E+00  0.162E+00
 -25.596  0.171E+00  0.171E+00
 -25.586  0.179E+00  0.179E+00
 -25.576  0.187E+00  0.187E+00
 -25.566  0.196E+00  0.196E+00
 -25.556  0.204E+00  0.204E+00
 -25.546  0.213E+00  0.213E+00
 -25.536  0.222E+00  0.222E+00
 -25.526  0.230E+00  0.230E+00
 -25.516  0.239E+00  0.239E+00
 -25.506  0.248E+00  0.248E+00
 -25.496  0.257E+00  0.257E+00
 -25.486  0.266E+00  0.266E+00
 -25.476  0.275E+00  0.275E+00
 -25.466  0.284E+00  0.284E+00
 -25.456  0.294E+00  0.294E+00
 -25.446  0.303E+00  0.303E+00
 -25.436  0.312E+00  0.312E+00
 -25.426  0.321E+00  0.321E+00
 -25.416  0.330E+00  0.330E+00
 -25.406  0.338E+00  0.338E+00
 -25.396  0.347E+00  0.347E+00
 -25.386  0.356E+00  0.356E+00
 -25.376  0.365E+00  0.365E+00
 -25.366  0.373E+00  0.373E+00
 -25.356  0.381E+00  0.381E+00
 -25.346  0.390E+00  0.390E+00
 -25.336  0.398E+00  0.398E+00
 -25.326  0.405E+00  0.405E+00
 -25.316  0.413E+00  0.413E+00
 -25.306  0.421E+00  0.421E+00
 -25.296  0.428E+00  0.428E+00
 -25.286  0.435E+00  0.435E+00
 -25.276  0.442E+00  0.442E+00
 -25.266  0.449E+00  0.449E+00
 -25.256  0.455E+00  0.455E+00
 -25.246  0.461E+00  0.461E+00
 -25.236  0.467E+00  0.467E+00
 -25.226  0.472E+00  0.472E+00
 -25.216  0.478E+00  0.478E+00
 -25.206  0.483E+00  0.483E+00
 -25.196  0.487E+00  0.487E+00
 -25.186  0.491E+00  0.491E+00
 -25.176  0.495E+00  0.495E+00
 -25.166  0.499E+00  0.499E+00
 -25.156  0.502E+00  0.502E+00
 -25.146  0.505E+00  0.505E+00
 -25.136  0.508E+00  0.508E+00
 -25.126  0.510E+00  0.510E+00
 -25.116  0.512E+00  0.512E+00
 -25.106  0.514E+00  0.514E+00
 -25.096  0.515E+00  0.515E+00
 -25.086  0.516E+00  0.516E+00
 -25.076  0.516E+00  0.516E+00
 -25.066  0.516E+00  0.516E+00
 -25.056  0.516E+00  0.516E+00
 -25.046  0.515E+00  0.515E+00
 -25.036  0.514E+00  0.514E+00
 -25.026  0.512E+00  0.512E+00
 -25.016  0.511E+00  0.511E+00
 -25.006  0.509E+00  0.509E+00
 -24.996  0.506E+00  0.506E+00
 -24.986  0.503E+00  0.503E+00
 -24.976  0.500E+00  0.500E+00
 -24.966  0.496E+00  0.496E+00
 -24.956  0.492E+00  0.492E+00
 -24.946  0.488E+00  0.488E+00
 -24.936  0.484E+00  0.484E+00
 -24.926  0.479E+00  0.479E+00
 -24.916  0.474E+00  0.474E+00
 -24.906  0.468E+00  0.468E+00
 -24.896  0.462E+00  0.462E+00
 -24.886  0.456E+00  0.456E+00
 -24.876  0.450E+00  0.450E+00
 -24.866  0.444E+00  0.444E+00
 -24.856  0.437E+00  0.437E+00
 -24.846  0.430E+00  0.430E+00
 -24.836  0.422E+00  0.422E+00
 -24.826  0.415E+00  0.415E+00
 -24.816  0.407E+00  0.407E+00
 -24.806  0.399E+00  0.399E+00
 -24.796  0.391E+00  0.391E+00
 -24.786  0.383E+00  0.383E+00
 -24.776  0.375E+00  0.375E+00
 -24.766  0.367E+00  0.367E+00
 -24.756  0.358E+00  0.358E+00
 -24.746  0.349E+00  0.349E+00
 -24.736  0.341E+00  0.341E+00
 -24.726  0.332E+00  0.332E+00
 -24.716  0.323E+00  0.323E+00
 -24.706  0.314E+00  0.314E+00
 -24.696  0.305E+00  0.305E+00
 -24.686  0.296E+00  0.296E+00
 -24.676  0.287E+00  0.287E+00
 -24.666  0.278E+00  0.278E+00
 -24.656  0.269E+00  0.269E+00
 -24.646  0.259E+00  0.259E+00
 -24.636  0.250E+00  0.250E+00
 -24.626  0.241E+00  0.241E+00
 -24.616  0.233E+00  0.233E+00
 -24.606  0.224E+00  0.224E+00
 -24.596  0.215E+00  0.215E+00
 -24.586  0.206E+00  0.206E+00
 -24.576  0.198E+00  0.198E+00
 -24.566  0.189E+00  0.189E+00
 -24.556  0.181E+00  0.181E+00
 -24.546  0.172E+00  0.172E+00
 -24.536  0.164E+00  0.164E+00
 -24.526  0.156E+00  0.156E+00
 -24.516  0.148E+00  0.148E+00
 -24.506  0.141E+00  0.141E+00
 -24.496  0.133E+00  0.133E+00
 -24.486  0.126E+00  0.126E+00
 -24.476  0.119E+00  0.119E+00
 -24.466  0.111E+00  0.111E+00
 -24.456  0.105E+00  0.105E+00
 -24.446  0.978E-01  0.978E-01
 -24.436  0.913E-01  0.913E-01
 -24.426  0.849E-01  0.849E-01
 -24.416  0.787E-01  0.787E-01
 -24.406  0.727E-01  0.727E-01
 -24.396  0.669E-01  0.669E-01
 -24.386  0.613E-01  0.613E-01
 -24.376  0.559E-01  0.559E-01
 -24.366  0.507E-01  0.507E-01
 -24.356  0.456E-01  0.456E-01
 -24.346  0.408E-01  0.408E-01
 -24.336  0.362E-01  0.362E-01
 -24.326  0.317E-01  0.317E-01
 -24.316  0.274E-01  0.274E-01
 -24.306  0.233E-01  0.233E-01
 -24.296  0.194E-01  0.194E-01
 -24.286  0.157E-01  0.157E-01
 -24.276  0.122E-01  0.122E-01
 -24.266  0.884E-02  0.884E-02
 -24.256  0.567E-02  0.567E-02
 -24.246  0.266E-02  0.266E-02
 -24.236 -0.177E-03 -0.177E-03
 -24.226 -0.285E-02 -0.285E-02
 -24.216 -0.536E-02 -0.536E-02
 -24.206 -0.771E-02 -0.771E-02
 -24.196 -0.991E-02 -0.991E-02
 -24.186 -0.120E-01 -0.120E-01
 -24.176 -0.139E-01 -0.139E-01
 -24.166 -0.156E-01 -0.156E-01
 -24.156 -0.172E-01 -0.172E-01
 -24.146 -0.187E-01 -0.187E-01
 -24.136 -0.201E-01 -0.201E-01
 -24.126 -0.213E-01 -0.213E-01
 -24.116 -0.224E-01 -0.224E-01
 -24.106 -0.234E-01 -0.234E-01
 -24.096 -0.243E-01 -0.243E-01
 -24.086 -0.251E-01 -0.251E-01
 -24.076 -0.258E-01 -0.258E-01
 -24.066 -0.264E-01 -0.264E-01
 -24.056 -0.269E-01 -0.269E-01
 -24.046 -0.273E-01 -0.273E-01
 -24.036 -0.277E-01 -0.277E-01
 -24.026 -0.279E-01 -0.279E-01
 -24.016 -0.281E-01 -0.281E-01
 -24.006 -0.282E-01 -0.282E-01
 -23.996 -0.282E-01 -0.282E-01
 -23.986 -0.282E-01 -0.282E-01
 -23.976 -0.281E-01 -0.281E-01
 -23.966 -0.280E-01 -0.280E-01
 -23.956 -0.278E-01 -0.278E-01
 -23.946 -0.276E-01 -0.276E-01
 -23.936 -0.273E-01 -0.273E-01
 -23.926 -0.270E-01 -0.270E-01
 -23.916 -0.267E-01 -0.267E-01
 -23.906 -0.263E-01 -0.263E-01
 -23.896 -0.259E-01 -0.259E-01
 -23.886 -0.254E-01 -0.254E-01
 -23.876 -0.250E-01 -0.250E-01
 -23.866 -0.245E-01 -0.245E-01
 -23.856 -0.240E-01 -0.240E-01
 -23.846 -0.235E-01 -0.235E-01
 -23.836 -0.229E-01 -0.229E-01
 -23.826 -0.224E-01 -0.224E-01
 -23.816 -0.218E-01 -0.218E-01
 -23.806 -0.213E-01 -0.213E-01
 -23.796 -0.207E-01 -0.207E-01
 -23.786 -0.201E-01 -0.201E-01
 -23.776 -0.196E-01 -0.196E-01
 -23.766 -0.190E-01 -0.190E-01
 -23.756 -0.184E-01 -0.184E-01
 -23.746 -0.178E-01 -0.178E-01
 -23.736 -0.173E-01 -0.173E-01
 -23.726 -0.167E-01 -0.167E-01
 -23.716 -0.161E-01 -0.161E-01
 -23.706 -0.156E-01 -0.156E-01
 -23.696 -0.150E-01 -0.150E-01
 -23.686 -0.145E-01 -0.145E-01
 -23.676 -0.139E-01 -0.139E-01
 -23.666 -0.134E-01 -0.134E-01
 -23.656 -0.129E-01 -0.129E-01
 -23.646 -0.124E-01 -0.124E-01
 -23.636 -0.119E-01 -0.119E-01
 -23.626 -0.114E-01 -0.114E-01
 -23.616 -0.110E-01 -0.110E-01
 -23.606 -0.105E-01 -0.105E-01
 -23.596 -0.101E-01 -0.101E-01
 -23.586 -0.962E-02 -0.962E-02
 -23.576 -0.920E-02 -0.920E-02
 -23.566 -0.879E-02 -0.879E-02
 -23.556 -0.840E-02 -0.840E-02
 -23.546 -0.801E-02 -0.801E-02
 -23.536 -0.764E-02 -0.764E-02
 -23.526 -0.728E-02 -0.728E-02
 -23.516 -0.694E-02 -0.694E-02
 -23.506 -0.660E-02 -0.660E-02
 -23.496 -0.628E-02 -0.628E-02
 -23.486 -0.597E-02 -0.597E-02
 -23.476 -0.567E-02 -0.567E-02
 -23.466 -0.538E-02 -0.538E-02
 -23.456 -0.511E-02 -0.511E-02
 -23.446 -0.484E-02 -0.484E-02
 -23.436 -0.459E-02 -0.459E-02
 -23.426 -0.435E-02 -0.435E-02
 -23.416 -0.411E-02 -0.411E-02
 -23.406 -0.389E-02 -0.389E-02
 -23.396 -0.368E-02 -0.368E-02
 -23.386 -0.348E-02 -0.348E-02
 -23.376 -0.328E-02 -0.328E-02
 -23.366 -0.310E-02 -0.310E-02
 -23.356 -0.292E-02 -0.292E-02
 -23.346 -0.275E-02 -0.275E-02
 -23.336 -0.260E-02 -0.260E-02
 -23.326 -0.244E-02 -0.244E-02
 -23.316 -0.230E-02 -0.230E-02
 -23.306 -0.216E-02 -0.216E-02
 -23.296 -0.203E-02 -0.203E-02
 -23.286 -0.191E-02 -0.191E-02
 -23.276 -0.179E-02 -0.179E-02
 -23.266 -0.168E-02 -0.168E-02
 -23.256 -0.158E-02 -0.158E-02
 -23.246 -0.148E-02 -0.148E-02
 -23.236 -0.139E-02 -0.139E-02
 -23.226 -0.130E-02 -0.130E-02
 -23.216 -0.121E-02 -0.121E-02
 -23.206 -0.114E-02 -0.114E-02
 -23.196 -0.106E-02 -0.106E-02
 -23.186 -0.992E-03 -0.992E-03
 -23.176 -0.926E-03 -0.926E-03
 -23.166 -0.865E-03 -0.865E-03
 -23.156 -0.807E-03 -0.807E-03
 -23.146 -0.752E-03 -0.752E-03
 -23.136 -0.701E-03 -0.701E-03
 -23.126 -0.653E-03 -0.653E-03
 -23.116 -0.608E-03 -0.608E-03
 -23.106 -0.565E-03 -0.565E-03
 -23.096 -0.526E-03 -0.526E-03
 -23.086 -0.489E-03 -0.489E-03
 -23.076 -0.454E-03 -0.454E-03
 -23.066 -0.422E-03 -0.422E-03
 -23.056 -0.391E-03 -0.391E-03
 -23.046 -0.363E-03 -0.363E-03
 -23.036 -0.337E-03 -0.337E-03
 -23.026 -0.312E-03 -0.312E-03
 -23.016 -0.289E-03 -0.289E-03
 -23.006 -0.268E-03 -0.268E-03
 -22.996 -0.248E-03 -0.248E-03
 -22.986 -0.229E-03 -0.229E-03
 -22.976 -0.212E-03 -0.212E-03
 -22.966 -0.196E-03 -0.196E-03
 -22.956 -0.181E-03 -0.181E-03
 -22.946 -0.168E-03 -0.168E-03
 -22.936 -0.155E-03 -0.155E-03
 -22.926 -0.143E-03 -0.143E-03
 -22.916 -0.132E-03 -0.132E-03
 -22.906 -0.122E-03 -0.122E-03
 -22.896 -0.113E-03 -0.113E-03
 -22.886 -0.104E-03 -0.104E-03
 -22.876 -0.964E-04 -0.964E-04
 -22.866 -0.893E-04 -0.893E-04
 -22.856 -0.827E-04 -0.827E-04
 -22.846 -0.767E-04 -0.767E-04
 -22.836 -0.712E-04 -0.712E-04
 -22.826 -0.662E-04 -0.662E-04
 -22.816 -0.617E-04 -0.617E-04
 -22.806 -0.577E-04 -0.577E-04
 -22.796 -0.541E-04 -0.541E-04
 -22.786 -0.509E-04 -0.509E-04
 -22.776 -0.481E-04 -0.481E-04
 -22.766 -0.456E-04 -0.456E-04
 -22.756 -0.436E-04 -0.436E-04
 -22.746 -0.418E-04 -0.418E-04
 -22.736 -0.405E-04 -0.405E-04
 -22.726 -0.394E-04 -0.394E-04
 -22.716 -0.387E-04 -0.387E-04
 -22.706 -0.383E-04 -0.383E-04
 -22.696 -0.382E-04 -0.382E-04
 -22.686 -0.384E-04 -0.384E-04
 -22.676 -0.389E-04 -0.389E-04
 -22.666 -0.398E-04 -0.398E-04
 -22.656 -0.410E-04 -0.410E-04
 -22.646 -0.425E-04 -0.425E-04
 -22.636 -0.444E-04 -0.444E-04
 -22.626 -0.467E-04 -0.467E-04
 -22.616 -0.493E-04 -0.493E-04
 -22.606 -0.523E-04 -0.523E-04
 -22.596 -0.557E-04 -0.557E-04
 -22.586 -0.596E-04 -0.596E-04
 -22.576 -0.639E-04 -0.639E-04
 -22.566 -0.687E-04 -0.687E-04
 -22.556 -0.741E-04 -0.741E-04
 -22.546 -0.799E-04 -0.799E-04
 -22.536 -0.864E-04 -0.864E-04
 -22.526 -0.935E-04 -0.935E-04
 -22.516 -0.101E-03 -0.101E-03
 -22.506 -0.110E-03 -0.110E-03
 -22.496 -0.119E-03 -0.119E-03
 -22.486 -0.129E-03 -0.129E-03
 -22.476 -0.140E-03 -0.140E-03
 -22.466 -0.152E-03 -0.152E-03
 -22.456 -0.164E-03 -0.164E-03
 -22.446 -0.178E-03 -0.178E-03
 -22.436 -0.193E-03 -0.193E-03
 -22.426 -0.209E-03 -0.209E-03
 -22.416 -0.227E-03 -0.227E-03
 -22.406 -0.246E-03 -0.246E-03
 -22.396 -0.266E-03 -0.266E-03
 -22.386 -0.288E-03 -0.288E-03
 -22.376 -0.312E-03 -0.312E-03
 -22.366 -0.337E-03 -0.337E-03
 -22.356 -0.364E-03 -0.364E-03
 -22.346 -0.394E-03 -0.394E-03
 -22.336 -0.425E-03 -0.425E-03
 -22.326 -0.459E-03 -0.459E-03
 -22.316 -0.495E-03 -0.495E-03
 -22.306 -0.534E-03 -0.534E-03
 -22.296 -0.576E-03 -0.576E-03
 -22.286 -0.620E-03 -0.620E-03
 -22.276 -0.668E-03 -0.668E-03
 -22.266 -0.719E-03 -0.719E-03
 -22.256 -0.773E-03 -0.773E-03
 -22.246 -0.831E-03 -0.831E-03
 -22.236 -0.893E-03 -0.893E-03
 -22.226 -0.960E-03 -0.960E-03
 -22.216 -0.103E-02 -0.103E-02
 -22.206 -0.111E-02 -0.111E-02
 -22.196 -0.119E-02 -0.119E-02
 -22.186 -0.127E-02 -0.127E-02
 -22.176 -0.136E-02 -0.136E-02
 -22.166 -0.146E-02 -0.146E-02
 -22.156 -0.156E-02 -0.156E-02
 -22.146 -0.167E-02 -0.167E-02
 -22.136 -0.178E-02 -0.178E-02
 -22.126 -0.191E-02 -0.191E-02
 -22.116 -0.203E-02 -0.203E-02
 -22.106 -0.217E-02 -0.217E-02
 -22.096 -0.232E-02 -0.232E-02
 -22.086 -0.247E-02 -0.247E-02
 -22.076 -0.263E-02 -0.263E-02
 -22.066 -0.280E-02 -0.280E-02
 -22.056 -0.298E-02 -0.298E-02
 -22.046 -0.317E-02 -0.317E-02
 -22.036 -0.337E-02 -0.337E-02
 -22.026 -0.358E-02 -0.358E-02
 -22.016 -0.380E-02 -0.380E-02
 -22.006 -0.404E-02 -0.404E-02
 -21.996 -0.428E-02 -0.428E-02
 -21.986 -0.454E-02 -0.454E-02
 -21.976 -0.481E-02 -0.481E-02
 -21.966 -0.509E-02 -0.509E-02
 -21.956 -0.539E-02 -0.539E-02
 -21.946 -0.570E-02 -0.570E-02
 -21.936 -0.602E-02 -0.602E-02
 -21.926 -0.636E-02 -0.636E-02
 -21.916 -0.672E-02 -0.672E-02
 -21.906 -0.708E-02 -0.708E-02
 -21.896 -0.747E-02 -0.747E-02
 -21.886 -0.787E-02 -0.787E-02
 -21.876 -0.829E-02 -0.829E-02
 -21.866 -0.872E-02 -0.872E-02
 -21.856 -0.918E-02 -0.918E-02
 -21.846 -0.965E-02 -0.965E-02
 -21.836 -0.101E-01 -0.101E-01
 -21.826 -0.106E-01 -0.106E-01
 -21.816 -0.112E-01 -0.112E-01
 -21.806 -0.117E-01 -0.117E-01
 -21.796 -0.123E-01 -0.123E-01
 -21.786 -0.128E-01 -0.128E-01
 -21.776 -0.134E-01 -0.134E-01
 -21.766 -0.140E-01 -0.140E-01
 -21.756 -0.147E-01 -0.147E-01
 -21.746 -0.153E-01 -0.153E-01
 -21.736 -0.160E-01 -0.160E-01
 -21.726 -0.167E-01 -0.167E-01
 -21.716 -0.174E-01 -0.174E-01
 -21.706 -0.181E-01 -0.181E-01
 -21.696 -0.188E-01 -0.188E-01
 -21.686 -0.196E-01 -0.196E-01
 -21.676 -0.203E-01 -0.203E-01
 -21.666 -0.211E-01 -0.211E-01
 -21.656 -0.219E-01 -0.219E-01
 -21.646 -0.227E-01 -0.227E-01
 -21.636 -0.235E-01 -0.235E-01
 -21.626 -0.243E-01 -0.243E-01
 -21.616 -0.251E-01 -0.251E-01
 -21.606 -0.259E-01 -0.259E-01
 -21.596 -0.268E-01 -0.268E-01
 -21.586 -0.276E-01 -0.276E-01
 -21.576 -0.284E-01 -0.284E-01
 -21.566 -0.292E-01 -0.292E-01
 -21.556 -0.301E-01 -0.301E-01
 -21.546 -0.309E-01 -0.309E-01
 -21.536 -0.317E-01 -0.317E-01
 -21.526 -0.325E-01 -0.325E-01
 -21.516 -0.333E-01 -0.333E-01
 -21.506 -0.340E-01 -0.340E-01
 -21.496 -0.348E-01 -0.348E-01
 -21.486 -0.355E-01 -0.355E-01
 -21.476 -0.362E-01 -0.362E-01
 -21.466 -0.368E-01 -0.368E-01
 -21.456 -0.375E-01 -0.375E-01
 -21.446 -0.380E-01 -0.380E-01
 -21.436 -0.386E-01 -0.386E-01
 -21.426 -0.390E-01 -0.390E-01
 -21.416 -0.395E-01 -0.395E-01
 -21.406 -0.398E-01 -0.398E-01
 -21.396 -0.402E-01 -0.402E-01
 -21.386 -0.404E-01 -0.404E-01
 -21.376 -0.406E-01 -0.406E-01
 -21.366 -0.407E-01 -0.407E-01
 -21.356 -0.407E-01 -0.407E-01
 -21.346 -0.406E-01 -0.406E-01
 -21.336 -0.404E-01 -0.404E-01
 -21.326 -0.401E-01 -0.401E-01
 -21.316 -0.397E-01 -0.397E-01
 -21.306 -0.392E-01 -0.392E-01
 -21.296 -0.386E-01 -0.386E-01
 -21.286 -0.378E-01 -0.378E-01
 -21.276 -0.369E-01 -0.369E-01
 -21.266 -0.359E-01 -0.359E-01
 -21.256 -0.347E-01 -0.347E-01
 -21.246 -0.334E-01 -0.334E-01
 -21.236 -0.319E-01 -0.319E-01
 -21.226 -0.302E-01 -0.302E-01
 -21.216 -0.284E-01 -0.284E-01
 -21.206 -0.264E-01 -0.264E-01
 -21.196 -0.241E-01 -0.241E-01
 -21.186 -0.218E-01 -0.218E-01
 -21.176 -0.192E-01 -0.192E-01
 -21.166 -0.164E-01 -0.164E-01
 -21.156 -0.134E-01 -0.134E-01
 -21.146 -0.101E-01 -0.101E-01
 -21.136 -0.667E-02 -0.667E-02
 -21.126 -0.299E-02 -0.299E-02
 -21.116  0.923E-03  0.923E-03
 -21.106  0.508E-02  0.508E-02
 -21.096  0.948E-02  0.948E-02
 -21.086  0.141E-01  0.141E-01
 -21.076  0.190E-01  0.190E-01
 -21.066  0.242E-01  0.242E-01
 -21.056  0.296E-01  0.296E-01
 -21.046  0.353E-01  0.353E-01
 -21.036  0.413E-01  0.413E-01
 -21.026  0.475E-01  0.475E-01
 -21.016  0.540E-01  0.540E-01
 -21.006  0.608E-01  0.608E-01
 -20.996  0.678E-01  0.678E-01
 -20.986  0.752E-01  0.752E-01
 -20.976  0.828E-01  0.828E-01
 -20.966  0.906E-01  0.906E-01
 -20.956  0.988E-01  0.988E-01
 -20.946  0.107E+00  0.107E+00
 -20.936  0.116E+00  0.116E+00
 -20.926  0.125E+00  0.125E+00
 -20.916  0.134E+00  0.134E+00
 -20.906  0.144E+00  0.144E+00
 -20.896  0.153E+00  0.153E+00
 -20.886  0.163E+00  0.163E+00
 -20.876  0.174E+00  0.174E+00
 -20.866  0.184E+00  0.184E+00
 -20.856  0.195E+00  0.195E+00
 -20.846  0.206E+00  0.206E+00
 -20.836  0.217E+00  0.217E+00
 -20.826  0.228E+00  0.228E+00
 -20.816  0.240E+00  0.240E+00
 -20.806  0.252E+00  0.252E+00
 -20.796  0.264E+00  0.264E+00
 -20.786  0.276E+00  0.276E+00
 -20.776  0.288E+00  0.288E+00
 -20.766  0.301E+00  0.301E+00
 -20.756  0.313E+00  0.313E+00
 -20.746  0.326E+00  0.326E+00
 -20.736  0.339E+00  0.339E+00
 -20.726  0.351E+00  0.351E+00
 -20.716  0.364E+00  0.364E+00
 -20.706  0.377E+00  0.377E+00
 -20.696  0.390E+00  0.390E+00
 -20.686  0.403E+00  0.403E+00
 -20.676  0.417E+00  0.417E+00
 -20.666  0.430E+00  0.430E+00
 -20.656  0.443E+00  0.443E+00
 -20.646  0.456E+00  0.456E+00
 -20.636  0.468E+00  0.468E+00
 -20.626  0.481E+00  0.481E+00
 -20.616  0.494E+00  0.494E+00
 -20.606  0.507E+00  0.507E+00
 -20.596  0.519E+00  0.519E+00
 -20.586  0.531E+00  0.531E+00
 -20.576  0.543E+00  0.543E+00
 -20.566  0.555E+00  0.555E+00
 -20.556  0.567E+00  0.567E+00
 -20.546  0.578E+00  0.578E+00
 -20.536  0.590E+00  0.590E+00
 -20.526  0.601E+00  0.601E+00
 -20.516  0.611E+00  0.611E+00
 -20.506  0.622E+00  0.622E+00
 -20.496  0.632E+00  0.632E+00
 -20.486  0.641E+00  0.641E+00
 -20.476  0.651E+00  0.651E+00
 -20.466  0.660E+00  0.660E+00
 -20.456  0.668E+00  0.668E+00
 -20.446  0.676E+00  0.676E+00
 -20.436  0.684E+00  0.684E+00
 -20.426  0.691E+00  0.691E+00
 -20.416  0.698E+00  0.698E+00
 -20.406  0.705E+00  0.705E+00
 -20.396  0.711E+00  0.711E+00
 -20.386  0.716E+00  0.716E+00
 -20.376  0.721E+00  0.721E+00
 -20.366  0.725E+00  0.725E+00
 -20.356  0.729E+00  0.729E+00
 -20.346  0.733E+00  0.733E+00
 -20.336  0.736E+00  0.736E+00
 -20.326  0.738E+00  0.738E+00
 -20.316  0.740E+00  0.740E+00
 -20.306  0.742E+00  0.742E+00
 -20.296  0.742E+00  0.742E+00
 -20.286  0.743E+00  0.743E+00
 -20.276  0.742E+00  0.742E+00
 -20.266  0.742E+00  0.742E+00
 -20.256  0.740E+00  0.740E+00
 -20.246  0.739E+00  0.739E+00
 -20.236  0.736E+00  0.736E+00
 -20.226  0.733E+00  0.733E+00
 -20.216  0.730E+00  0.730E+00
 -20.206  0.726E+00  0.726E+00
 -20.196  0.722E+00  0.722E+00
 -20.186  0.717E+00  0.717E+00
 -20.176  0.711E+00  0.711E+00
 -20.166  0.705E+00  0.705E+00
 -20.156  0.699E+00  0.699E+00
 -20.146  0.692E+00  0.692E+00
 -20.136  0.685E+00  0.685E+00
 -20.126  0.677E+00  0.677E+00
 -20.116  0.669E+00  0.669E+00
 -20.106  0.661E+00  0.661E+00
 -20.096  0.652E+00  0.652E+00
 -20.086  0.643E+00  0.643E+00
 -20.076  0.633E+00  0.633E+00
 -20.066  0.623E+00  0.623E+00
 -20.056  0.613E+00  0.613E+00
 -20.046  0.602E+00  0.602E+00
 -20.036  0.591E+00  0.591E+00
 -20.026  0.580E+00  0.580E+00
 -20.016  0.569E+00  0.569E+00
 -20.006  0.557E+00  0.557E+00
 -19.996  0.545E+00  0.545E+00
 -19.986  0.533E+00  0.533E+00
 -19.976  0.521E+00  0.521E+00
 -19.966  0.508E+00  0.508E+00
 -19.956  0.496E+00  0.496E+00
 -19.946  0.483E+00  0.483E+00
 -19.936  0.470E+00  0.470E+00
 -19.926  0.457E+00  0.457E+00
 -19.916  0.445E+00  0.445E+00
 -19.906  0.432E+00  0.432E+00
 -19.896  0.419E+00  0.419E+00
 -19.886  0.406E+00  0.406E+00
 -19.876  0.393E+00  0.393E+00
 -19.866  0.380E+00  0.380E+00
 -19.856  0.367E+00  0.367E+00
 -19.846  0.354E+00  0.354E+00
 -19.836  0.341E+00  0.341E+00
 -19.826  0.328E+00  0.328E+00
 -19.816  0.316E+00  0.316E+00
 -19.806  0.303E+00  0.303E+00
 -19.796  0.291E+00  0.291E+00
 -19.786  0.278E+00  0.278E+00
 -19.776  0.266E+00  0.266E+00
 -19.766  0.254E+00  0.254E+00
 -19.756  0.243E+00  0.243E+00
 -19.746  0.231E+00  0.231E+00
 -19.736  0.220E+00  0.220E+00
 -19.726  0.209E+00  0.209E+00
 -19.716  0.198E+00  0.198E+00
 -19.706  0.187E+00  0.187E+00
 -19.696  0.177E+00  0.177E+00
 -19.686  0.166E+00  0.166E+00
 -19.676  0.156E+00  0.156E+00
 -19.666  0.147E+00  0.147E+00
 -19.656  0.137E+00  0.137E+00
 -19.646  0.128E+00  0.128E+00
 -19.636  0.119E+00  0.119E+00
 -19.626  0.111E+00  0.111E+00
 -19.616  0.102E+00  0.102E+00
 -19.606  0.941E-01  0.941E-01
 -19.596  0.863E-01  0.863E-01
 -19.586  0.788E-01  0.788E-01
 -19.576  0.716E-01  0.716E-01
 -19.566  0.646E-01  0.646E-01
 -19.556  0.579E-01  0.579E-01
 -19.546  0.515E-01  0.515E-01
 -19.536  0.454E-01  0.454E-01
 -19.526  0.396E-01  0.396E-01
 -19.516  0.340E-01  0.340E-01
 -19.506  0.287E-01  0.287E-01
 -19.496  0.236E-01  0.236E-01
 -19.486  0.188E-01  0.188E-01
 -19.476  0.143E-01  0.143E-01
 -19.466  0.100E-01  0.100E-01
 -19.456  0.599E-02  0.599E-02
 -19.446  0.220E-02  0.220E-02
 -19.436 -0.136E-02 -0.136E-02
 -19.426 -0.468E-02 -0.468E-02
 -19.416 -0.778E-02 -0.778E-02
 -19.406 -0.107E-01 -0.107E-01
 -19.396 -0.133E-01 -0.133E-01
 -19.386 -0.158E-01 -0.158E-01
 -19.376 -0.180E-01 -0.180E-01
 -19.366 -0.201E-01 -0.201E-01
 -19.356 -0.220E-01 -0.220E-01
 -19.346 -0.237E-01 -0.237E-01
 -19.336 -0.252E-01 -0.252E-01
 -19.326 -0.266E-01 -0.266E-01
 -19.316 -0.278E-01 -0.278E-01
 -19.306 -0.288E-01 -0.288E-01
 -19.296 -0.297E-01 -0.297E-01
 -19.286 -0.305E-01 -0.305E-01
 -19.276 -0.311E-01 -0.311E-01
 -19.266 -0.316E-01 -0.316E-01
 -19.256 -0.320E-01 -0.320E-01
 -19.246 -0.322E-01 -0.322E-01
 -19.236 -0.324E-01 -0.324E-01
 -19.226 -0.325E-01 -0.325E-01
 -19.216 -0.325E-01 -0.325E-01
 -19.206 -0.323E-01 -0.323E-01
 -19.196 -0.321E-01 -0.321E-01
 -19.186 -0.319E-01 -0.319E-01
 -19.176 -0.315E-01 -0.315E-01
 -19.166 -0.311E-01 -0.311E-01
 -19.156 -0.307E-01 -0.307E-01
 -19.146 -0.301E-01 -0.301E-01
 -19.136 -0.296E-01 -0.296E-01
 -19.126 -0.290E-01 -0.290E-01
 -19.116 -0.283E-01 -0.283E-01
 -19.106 -0.276E-01 -0.276E-01
 -19.096 -0.269E-01 -0.269E-01
 -19.086 -0.262E-01 -0.262E-01
 -19.076 -0.254E-01 -0.254E-01
 -19.066 -0.246E-01 -0.246E-01
 -19.056 -0.238E-01 -0.238E-01
 -19.046 -0.230E-01 -0.230E-01
 -19.036 -0.222E-01 -0.222E-01
 -19.026 -0.214E-01 -0.214E-01
 -19.016 -0.205E-01 -0.205E-01
 -19.006 -0.197E-01 -0.197E-01
 -18.996 -0.189E-01 -0.189E-01
 -18.986 -0.181E-01 -0.181E-01
 -18.976 -0.172E-01 -0.172E-01
 -18.966 -0.164E-01 -0.164E-01
 -18.956 -0.156E-01 -0.156E-01
 -18.946 -0.148E-01 -0.148E-01
 -18.936 -0.141E-01 -0.141E-01
 -18.926 -0.133E-01 -0.133E-01
 -18.916 -0.126E-01 -0.126E-01
 -18.906 -0.118E-01 -0.118E-01
 -18.896 -0.111E-01 -0.111E-01
 -18.886 -0.105E-01 -0.105E-01
 -18.876 -0.979E-02 -0.979E-02
 -18.866 -0.915E-02 -0.915E-02
 -18.856 -0.852E-02 -0.852E-02
 -18.846 -0.792E-02 -0.792E-02
 -18.836 -0.734E-02 -0.734E-02
 -18.826 -0.678E-02 -0.678E-02
 -18.816 -0.624E-02 -0.624E-02
 -18.806 -0.573E-02 -0.573E-02
 -18.796 -0.524E-02 -0.524E-02
 -18.786 -0.477E-02 -0.477E-02
 -18.776 -0.432E-02 -0.432E-02
 -18.766 -0.390E-02 -0.390E-02
 -18.756 -0.350E-02 -0.350E-02
 -18.746 -0.312E-02 -0.312E-02
 -18.736 -0.276E-02 -0.276E-02
 -18.726 -0.242E-02 -0.242E-02
 -18.716 -0.210E-02 -0.210E-02
 -18.706 -0.180E-02 -0.180E-02
 -18.696 -0.153E-02 -0.153E-02
 -18.686 -0.127E-02 -0.127E-02
 -18.676 -0.103E-02 -0.103E-02
 -18.666 -0.803E-03 -0.803E-03
 -18.656 -0.597E-03 -0.597E-03
 -18.646 -0.408E-03 -0.408E-03
 -18.636 -0.236E-03 -0.236E-03
 -18.626 -0.787E-04 -0.787E-04
 -18.616  0.635E-04  0.635E-04
 -18.606  0.191E-03  0.191E-03
 -18.596  0.306E-03  0.306E-03
 -18.586  0.407E-03  0.407E-03
 -18.576  0.496E-03  0.496E-03
 -18.566  0.573E-03  0.573E-03
 -18.556  0.640E-03  0.640E-03
 -18.546  0.695E-03  0.695E-03
 -18.536  0.741E-03  0.741E-03
 -18.526  0.777E-03  0.777E-03
 -18.516  0.805E-03  0.805E-03
 -18.506  0.825E-03  0.825E-03
 -18.496  0.837E-03  0.837E-03
 -18.486  0.842E-03  0.842E-03
 -18.476  0.840E-03  0.840E-03
 -18.466  0.833E-03  0.833E-03
 -18.456  0.820E-03  0.820E-03
 -18.446  0.802E-03  0.802E-03
 -18.436  0.779E-03  0.779E-03
 -18.426  0.752E-03  0.752E-03
 -18.416  0.722E-03  0.722E-03
 -18.406  0.688E-03  0.688E-03
 -18.396  0.651E-03  0.651E-03
 -18.386  0.612E-03  0.612E-03
 -18.376  0.571E-03  0.571E-03
 -18.366  0.528E-03  0.528E-03
 -18.356  0.483E-03  0.483E-03
 -18.346  0.437E-03  0.437E-03
 -18.336  0.390E-03  0.390E-03
 -18.326  0.343E-03  0.343E-03
 -18.316  0.294E-03  0.294E-03
 -18.306  0.246E-03  0.246E-03
 -18.296  0.198E-03  0.198E-03
 -18.286  0.150E-03  0.150E-03
 -18.276  0.102E-03  0.102E-03
 -18.266  0.551E-04  0.551E-04
 -18.256  0.871E-05  0.871E-05
 -18.246 -0.369E-04 -0.369E-04
 -18.236 -0.815E-04 -0.815E-04
 -18.226 -0.125E-03 -0.125E-03
 -18.216 -0.167E-03 -0.167E-03
 -18.206 -0.209E-03 -0.209E-03
 -18.196 -0.248E-03 -0.248E-03
 -18.186 -0.287E-03 -0.287E-03
 -18.176 -0.324E-03 -0.324E-03
 -18.166 -0.359E-03 -0.359E-03
 -18.156 -0.393E-03 -0.393E-03
 -18.146 -0.426E-03 -0.426E-03
 -18.136 -0.456E-03 -0.456E-03
 -18.126 -0.486E-03 -0.486E-03
 -18.116 -0.513E-03 -0.513E-03
 -18.106 -0.539E-03 -0.539E-03
 -18.096 -0.564E-03 -0.564E-03
 -18.086 -0.586E-03 -0.586E-03
 -18.076 -0.608E-03 -0.608E-03
 -18.066 -0.627E-03 -0.627E-03
 -18.056 -0.646E-03 -0.646E-03
 -18.046 -0.662E-03 -0.662E-03
 -18.036 -0.678E-03 -0.678E-03
 -18.026 -0.692E-03 -0.692E-03
 -18.016 -0.704E-03 -0.704E-03
 -18.006 -0.716E-03 -0.716E-03
 -17.996 -0.726E-03 -0.726E-03
 -17.986 -0.734E-03 -0.734E-03
 -17.976 -0.742E-03 -0.742E-03
 -17.966 -0.748E-03 -0.748E-03
 -17.956 -0.754E-03 -0.754E-03
 -17.946 -0.758E-03 -0.758E-03
 -17.936 -0.762E-03 -0.762E-03
 -17.926 -0.764E-03 -0.764E-03
 -17.916 -0.766E-03 -0.766E-03
 -17.906 -0.766E-03 -0.766E-03
 -17.896 -0.766E-03 -0.766E-03
 -17.886 -0.766E-03 -0.766E-03
 -17.876 -0.764E-03 -0.764E-03
 -17.866 -0.762E-03 -0.762E-03
 -17.856 -0.760E-03 -0.760E-03
 -17.846 -0.756E-03 -0.756E-03
 -17.836 -0.753E-03 -0.753E-03
 -17.826 -0.749E-03 -0.749E-03
 -17.816 -0.744E-03 -0.744E-03
 -17.806 -0.739E-03 -0.739E-03
 -17.796 -0.734E-03 -0.734E-03
 -17.786 -0.729E-03 -0.729E-03
 -17.776 -0.723E-03 -0.723E-03
 -17.766 -0.717E-03 -0.717E-03
 -17.756 -0.711E-03 -0.711E-03
 -17.746 -0.705E-03 -0.705E-03
 -17.736 -0.698E-03 -0.698E-03
 -17.726 -0.692E-03 -0.692E-03
 -17.716 -0.685E-03 -0.685E-03
 -17.706 -0.679E-03 -0.679E-03
 -17.696 -0.672E-03 -0.672E-03
 -17.686 -0.665E-03 -0.665E-03
 -17.676 -0.659E-03 -0.659E-03
 -17.666 -0.652E-03 -0.652E-03
 -17.656 -0.646E-03 -0.646E-03
 -17.646 -0.639E-03 -0.639E-03
 -17.636 -0.633E-03 -0.633E-03
 -17.626 -0.627E-03 -0.627E-03
 -17.616 -0.620E-03 -0.620E-03
 -17.606 -0.614E-03 -0.614E-03
 -17.596 -0.608E-03 -0.608E-03
 -17.586 -0.603E-03 -0.603E-03
 -17.576 -0.597E-03 -0.597E-03
 -17.566 -0.591E-03 -0.591E-03
 -17.556 -0.586E-03 -0.586E-03
 -17.546 -0.580E-03 -0.580E-03
 -17.536 -0.575E-03 -0.575E-03
 -17.526 -0.570E-03 -0.570E-03
 -17.516 -0.565E-03 -0.565E-03
 -17.506 -0.560E-03 -0.560E-03
 -17.496 -0.555E-03 -0.555E-03
 -17.486 -0.550E-03 -0.550E-03
 -17.476 -0.544E-03 -0.544E-03
 -17.466 -0.539E-03 -0.539E-03
 -17.456 -0.534E-03 -0.534E-03
 -17.446 -0.529E-03 -0.529E-03
 -17.436 -0.524E-03 -0.524E-03
 -17.426 -0.518E-03 -0.518E-03
 -17.416 -0.512E-03 -0.512E-03
 -17.406 -0.506E-03 -0.506E-03
 -17.396 -0.500E-03 -0.500E-03
 -17.386 -0.493E-03 -0.493E-03
 -17.376 -0.486E-03 -0.486E-03
 -17.366 -0.479E-03 -0.479E-03
 -17.356 -0.470E-03 -0.470E-03
 -17.346 -0.462E-03 -0.462E-03
 -17.336 -0.452E-03 -0.452E-03
 -17.326 -0.442E-03 -0.442E-03
 -17.316 -0.430E-03 -0.430E-03
 -17.306 -0.418E-03 -0.418E-03
 -17.296 -0.405E-03 -0.405E-03
 -17.286 -0.390E-03 -0.390E-03
 -17.276 -0.374E-03 -0.374E-03
 -17.266 -0.357E-03 -0.357E-03
 -17.256 -0.338E-03 -0.338E-03
 -17.246 -0.317E-03 -0.317E-03
 -17.236 -0.295E-03 -0.295E-03
 -17.226 -0.270E-03 -0.270E-03
 -17.216 -0.244E-03 -0.244E-03
 -17.206 -0.215E-03 -0.215E-03
 -17.196 -0.184E-03 -0.184E-03
 -17.186 -0.150E-03 -0.150E-03
 -17.176 -0.114E-03 -0.114E-03
 -17.166 -0.744E-04 -0.744E-04
 -17.156 -0.318E-04 -0.318E-04
 -17.146  0.141E-04  0.141E-04
 -17.136  0.634E-04  0.634E-04
 -17.126  0.117E-03  0.117E-03
 -17.116  0.173E-03  0.173E-03
 -17.106  0.234E-03  0.234E-03
 -17.096  0.300E-03  0.300E-03
 -17.086  0.370E-03  0.370E-03
 -17.076  0.444E-03  0.444E-03
 -17.066  0.524E-03  0.524E-03
 -17.056  0.609E-03  0.609E-03
 -17.046  0.699E-03  0.699E-03
 -17.036  0.795E-03  0.795E-03
 -17.026  0.896E-03  0.896E-03
 -17.016  0.100E-02  0.100E-02
 -17.006  0.112E-02  0.112E-02
 -16.996  0.124E-02  0.124E-02
 -16.986  0.137E-02  0.137E-02
 -16.976  0.150E-02  0.150E-02
 -16.966  0.164E-02  0.164E-02
 -16.956  0.179E-02  0.179E-02
 -16.946  0.195E-02  0.195E-02
 -16.936  0.211E-02  0.211E-02
 -16.926  0.228E-02  0.228E-02
 -16.916  0.246E-02  0.246E-02
 -16.906  0.265E-02  0.265E-02
 -16.896  0.285E-02  0.285E-02
 -16.886  0.305E-02  0.305E-02
 -16.876  0.327E-02  0.327E-02
 -16.866  0.349E-02  0.349E-02
 -16.856  0.373E-02  0.373E-02
 -16.846  0.397E-02  0.397E-02
 -16.836  0.422E-02  0.422E-02
 -16.826  0.448E-02  0.448E-02
 -16.816  0.475E-02  0.475E-02
 -16.806  0.503E-02  0.503E-02
 -16.796  0.532E-02  0.532E-02
 -16.786  0.562E-02  0.562E-02
 -16.776  0.593E-02  0.593E-02
 -16.766  0.625E-02  0.625E-02
 -16.756  0.657E-02  0.657E-02
 -16.746  0.691E-02  0.691E-02
 -16.736  0.726E-02  0.726E-02
 -16.726  0.761E-02  0.761E-02
 -16.716  0.798E-02  0.798E-02
 -16.706  0.835E-02  0.835E-02
 -16.696  0.873E-02  0.873E-02
 -16.686  0.912E-02  0.912E-02
 -16.676  0.952E-02  0.952E-02
 -16.666  0.993E-02  0.993E-02
 -16.656  0.103E-01  0.103E-01
 -16.646  0.108E-01  0.108E-01
 -16.636  0.112E-01  0.112E-01
 -16.626  0.116E-01  0.116E-01
 -16.616  0.121E-01  0.121E-01
 -16.606  0.125E-01  0.125E-01
 -16.596  0.130E-01  0.130E-01
 -16.586  0.134E-01  0.134E-01
 -16.576  0.139E-01  0.139E-01
 -16.566  0.144E-01  0.144E-01
 -16.556  0.149E-01  0.149E-01
 -16.546  0.153E-01  0.153E-01
 -16.536  0.158E-01  0.158E-01
 -16.526  0.163E-01  0.163E-01
 -16.516  0.168E-01  0.168E-01
 -16.506  0.173E-01  0.173E-01
 -16.496  0.177E-01  0.177E-01
 -16.486  0.182E-01  0.182E-01
 -16.476  0.187E-01  0.187E-01
 -16.466  0.192E-01  0.192E-01
 -16.456  0.197E-01  0.197E-01
 -16.446  0.201E-01  0.201E-01
 -16.436  0.206E-01  0.206E-01
 -16.426  0.211E-01  0.211E-01
 -16.416  0.216E-01  0.216E-01
 -16.406  0.220E-01  0.220E-01
 -16.396  0.225E-01  0.225E-01
 -16.386  0.229E-01  0.229E-01
 -16.376  0.233E-01  0.233E-01
 -16.366  0.238E-01  0.238E-01
 -16.356  0.242E-01  0.242E-01
 -16.346  0.246E-01  0.246E-01
 -16.336  0.250E-01  0.250E-01
 -16.326  0.254E-01  0.254E-01
 -16.316  0.257E-01  0.257E-01
 -16.306  0.261E-01  0.261E-01
 -16.296  0.265E-01  0.265E-01
 -16.286  0.268E-01  0.268E-01
 -16.276  0.271E-01  0.271E-01
 -16.266  0.274E-01  0.274E-01
 -16.256  0.277E-01  0.277E-01
 -16.246  0.280E-01  0.280E-01
 -16.236  0.282E-01  0.282E-01
 -16.226  0.285E-01  0.285E-01
 -16.216  0.287E-01  0.287E-01
 -16.206  0.289E-01  0.289E-01
 -16.196  0.291E-01  0.291E-01
 -16.186  0.292E-01  0.292E-01
 -16.176  0.294E-01  0.294E-01
 -16.166  0.295E-01  0.295E-01
 -16.156  0.296E-01  0.296E-01
 -16.146  0.297E-01  0.297E-01
 -16.136  0.298E-01  0.298E-01
 -16.126  0.298E-01  0.298E-01
 -16.116  0.298E-01  0.298E-01
 -16.106  0.298E-01  0.298E-01
 -16.096  0.298E-01  0.298E-01
 -16.086  0.298E-01  0.298E-01
 -16.076  0.297E-01  0.297E-01
 -16.066  0.296E-01  0.296E-01
 -16.056  0.295E-01  0.295E-01
 -16.046  0.294E-01  0.294E-01
 -16.036  0.293E-01  0.293E-01
 -16.026  0.291E-01  0.291E-01
 -16.016  0.289E-01  0.289E-01
 -16.006  0.287E-01  0.287E-01
 -15.996  0.285E-01  0.285E-01
 -15.986  0.283E-01  0.283E-01
 -15.976  0.280E-01  0.280E-01
 -15.966  0.277E-01  0.277E-01
 -15.956  0.275E-01  0.275E-01
 -15.946  0.271E-01  0.271E-01
 -15.936  0.268E-01  0.268E-01
 -15.926  0.265E-01  0.265E-01
 -15.916  0.261E-01  0.261E-01
 -15.906  0.258E-01  0.258E-01
 -15.896  0.254E-01  0.254E-01
 -15.886  0.250E-01  0.250E-01
 -15.876  0.246E-01  0.246E-01
 -15.866  0.241E-01  0.241E-01
 -15.856  0.237E-01  0.237E-01
 -15.846  0.232E-01  0.232E-01
 -15.836  0.228E-01  0.228E-01
 -15.826  0.223E-01  0.223E-01
 -15.816  0.218E-01  0.218E-01
 -15.806  0.214E-01  0.214E-01
 -15.796  0.209E-01  0.209E-01
 -15.786  0.204E-01  0.204E-01
 -15.776  0.199E-01  0.199E-01
 -15.766  0.193E-01  0.193E-01
 -15.756  0.188E-01  0.188E-01
 -15.746  0.183E-01  0.183E-01
 -15.736  0.178E-01  0.178E-01
 -15.726  0.173E-01  0.173E-01
 -15.716  0.167E-01  0.167E-01
 -15.706  0.162E-01  0.162E-01
 -15.696  0.157E-01  0.157E-01
 -15.686  0.151E-01  0.151E-01
 -15.676  0.146E-01  0.146E-01
 -15.666  0.141E-01  0.141E-01
 -15.656  0.136E-01  0.136E-01
 -15.646  0.130E-01  0.130E-01
 -15.636  0.125E-01  0.125E-01
 -15.626  0.120E-01  0.120E-01
 -15.616  0.115E-01  0.115E-01
 -15.606  0.110E-01  0.110E-01
 -15.596  0.105E-01  0.105E-01
 -15.586  0.998E-02  0.998E-02
 -15.576  0.949E-02  0.949E-02
 -15.566  0.900E-02  0.900E-02
 -15.556  0.853E-02  0.853E-02
 -15.546  0.805E-02  0.805E-02
 -15.536  0.759E-02  0.759E-02
 -15.526  0.713E-02  0.713E-02
 -15.516  0.669E-02  0.669E-02
 -15.506  0.625E-02  0.625E-02
 -15.496  0.581E-02  0.581E-02
 -15.486  0.539E-02  0.539E-02
 -15.476  0.497E-02  0.497E-02
 -15.466  0.457E-02  0.457E-02
 -15.456  0.417E-02  0.417E-02
 -15.446  0.378E-02  0.378E-02
 -15.436  0.341E-02  0.341E-02
 -15.426  0.304E-02  0.304E-02
 -15.416  0.268E-02  0.268E-02
 -15.406  0.232E-02  0.232E-02
 -15.396  0.198E-02  0.198E-02
 -15.386  0.165E-02  0.165E-02
 -15.376  0.133E-02  0.133E-02
 -15.366  0.101E-02  0.101E-02
 -15.356  0.704E-03  0.704E-03
 -15.346  0.407E-03  0.407E-03
 -15.336  0.118E-03  0.118E-03
 -15.326 -0.162E-03 -0.162E-03
 -15.316 -0.434E-03 -0.434E-03
 -15.306 -0.697E-03 -0.697E-03
 -15.296 -0.953E-03 -0.953E-03
 -15.286 -0.120E-02 -0.120E-02
 -15.276 -0.144E-02 -0.144E-02
 -15.266 -0.167E-02 -0.167E-02
 -15.256 -0.190E-02 -0.190E-02
 -15.246 -0.212E-02 -0.212E-02
 -15.236 -0.233E-02 -0.233E-02
 -15.226 -0.253E-02 -0.253E-02
 -15.216 -0.273E-02 -0.273E-02
 -15.206 -0.293E-02 -0.293E-02
 -15.196 -0.311E-02 -0.311E-02
 -15.186 -0.329E-02 -0.329E-02
 -15.176 -0.347E-02 -0.347E-02
 -15.166 -0.364E-02 -0.364E-02
 -15.156 -0.380E-02 -0.380E-02
 -15.146 -0.396E-02 -0.396E-02
 -15.136 -0.412E-02 -0.412E-02
 -15.126 -0.427E-02 -0.427E-02
 -15.116 -0.441E-02 -0.441E-02
 -15.106 -0.455E-02 -0.455E-02
 -15.096 -0.469E-02 -0.469E-02
 -15.086 -0.482E-02 -0.482E-02
 -15.076 -0.494E-02 -0.494E-02
 -15.066 -0.507E-02 -0.507E-02
 -15.056 -0.519E-02 -0.519E-02
 -15.046 -0.530E-02 -0.530E-02
 -15.036 -0.541E-02 -0.541E-02
 -15.026 -0.551E-02 -0.551E-02
 -15.016 -0.562E-02 -0.562E-02
 -15.006 -0.571E-02 -0.571E-02
 -14.996 -0.580E-02 -0.580E-02
 -14.986 -0.589E-02 -0.589E-02
 -14.976 -0.597E-02 -0.597E-02
 -14.966 -0.605E-02 -0.605E-02
 -14.956 -0.612E-02 -0.612E-02
 -14.946 -0.619E-02 -0.619E-02
 -14.936 -0.625E-02 -0.625E-02
 -14.926 -0.630E-02 -0.630E-02
 -14.916 -0.635E-02 -0.635E-02
 -14.906 -0.639E-02 -0.639E-02
 -14.896 -0.642E-02 -0.642E-02
 -14.886 -0.645E-02 -0.645E-02
 -14.876 -0.647E-02 -0.647E-02
 -14.866 -0.648E-02 -0.648E-02
 -14.856 -0.648E-02 -0.648E-02
 -14.846 -0.647E-02 -0.647E-02
 -14.836 -0.645E-02 -0.645E-02
 -14.826 -0.642E-02 -0.642E-02
 -14.816 -0.638E-02 -0.638E-02
 -14.806 -0.632E-02 -0.632E-02
 -14.796 -0.626E-02 -0.626E-02
 -14.786 -0.618E-02 -0.618E-02
 -14.776 -0.609E-02 -0.609E-02
 -14.766 -0.598E-02 -0.598E-02
 -14.756 -0.586E-02 -0.586E-02
 -14.746 -0.572E-02 -0.572E-02
 -14.736 -0.557E-02 -0.557E-02
 -14.726 -0.540E-02 -0.540E-02
 -14.716 -0.521E-02 -0.521E-02
 -14.706 -0.500E-02 -0.500E-02
 -14.696 -0.477E-02 -0.477E-02
 -14.686 -0.452E-02 -0.452E-02
 -14.676 -0.425E-02 -0.425E-02
 -14.666 -0.396E-02 -0.396E-02
 -14.656 -0.365E-02 -0.365E-02
 -14.646 -0.331E-02 -0.331E-02
 -14.636 -0.295E-02 -0.295E-02
 -14.626 -0.257E-02 -0.257E-02
 -14.616 -0.216E-02 -0.216E-02
 -14.606 -0.172E-02 -0.172E-02
 -14.596 -0.126E-02 -0.126E-02
 -14.586 -0.766E-03 -0.766E-03
 -14.576 -0.247E-03 -0.247E-03
 -14.566  0.301E-03  0.301E-03
 -14.556  0.879E-03  0.879E-03
 -14.546  0.149E-02  0.149E-02
 -14.536  0.212E-02  0.212E-02
 -14.526  0.279E-02  0.279E-02
 -14.516  0.349E-02  0.349E-02
 -14.506  0.423E-02  0.423E-02
 -14.496  0.499E-02  0.499E-02
 -14.486  0.579E-02  0.579E-02
 -14.476  0.662E-02  0.662E-02
 -14.466  0.748E-02  0.748E-02
 -14.456  0.838E-02  0.838E-02
 -14.446  0.931E-02  0.931E-02
 -14.436  0.103E-01  0.103E-01
 -14.426  0.113E-01  0.113E-01
 -14.416  0.123E-01  0.123E-01
 -14.406  0.134E-01  0.134E-01
 -14.396  0.145E-01  0.145E-01
 -14.386  0.156E-01  0.156E-01
 -14.376  0.168E-01  0.168E-01
 -14.366  0.180E-01  0.180E-01
 -14.356  0.192E-01  0.192E-01
 -14.346  0.205E-01  0.205E-01
 -14.336  0.218E-01  0.218E-01
 -14.326  0.231E-01  0.231E-01
 -14.316  0.244E-01  0.244E-01
 -14.306  0.258E-01  0.258E-01
 -14.296  0.272E-01  0.272E-01
 -14.286  0.287E-01  0.287E-01
 -14.276  0.301E-01  0.301E-01
 -14.266  0.316E-01  0.316E-01
 -14.256  0.332E-01  0.332E-01
 -14.246  0.347E-01  0.347E-01
 -14.236  0.363E-01  0.363E-01
 -14.226  0.378E-01  0.378E-01
 -14.216  0.394E-01  0.394E-01
 -14.206  0.411E-01  0.411E-01
 -14.196  0.427E-01  0.427E-01
 -14.186  0.444E-01  0.444E-01
 -14.176  0.460E-01  0.460E-01
 -14.166  0.477E-01  0.477E-01
 -14.156  0.494E-01  0.494E-01
 -14.146  0.511E-01  0.511E-01
 -14.136  0.528E-01  0.528E-01
 -14.126  0.545E-01  0.545E-01
 -14.116  0.562E-01  0.562E-01
 -14.106  0.579E-01  0.579E-01
 -14.096  0.597E-01  0.597E-01
 -14.086  0.614E-01  0.614E-01
 -14.076  0.631E-01  0.631E-01
 -14.066  0.648E-01  0.648E-01
 -14.056  0.665E-01  0.665E-01
 -14.046  0.682E-01  0.682E-01
 -14.036  0.698E-01  0.698E-01
 -14.026  0.715E-01  0.715E-01
 -14.016  0.731E-01  0.731E-01
 -14.006  0.747E-01  0.747E-01
 -13.996  0.763E-01  0.763E-01
 -13.986  0.779E-01  0.779E-01
 -13.976  0.795E-01  0.795E-01
 -13.966  0.810E-01  0.810E-01
 -13.956  0.825E-01  0.825E-01
 -13.946  0.840E-01  0.840E-01
 -13.936  0.854E-01  0.854E-01
 -13.926  0.868E-01  0.868E-01
 -13.916  0.882E-01  0.882E-01
 -13.906  0.895E-01  0.895E-01
 -13.896  0.908E-01  0.908E-01
 -13.886  0.920E-01  0.920E-01
 -13.876  0.933E-01  0.933E-01
 -13.866  0.944E-01  0.944E-01
 -13.856  0.955E-01  0.955E-01
 -13.846  0.966E-01  0.966E-01
 -13.836  0.976E-01  0.976E-01
 -13.826  0.986E-01  0.986E-01
 -13.816  0.995E-01  0.995E-01
 -13.806  0.100E+00  0.100E+00
 -13.796  0.101E+00  0.101E+00
 -13.786  0.102E+00  0.102E+00
 -13.776  0.103E+00  0.103E+00
 -13.766  0.103E+00  0.103E+00
 -13.756  0.104E+00  0.104E+00
 -13.746  0.104E+00  0.104E+00
 -13.736  0.105E+00  0.105E+00
 -13.726  0.105E+00  0.105E+00
 -13.716  0.106E+00  0.106E+00
 -13.706  0.106E+00  0.106E+00
 -13.696  0.106E+00  0.106E+00
 -13.686  0.107E+00  0.107E+00
 -13.676  0.107E+00  0.107E+00
 -13.666  0.107E+00  0.107E+00
 -13.656  0.107E+00  0.107E+00
 -13.646  0.107E+00  0.107E+00
 -13.636  0.107E+00  0.107E+00
 -13.626  0.106E+00  0.106E+00
 -13.616  0.106E+00  0.106E+00
 -13.606  0.106E+00  0.106E+00
 -13.596  0.106E+00  0.106E+00
 -13.586  0.105E+00  0.105E+00
 -13.576  0.105E+00  0.105E+00
 -13.566  0.104E+00  0.104E+00
 -13.556  0.104E+00  0.104E+00
 -13.546  0.103E+00  0.103E+00
 -13.536  0.103E+00  0.103E+00
 -13.526  0.102E+00  0.102E+00
 -13.516  0.101E+00  0.101E+00
 -13.506  0.100E+00  0.100E+00
 -13.496  0.994E-01  0.994E-01
 -13.486  0.986E-01  0.986E-01
 -13.476  0.976E-01  0.976E-01
 -13.466  0.967E-01  0.967E-01
 -13.456  0.957E-01  0.957E-01
 -13.446  0.946E-01  0.946E-01
 -13.436  0.935E-01  0.935E-01
 -13.426  0.924E-01  0.924E-01
 -13.416  0.913E-01  0.913E-01
 -13.406  0.901E-01  0.901E-01
 -13.396  0.889E-01  0.889E-01
 -13.386  0.877E-01  0.877E-01
 -13.376  0.864E-01  0.864E-01
 -13.366  0.851E-01  0.851E-01
 -13.356  0.838E-01  0.838E-01
 -13.346  0.824E-01  0.824E-01
 -13.336  0.811E-01  0.811E-01
 -13.326  0.797E-01  0.797E-01
 -13.316  0.783E-01  0.783E-01
 -13.306  0.769E-01  0.769E-01
 -13.296  0.755E-01  0.755E-01
 -13.286  0.740E-01  0.740E-01
 -13.276  0.726E-01  0.726E-01
 -13.266  0.711E-01  0.711E-01
 -13.256  0.697E-01  0.697E-01
 -13.246  0.682E-01  0.682E-01
 -13.236  0.667E-01  0.667E-01
 -13.226  0.653E-01  0.653E-01
 -13.216  0.638E-01  0.638E-01
 -13.206  0.623E-01  0.623E-01
 -13.196  0.608E-01  0.608E-01
 -13.186  0.594E-01  0.594E-01
 -13.176  0.579E-01  0.579E-01
 -13.166  0.564E-01  0.564E-01
 -13.156  0.550E-01  0.550E-01
 -13.146  0.535E-01  0.535E-01
 -13.136  0.521E-01  0.521E-01
 -13.126  0.507E-01  0.507E-01
 -13.116  0.493E-01  0.493E-01
 -13.106  0.478E-01  0.478E-01
 -13.096  0.465E-01  0.465E-01
 -13.086  0.451E-01  0.451E-01
 -13.076  0.437E-01  0.437E-01
 -13.066  0.424E-01  0.424E-01
 -13.056  0.410E-01  0.410E-01
 -13.046  0.397E-01  0.397E-01
 -13.036  0.384E-01  0.384E-01
 -13.026  0.372E-01  0.372E-01
 -13.016  0.359E-01  0.359E-01
 -13.006  0.347E-01  0.347E-01
 -12.996  0.334E-01  0.334E-01
 -12.986  0.322E-01  0.322E-01
 -12.976  0.311E-01  0.311E-01
 -12.966  0.299E-01  0.299E-01
 -12.956  0.288E-01  0.288E-01
 -12.946  0.277E-01  0.277E-01
 -12.936  0.266E-01  0.266E-01
 -12.926  0.255E-01  0.255E-01
 -12.916  0.245E-01  0.245E-01
 -12.906  0.235E-01  0.235E-01
 -12.896  0.225E-01  0.225E-01
 -12.886  0.215E-01  0.215E-01
 -12.876  0.206E-01  0.206E-01
 -12.866  0.196E-01  0.196E-01
 -12.856  0.187E-01  0.187E-01
 -12.846  0.179E-01  0.179E-01
 -12.836  0.170E-01  0.170E-01
 -12.826  0.162E-01  0.162E-01
 -12.816  0.154E-01  0.154E-01
 -12.806  0.146E-01  0.146E-01
 -12.796  0.138E-01  0.138E-01
 -12.786  0.131E-01  0.131E-01
 -12.776  0.124E-01  0.124E-01
 -12.766  0.117E-01  0.117E-01
 -12.756  0.110E-01  0.110E-01
 -12.746  0.104E-01  0.104E-01
 -12.736  0.973E-02  0.973E-02
 -12.726  0.913E-02  0.913E-02
 -12.716  0.854E-02  0.854E-02
 -12.706  0.798E-02  0.798E-02
 -12.696  0.743E-02  0.743E-02
 -12.686  0.691E-02  0.691E-02
 -12.676  0.640E-02  0.640E-02
 -12.666  0.591E-02  0.591E-02
 -12.656  0.545E-02  0.545E-02
 -12.646  0.500E-02  0.500E-02
 -12.636  0.457E-02  0.457E-02
 -12.626  0.415E-02  0.415E-02
 -12.616  0.376E-02  0.376E-02
 -12.606  0.338E-02  0.338E-02
 -12.596  0.302E-02  0.302E-02
 -12.586  0.267E-02  0.267E-02
 -12.576  0.234E-02  0.234E-02
 -12.566  0.203E-02  0.203E-02
 -12.556  0.173E-02  0.173E-02
 -12.546  0.144E-02  0.144E-02
 -12.536  0.117E-02  0.117E-02
 -12.526  0.909E-03  0.909E-03
 -12.516  0.665E-03  0.665E-03
 -12.506  0.433E-03  0.433E-03
 -12.496  0.213E-03  0.213E-03
 -12.486  0.590E-05  0.590E-05
 -12.476 -0.190E-03 -0.190E-03
 -12.466 -0.374E-03 -0.374E-03
 -12.456 -0.547E-03 -0.547E-03
 -12.446 -0.710E-03 -0.710E-03
 -12.436 -0.862E-03 -0.862E-03
 -12.426 -0.100E-02 -0.100E-02
 -12.416 -0.114E-02 -0.114E-02
 -12.406 -0.126E-02 -0.126E-02
 -12.396 -0.138E-02 -0.138E-02
 -12.386 -0.148E-02 -0.148E-02
 -12.376 -0.158E-02 -0.158E-02
 -12.366 -0.167E-02 -0.167E-02
 -12.356 -0.175E-02 -0.175E-02
 -12.346 -0.183E-02 -0.183E-02
 -12.336 -0.190E-02 -0.190E-02
 -12.326 -0.196E-02 -0.196E-02
 -12.316 -0.201E-02 -0.201E-02
 -12.306 -0.206E-02 -0.206E-02
 -12.296 -0.211E-02 -0.211E-02
 -12.286 -0.215E-02 -0.215E-02
 -12.276 -0.218E-02 -0.218E-02
 -12.266 -0.221E-02 -0.221E-02
 -12.256 -0.223E-02 -0.223E-02
 -12.246 -0.225E-02 -0.225E-02
 -12.236 -0.226E-02 -0.226E-02
 -12.226 -0.227E-02 -0.227E-02
 -12.216 -0.228E-02 -0.228E-02
 -12.206 -0.229E-02 -0.229E-02
 -12.196 -0.228E-02 -0.228E-02
 -12.186 -0.228E-02 -0.228E-02
 -12.176 -0.228E-02 -0.228E-02
 -12.166 -0.227E-02 -0.227E-02
 -12.156 -0.226E-02 -0.226E-02
 -12.146 -0.224E-02 -0.224E-02
 -12.136 -0.222E-02 -0.222E-02
 -12.126 -0.221E-02 -0.221E-02
 -12.116 -0.219E-02 -0.219E-02
 -12.106 -0.216E-02 -0.216E-02
 -12.096 -0.214E-02 -0.214E-02
 -12.086 -0.212E-02 -0.212E-02
 -12.076 -0.209E-02 -0.209E-02
 -12.066 -0.206E-02 -0.206E-02
 -12.056 -0.203E-02 -0.203E-02
 -12.046 -0.201E-02 -0.201E-02
 -12.036 -0.198E-02 -0.198E-02
 -12.026 -0.195E-02 -0.195E-02
 -12.016 -0.191E-02 -0.191E-02
 -12.006 -0.188E-02 -0.188E-02
 -11.996 -0.185E-02 -0.185E-02
 -11.986 -0.182E-02 -0.182E-02
 -11.976 -0.179E-02 -0.179E-02
 -11.966 -0.175E-02 -0.175E-02
 -11.956 -0.172E-02 -0.172E-02
 -11.946 -0.169E-02 -0.169E-02
 -11.936 -0.166E-02 -0.166E-02
 -11.926 -0.162E-02 -0.162E-02
 -11.916 -0.159E-02 -0.159E-02
 -11.906 -0.156E-02 -0.156E-02
 -11.896 -0.153E-02 -0.153E-02
 -11.886 -0.150E-02 -0.150E-02
 -11.876 -0.147E-02 -0.147E-02
 -11.866 -0.144E-02 -0.144E-02
 -11.856 -0.141E-02 -0.141E-02
 -11.846 -0.138E-02 -0.138E-02
 -11.836 -0.135E-02 -0.135E-02
 -11.826 -0.132E-02 -0.132E-02
 -11.816 -0.130E-02 -0.130E-02
 -11.806 -0.127E-02 -0.127E-02
 -11.796 -0.124E-02 -0.124E-02
 -11.786 -0.122E-02 -0.122E-02
 -11.776 -0.120E-02 -0.120E-02
 -11.766 -0.117E-02 -0.117E-02
 -11.756 -0.115E-02 -0.115E-02
 -11.746 -0.113E-02 -0.113E-02
 -11.736 -0.111E-02 -0.111E-02
 -11.726 -0.109E-02 -0.109E-02
 -11.716 -0.107E-02 -0.107E-02
 -11.706 -0.105E-02 -0.105E-02
 -11.696 -0.103E-02 -0.103E-02
 -11.686 -0.101E-02 -0.101E-02
 -11.676 -0.992E-03 -0.992E-03
 -11.666 -0.975E-03 -0.975E-03
 -11.656 -0.958E-03 -0.958E-03
 -11.646 -0.942E-03 -0.942E-03
 -11.636 -0.926E-03 -0.926E-03
 -11.626 -0.911E-03 -0.911E-03
 -11.616 -0.896E-03 -0.896E-03
 -11.606 -0.881E-03 -0.881E-03
 -11.596 -0.867E-03 -0.867E-03
 -11.586 -0.853E-03 -0.853E-03
 -11.576 -0.839E-03 -0.839E-03
 -11.566 -0.824E-03 -0.824E-03
 -11.556 -0.810E-03 -0.810E-03
 -11.546 -0.796E-03 -0.796E-03
 -11.536 -0.782E-03 -0.782E-03
 -11.526 -0.767E-03 -0.767E-03
 -11.516 -0.752E-03 -0.752E-03
 -11.506 -0.737E-03 -0.737E-03
 -11.496 -0.722E-03 -0.722E-03
 -11.486 -0.705E-03 -0.705E-03
 -11.476 -0.689E-03 -0.689E-03
 -11.466 -0.671E-03 -0.671E-03
 -11.456 -0.653E-03 -0.653E-03
 -11.446 -0.634E-03 -0.634E-03
 -11.436 -0.614E-03 -0.614E-03
 -11.426 -0.592E-03 -0.592E-03
 -11.416 -0.570E-03 -0.570E-03
 -11.406 -0.547E-03 -0.547E-03
 -11.396 -0.522E-03 -0.522E-03
 -11.386 -0.496E-03 -0.496E-03
 -11.376 -0.468E-03 -0.468E-03
 -11.366 -0.439E-03 -0.439E-03
 -11.356 -0.408E-03 -0.408E-03
 -11.346 -0.375E-03 -0.375E-03
 -11.336 -0.341E-03 -0.341E-03
 -11.326 -0.304E-03 -0.304E-03
 -11.316 -0.266E-03 -0.266E-03
 -11.306 -0.225E-03 -0.225E-03
 -11.296 -0.182E-03 -0.182E-03
 -11.286 -0.137E-03 -0.137E-03
 -11.276 -0.893E-04 -0.893E-04
 -11.266 -0.393E-04 -0.393E-04
 -11.256  0.133E-04  0.133E-04
 -11.246  0.684E-04  0.684E-04
 -11.236  0.126E-03  0.126E-03
 -11.226  0.187E-03  0.187E-03
 -11.216  0.250E-03  0.250E-03
 -11.206  0.316E-03  0.316E-03
 -11.196  0.385E-03  0.385E-03
 -11.186  0.457E-03  0.457E-03
 -11.176  0.532E-03  0.532E-03
 -11.166  0.610E-03  0.610E-03
 -11.156  0.692E-03  0.692E-03
 -11.146  0.776E-03  0.776E-03
 -11.136  0.863E-03  0.863E-03
 -11.126  0.954E-03  0.954E-03
 -11.116  0.105E-02  0.105E-02
 -11.106  0.114E-02  0.114E-02
 -11.096  0.124E-02  0.124E-02
 -11.086  0.135E-02  0.135E-02
 -11.076  0.145E-02  0.145E-02
 -11.066  0.156E-02  0.156E-02
 -11.056  0.167E-02  0.167E-02
 -11.046  0.179E-02  0.179E-02
 -11.036  0.191E-02  0.191E-02
 -11.026  0.203E-02  0.203E-02
 -11.016  0.215E-02  0.215E-02
 -11.006  0.228E-02  0.228E-02
 -10.996  0.241E-02  0.241E-02
 -10.986  0.254E-02  0.254E-02
 -10.976  0.267E-02  0.267E-02
 -10.966  0.281E-02  0.281E-02
 -10.956  0.295E-02  0.295E-02
 -10.946  0.309E-02  0.309E-02
 -10.936  0.323E-02  0.323E-02
 -10.926  0.338E-02  0.338E-02
 -10.916  0.352E-02  0.352E-02
 -10.906  0.367E-02  0.367E-02
 -10.896  0.382E-02  0.382E-02
 -10.886  0.397E-02  0.397E-02
 -10.876  0.412E-02  0.412E-02
 -10.866  0.428E-02  0.428E-02
 -10.856  0.443E-02  0.443E-02
 -10.846  0.458E-02  0.458E-02
 -10.836  0.474E-02  0.474E-02
 -10.826  0.489E-02  0.489E-02
 -10.816  0.505E-02  0.505E-02
 -10.806  0.520E-02  0.520E-02
 -10.796  0.535E-02  0.535E-02
 -10.786  0.550E-02  0.550E-02
 -10.776  0.565E-02  0.565E-02
 -10.766  0.580E-02  0.580E-02
 -10.756  0.595E-02  0.595E-02
 -10.746  0.610E-02  0.610E-02
 -10.736  0.624E-02  0.624E-02
 -10.726  0.639E-02  0.639E-02
 -10.716  0.653E-02  0.653E-02
 -10.706  0.666E-02  0.666E-02
 -10.696  0.680E-02  0.680E-02
 -10.686  0.693E-02  0.693E-02
 -10.676  0.706E-02  0.706E-02
 -10.666  0.718E-02  0.718E-02
 -10.656  0.730E-02  0.730E-02
 -10.646  0.742E-02  0.742E-02
 -10.636  0.753E-02  0.753E-02
 -10.626  0.764E-02  0.764E-02
 -10.616  0.775E-02  0.775E-02
 -10.606  0.785E-02  0.785E-02
 -10.596  0.794E-02  0.794E-02
 -10.586  0.803E-02  0.803E-02
 -10.576  0.812E-02  0.812E-02
 -10.566  0.820E-02  0.820E-02
 -10.556  0.827E-02  0.827E-02
 -10.546  0.834E-02  0.834E-02
 -10.536  0.840E-02  0.840E-02
 -10.526  0.846E-02  0.846E-02
 -10.516  0.851E-02  0.851E-02
 -10.506  0.855E-02  0.855E-02
 -10.496  0.859E-02  0.859E-02
 -10.486  0.862E-02  0.862E-02
 -10.476  0.865E-02  0.865E-02
 -10.466  0.867E-02  0.867E-02
 -10.456  0.868E-02  0.868E-02
 -10.446  0.869E-02  0.869E-02
 -10.436  0.869E-02  0.869E-02
 -10.426  0.869E-02  0.869E-02
 -10.416  0.868E-02  0.868E-02
 -10.406  0.866E-02  0.866E-02
 -10.396  0.864E-02  0.864E-02
 -10.386  0.861E-02  0.861E-02
 -10.376  0.857E-02  0.857E-02
 -10.366  0.853E-02  0.853E-02
 -10.356  0.849E-02  0.849E-02
 -10.346  0.844E-02  0.844E-02
 -10.336  0.838E-02  0.838E-02
 -10.326  0.832E-02  0.832E-02
 -10.316  0.825E-02  0.825E-02
 -10.306  0.818E-02  0.818E-02
 -10.296  0.811E-02  0.811E-02
 -10.286  0.803E-02  0.803E-02
 -10.276  0.794E-02  0.794E-02
 -10.266  0.785E-02  0.785E-02
 -10.256  0.776E-02  0.776E-02
 -10.246  0.767E-02  0.767E-02
 -10.236  0.757E-02  0.757E-02
 -10.226  0.747E-02  0.747E-02
 -10.216  0.737E-02  0.737E-02
 -10.206  0.726E-02  0.726E-02
 -10.196  0.716E-02  0.716E-02
 -10.186  0.705E-02  0.705E-02
 -10.176  0.694E-02  0.694E-02
 -10.166  0.683E-02  0.683E-02
 -10.156  0.671E-02  0.671E-02
 -10.146  0.660E-02  0.660E-02
 -10.136  0.649E-02  0.649E-02
 -10.126  0.638E-02  0.638E-02
 -10.116  0.627E-02  0.627E-02
 -10.106  0.616E-02  0.616E-02
 -10.096  0.605E-02  0.605E-02
 -10.086  0.594E-02  0.594E-02
 -10.076  0.583E-02  0.583E-02
 -10.066  0.573E-02  0.573E-02
 -10.056  0.563E-02  0.563E-02
 -10.046  0.553E-02  0.553E-02
 -10.036  0.544E-02  0.544E-02
 -10.026  0.534E-02  0.534E-02
 -10.016  0.525E-02  0.525E-02
 -10.006  0.517E-02  0.517E-02
  -9.996  0.509E-02  0.509E-02
  -9.986  0.501E-02  0.501E-02
  -9.976  0.494E-02  0.494E-02
  -9.966  0.487E-02  0.487E-02
  -9.956  0.481E-02  0.481E-02
  -9.946  0.475E-02  0.475E-02
  -9.936  0.470E-02  0.470E-02
  -9.926  0.465E-02  0.465E-02
  -9.916  0.461E-02  0.461E-02
  -9.906  0.458E-02  0.458E-02
  -9.896  0.455E-02  0.455E-02
  -9.886  0.453E-02  0.453E-02
  -9.876  0.451E-02  0.451E-02
  -9.866  0.450E-02  0.450E-02
  -9.856  0.449E-02  0.449E-02
  -9.846  0.449E-02  0.449E-02
  -9.836  0.450E-02  0.450E-02
  -9.826  0.452E-02  0.452E-02
  -9.816  0.454E-02  0.454E-02
  -9.806  0.456E-02  0.456E-02
  -9.796  0.460E-02  0.460E-02
  -9.786  0.464E-02  0.464E-02
  -9.776  0.468E-02  0.468E-02
  -9.766  0.474E-02  0.474E-02
  -9.756  0.479E-02  0.479E-02
  -9.746  0.486E-02  0.486E-02
  -9.736  0.493E-02  0.493E-02
  -9.726  0.500E-02  0.500E-02
  -9.716  0.508E-02  0.508E-02
  -9.706  0.517E-02  0.517E-02
  -9.696  0.526E-02  0.526E-02
  -9.686  0.535E-02  0.535E-02
  -9.676  0.545E-02  0.545E-02
  -9.666  0.556E-02  0.556E-02
  -9.656  0.567E-02  0.567E-02
  -9.646  0.578E-02  0.578E-02
  -9.636  0.590E-02  0.590E-02
  -9.626  0.602E-02  0.602E-02
  -9.616  0.614E-02  0.614E-02
  -9.606  0.627E-02  0.627E-02
  -9.596  0.640E-02  0.640E-02
  -9.586  0.653E-02  0.653E-02
  -9.576  0.667E-02  0.667E-02
  -9.566  0.680E-02  0.680E-02
  -9.556  0.694E-02  0.694E-02
  -9.546  0.708E-02  0.708E-02
  -9.536  0.722E-02  0.722E-02
  -9.526  0.736E-02  0.736E-02
  -9.516  0.750E-02  0.750E-02
  -9.506  0.765E-02  0.765E-02
  -9.496  0.779E-02  0.779E-02
  -9.486  0.793E-02  0.793E-02
  -9.476  0.807E-02  0.807E-02
  -9.466  0.821E-02  0.821E-02
  -9.456  0.834E-02  0.834E-02
  -9.446  0.848E-02  0.848E-02
  -9.436  0.861E-02  0.861E-02
  -9.426  0.874E-02  0.874E-02
  -9.416  0.887E-02  0.887E-02
  -9.406  0.900E-02  0.900E-02
  -9.396  0.912E-02  0.912E-02
  -9.386  0.924E-02  0.924E-02
  -9.376  0.936E-02  0.936E-02
  -9.366  0.947E-02  0.947E-02
  -9.356  0.958E-02  0.958E-02
  -9.346  0.969E-02  0.969E-02
  -9.336  0.979E-02  0.979E-02
  -9.326  0.989E-02  0.989E-02
  -9.316  0.998E-02  0.998E-02
  -9.306  0.101E-01  0.101E-01
  -9.296  0.102E-01  0.102E-01
  -9.286  0.102E-01  0.102E-01
  -9.276  0.103E-01  0.103E-01
  -9.266  0.104E-01  0.104E-01
  -9.256  0.104E-01  0.104E-01
  -9.246  0.105E-01  0.105E-01
  -9.236  0.105E-01  0.105E-01
  -9.226  0.106E-01  0.106E-01
  -9.216  0.106E-01  0.106E-01
  -9.206  0.107E-01  0.107E-01
  -9.196  0.107E-01  0.107E-01
  -9.186  0.107E-01  0.107E-01
  -9.176  0.108E-01  0.108E-01
  -9.166  0.108E-01  0.108E-01
  -9.156  0.108E-01  0.108E-01
  -9.146  0.108E-01  0.108E-01
  -9.136  0.108E-01  0.108E-01
  -9.126  0.108E-01  0.108E-01
  -9.116  0.108E-01  0.108E-01
  -9.106  0.108E-01  0.108E-01
  -9.096  0.107E-01  0.107E-01
  -9.086  0.107E-01  0.107E-01
  -9.076  0.107E-01  0.107E-01
  -9.066  0.106E-01  0.106E-01
  -9.056  0.106E-01  0.106E-01
  -9.046  0.106E-01  0.106E-01
  -9.036  0.105E-01  0.105E-01
  -9.026  0.105E-01  0.105E-01
  -9.016  0.104E-01  0.104E-01
  -9.006  0.104E-01  0.104E-01
  -8.996  0.103E-01  0.103E-01
  -8.986  0.102E-01  0.102E-01
  -8.976  0.102E-01  0.102E-01
  -8.966  0.101E-01  0.101E-01
  -8.956  0.100E-01  0.100E-01
  -8.946  0.995E-02  0.995E-02
  -8.936  0.987E-02  0.987E-02
  -8.926  0.979E-02  0.979E-02
  -8.916  0.970E-02  0.970E-02
  -8.906  0.962E-02  0.962E-02
  -8.896  0.953E-02  0.953E-02
  -8.886  0.945E-02  0.945E-02
  -8.876  0.936E-02  0.936E-02
  -8.866  0.927E-02  0.927E-02
  -8.856  0.918E-02  0.918E-02
  -8.846  0.908E-02  0.908E-02
  -8.836  0.899E-02  0.899E-02
  -8.826  0.889E-02  0.889E-02
  -8.816  0.880E-02  0.880E-02
  -8.806  0.870E-02  0.870E-02
  -8.796  0.861E-02  0.861E-02
  -8.786  0.851E-02  0.851E-02
  -8.776  0.841E-02  0.841E-02
  -8.766  0.832E-02  0.832E-02
  -8.756  0.822E-02  0.822E-02
  -8.746  0.812E-02  0.812E-02
  -8.736  0.803E-02  0.803E-02
  -8.726  0.793E-02  0.793E-02
  -8.716  0.784E-02  0.784E-02
  -8.706  0.774E-02  0.774E-02
  -8.696  0.764E-02  0.764E-02
  -8.686  0.755E-02  0.755E-02
  -8.676  0.746E-02  0.746E-02
  -8.666  0.736E-02  0.736E-02
  -8.656  0.727E-02  0.727E-02
  -8.646  0.718E-02  0.718E-02
  -8.636  0.708E-02  0.708E-02
  -8.626  0.699E-02  0.699E-02
  -8.616  0.690E-02  0.690E-02
  -8.606  0.681E-02  0.681E-02
  -8.596  0.672E-02  0.672E-02
  -8.586  0.663E-02  0.663E-02
  -8.576  0.654E-02  0.654E-02
  -8.566  0.645E-02  0.645E-02
  -8.556  0.637E-02  0.637E-02
  -8.546  0.628E-02  0.628E-02
  -8.536  0.619E-02  0.619E-02
  -8.526  0.611E-02  0.611E-02
  -8.516  0.602E-02  0.602E-02
  -8.506  0.594E-02  0.594E-02
  -8.496  0.585E-02  0.585E-02
  -8.486  0.577E-02  0.577E-02
  -8.476  0.568E-02  0.568E-02
  -8.466  0.560E-02  0.560E-02
  -8.456  0.551E-02  0.551E-02
  -8.446  0.543E-02  0.543E-02
  -8.436  0.535E-02  0.535E-02
  -8.426  0.526E-02  0.526E-02
  -8.416  0.518E-02  0.518E-02
  -8.406  0.510E-02  0.510E-02
  -8.396  0.502E-02  0.502E-02
  -8.386  0.493E-02  0.493E-02
  -8.376  0.485E-02  0.485E-02
  -8.366  0.477E-02  0.477E-02
  -8.356  0.469E-02  0.469E-02
  -8.346  0.460E-02  0.460E-02
  -8.336  0.452E-02  0.452E-02
  -8.326  0.444E-02  0.444E-02
  -8.316  0.436E-02  0.436E-02
  -8.306  0.427E-02  0.427E-02
  -8.296  0.419E-02  0.419E-02
  -8.286  0.411E-02  0.411E-02
  -8.276  0.402E-02  0.402E-02
  -8.266  0.394E-02  0.394E-02
  -8.256  0.386E-02  0.386E-02
  -8.246  0.377E-02  0.377E-02
  -8.236  0.369E-02  0.369E-02
  -8.226  0.361E-02  0.361E-02
  -8.216  0.352E-02  0.352E-02
  -8.206  0.344E-02  0.344E-02
  -8.196  0.336E-02  0.336E-02
  -8.186  0.327E-02  0.327E-02
  -8.176  0.319E-02  0.319E-02
  -8.166  0.310E-02  0.310E-02
  -8.156  0.302E-02  0.302E-02
  -8.146  0.294E-02  0.294E-02
  -8.136  0.285E-02  0.285E-02
  -8.126  0.277E-02  0.277E-02
  -8.116  0.269E-02  0.269E-02
  -8.106  0.260E-02  0.260E-02
  -8.096  0.252E-02  0.252E-02
  -8.086  0.244E-02  0.244E-02
  -8.076  0.236E-02  0.236E-02
  -8.066  0.227E-02  0.227E-02
  -8.056  0.219E-02  0.219E-02
  -8.046  0.211E-02  0.211E-02
  -8.036  0.203E-02  0.203E-02
  -8.026  0.195E-02  0.195E-02
  -8.016  0.187E-02  0.187E-02
  -8.006  0.179E-02  0.179E-02
  -7.996  0.171E-02  0.171E-02
  -7.986  0.164E-02  0.164E-02
  -7.976  0.156E-02  0.156E-02
  -7.966  0.148E-02  0.148E-02
  -7.956  0.141E-02  0.141E-02
  -7.946  0.133E-02  0.133E-02
  -7.936  0.126E-02  0.126E-02
  -7.926  0.118E-02  0.118E-02
  -7.916  0.111E-02  0.111E-02
  -7.906  0.104E-02  0.104E-02
  -7.896  0.966E-03  0.966E-03
  -7.886  0.896E-03  0.896E-03
  -7.876  0.826E-03  0.826E-03
  -7.866  0.758E-03  0.758E-03
  -7.856  0.690E-03  0.690E-03
  -7.846  0.624E-03  0.624E-03
  -7.836  0.558E-03  0.558E-03
  -7.826  0.494E-03  0.494E-03
  -7.816  0.431E-03  0.431E-03
  -7.806  0.368E-03  0.368E-03
  -7.796  0.307E-03  0.307E-03
  -7.786  0.247E-03  0.247E-03
  -7.776  0.188E-03  0.188E-03
  -7.766  0.130E-03  0.130E-03
  -7.756  0.737E-04  0.737E-04
  -7.746  0.181E-04  0.181E-04
  -7.736 -0.362E-04 -0.362E-04
  -7.726 -0.894E-04 -0.894E-04
  -7.716 -0.141E-03 -0.141E-03
  -7.706 -0.192E-03 -0.192E-03
  -7.696 -0.241E-03 -0.241E-03
  -7.686 -0.290E-03 -0.290E-03
  -7.676 -0.337E-03 -0.337E-03
  -7.666 -0.382E-03 -0.382E-03
  -7.656 -0.427E-03 -0.427E-03
  -7.646 -0.469E-03 -0.469E-03
  -7.636 -0.511E-03 -0.511E-03
  -7.626 -0.551E-03 -0.551E-03
  -7.616 -0.590E-03 -0.590E-03
  -7.606 -0.627E-03 -0.627E-03
  -7.596 -0.663E-03 -0.663E-03
  -7.586 -0.698E-03 -0.698E-03
  -7.576 -0.730E-03 -0.730E-03
  -7.566 -0.761E-03 -0.761E-03
  -7.556 -0.791E-03 -0.791E-03
  -7.546 -0.819E-03 -0.819E-03
  -7.536 -0.845E-03 -0.845E-03
  -7.526 -0.869E-03 -0.869E-03
  -7.516 -0.892E-03 -0.892E-03
  -7.506 -0.913E-03 -0.913E-03
  -7.496 -0.931E-03 -0.931E-03
  -7.486 -0.948E-03 -0.948E-03
  -7.476 -0.962E-03 -0.962E-03
  -7.466 -0.975E-03 -0.975E-03
  -7.456 -0.985E-03 -0.985E-03
  -7.446 -0.993E-03 -0.993E-03
  -7.436 -0.999E-03 -0.999E-03
  -7.426 -0.100E-02 -0.100E-02
  -7.416 -0.100E-02 -0.100E-02
  -7.406 -0.100E-02 -0.100E-02
  -7.396 -0.995E-03 -0.995E-03
  -7.386 -0.987E-03 -0.987E-03
  -7.376 -0.976E-03 -0.976E-03
  -7.366 -0.963E-03 -0.963E-03
  -7.356 -0.946E-03 -0.946E-03
  -7.346 -0.925E-03 -0.925E-03
  -7.336 -0.902E-03 -0.902E-03
  -7.326 -0.875E-03 -0.875E-03
  -7.316 -0.844E-03 -0.844E-03
  -7.306 -0.810E-03 -0.810E-03
  -7.296 -0.771E-03 -0.771E-03
  -7.286 -0.729E-03 -0.729E-03
  -7.276 -0.683E-03 -0.683E-03
  -7.266 -0.632E-03 -0.632E-03
  -7.256 -0.577E-03 -0.577E-03
  -7.246 -0.518E-03 -0.518E-03
  -7.236 -0.454E-03 -0.454E-03
  -7.226 -0.385E-03 -0.385E-03
  -7.216 -0.311E-03 -0.311E-03
  -7.206 -0.233E-03 -0.233E-03
  -7.196 -0.149E-03 -0.149E-03
  -7.186 -0.604E-04 -0.604E-04
  -7.176  0.337E-04  0.337E-04
  -7.166  0.133E-03  0.133E-03
  -7.156  0.238E-03  0.238E-03
  -7.146  0.349E-03  0.349E-03
  -7.136  0.465E-03  0.465E-03
  -7.126  0.588E-03  0.588E-03
  -7.116  0.716E-03  0.716E-03
  -7.106  0.850E-03  0.850E-03
  -7.096  0.990E-03  0.990E-03
  -7.086  0.114E-02  0.114E-02
  -7.076  0.129E-02  0.129E-02
  -7.066  0.145E-02  0.145E-02
  -7.056  0.161E-02  0.161E-02
  -7.046  0.178E-02  0.178E-02
  -7.036  0.196E-02  0.196E-02
  -7.026  0.215E-02  0.215E-02
  -7.016  0.234E-02  0.234E-02
  -7.006  0.253E-02  0.253E-02
  -6.996  0.274E-02  0.274E-02
  -6.986  0.295E-02  0.295E-02
  -6.976  0.316E-02  0.316E-02
  -6.966  0.338E-02  0.338E-02
  -6.956  0.361E-02  0.361E-02
  -6.946  0.385E-02  0.385E-02
  -6.936  0.409E-02  0.409E-02
  -6.926  0.433E-02  0.433E-02
  -6.916  0.459E-02  0.459E-02
  -6.906  0.484E-02  0.484E-02
  -6.896  0.511E-02  0.511E-02
  -6.886  0.538E-02  0.538E-02
  -6.876  0.565E-02  0.565E-02
  -6.866  0.593E-02  0.593E-02
  -6.856  0.622E-02  0.622E-02
  -6.846  0.650E-02  0.650E-02
  -6.836  0.680E-02  0.680E-02
  -6.826  0.710E-02  0.710E-02
  -6.816  0.740E-02  0.740E-02
  -6.806  0.770E-02  0.770E-02
  -6.796  0.801E-02  0.801E-02
  -6.786  0.832E-02  0.832E-02
  -6.776  0.864E-02  0.864E-02
  -6.766  0.896E-02  0.896E-02
  -6.756  0.928E-02  0.928E-02
  -6.746  0.960E-02  0.960E-02
  -6.736  0.992E-02  0.992E-02
  -6.726  0.102E-01  0.102E-01
  -6.716  0.106E-01  0.106E-01
  -6.706  0.109E-01  0.109E-01
  -6.696  0.112E-01  0.112E-01
  -6.686  0.116E-01  0.116E-01
  -6.676  0.119E-01  0.119E-01
  -6.666  0.122E-01  0.122E-01
  -6.656  0.125E-01  0.125E-01
  -6.646  0.128E-01  0.128E-01
  -6.636  0.132E-01  0.132E-01
  -6.626  0.135E-01  0.135E-01
  -6.616  0.138E-01  0.138E-01
  -6.606  0.141E-01  0.141E-01
  -6.596  0.144E-01  0.144E-01
  -6.586  0.147E-01  0.147E-01
  -6.576  0.150E-01  0.150E-01
  -6.566  0.153E-01  0.153E-01
  -6.556  0.156E-01  0.156E-01
  -6.546  0.159E-01  0.159E-01
  -6.536  0.161E-01  0.161E-01
  -6.526  0.164E-01  0.164E-01
  -6.516  0.167E-01  0.167E-01
  -6.506  0.169E-01  0.169E-01
  -6.496  0.172E-01  0.172E-01
  -6.486  0.174E-01  0.174E-01
  -6.476  0.176E-01  0.176E-01
  -6.466  0.178E-01  0.178E-01
  -6.456  0.181E-01  0.181E-01
  -6.446  0.183E-01  0.183E-01
  -6.436  0.184E-01  0.184E-01
  -6.426  0.186E-01  0.186E-01
  -6.416  0.188E-01  0.188E-01
  -6.406  0.189E-01  0.189E-01
  -6.396  0.191E-01  0.191E-01
  -6.386  0.192E-01  0.192E-01
  -6.376  0.193E-01  0.193E-01
  -6.366  0.194E-01  0.194E-01
  -6.356  0.195E-01  0.195E-01
  -6.346  0.196E-01  0.196E-01
  -6.336  0.197E-01  0.197E-01
  -6.326  0.198E-01  0.198E-01
  -6.316  0.198E-01  0.198E-01
  -6.306  0.198E-01  0.198E-01
  -6.296  0.199E-01  0.199E-01
  -6.286  0.199E-01  0.199E-01
  -6.276  0.199E-01  0.199E-01
  -6.266  0.198E-01  0.198E-01
  -6.256  0.198E-01  0.198E-01
  -6.246  0.198E-01  0.198E-01
  -6.236  0.197E-01  0.197E-01
  -6.226  0.196E-01  0.196E-01
  -6.216  0.196E-01  0.196E-01
  -6.206  0.195E-01  0.195E-01
  -6.196  0.194E-01  0.194E-01
  -6.186  0.192E-01  0.192E-01
  -6.176  0.191E-01  0.191E-01
  -6.166  0.190E-01  0.190E-01
  -6.156  0.188E-01  0.188E-01
  -6.146  0.187E-01  0.187E-01
  -6.136  0.185E-01  0.185E-01
  -6.126  0.183E-01  0.183E-01
  -6.116  0.181E-01  0.181E-01
  -6.106  0.179E-01  0.179E-01
  -6.096  0.177E-01  0.177E-01
  -6.086  0.174E-01  0.174E-01
  -6.076  0.172E-01  0.172E-01
  -6.066  0.169E-01  0.169E-01
  -6.056  0.167E-01  0.167E-01
  -6.046  0.164E-01  0.164E-01
  -6.036  0.161E-01  0.161E-01
  -6.026  0.159E-01  0.159E-01
  -6.016  0.156E-01  0.156E-01
  -6.006  0.153E-01  0.153E-01
  -5.996  0.150E-01  0.150E-01
  -5.986  0.147E-01  0.147E-01
  -5.976  0.144E-01  0.144E-01
  -5.966  0.140E-01  0.140E-01
  -5.956  0.137E-01  0.137E-01
  -5.946  0.134E-01  0.134E-01
  -5.936  0.131E-01  0.131E-01
  -5.926  0.127E-01  0.127E-01
  -5.916  0.124E-01  0.124E-01
  -5.906  0.120E-01  0.120E-01
  -5.896  0.117E-01  0.117E-01
  -5.886  0.114E-01  0.114E-01
  -5.876  0.110E-01  0.110E-01
  -5.866  0.107E-01  0.107E-01
  -5.856  0.103E-01  0.103E-01
  -5.846  0.996E-02  0.996E-02
  -5.836  0.962E-02  0.962E-02
  -5.826  0.927E-02  0.927E-02
  -5.816  0.893E-02  0.893E-02
  -5.806  0.858E-02  0.858E-02
  -5.796  0.824E-02  0.824E-02
  -5.786  0.790E-02  0.790E-02
  -5.776  0.756E-02  0.756E-02
  -5.766  0.723E-02  0.723E-02
  -5.756  0.690E-02  0.690E-02
  -5.746  0.657E-02  0.657E-02
  -5.736  0.625E-02  0.625E-02
  -5.726  0.593E-02  0.593E-02
  -5.716  0.561E-02  0.561E-02
  -5.706  0.530E-02  0.530E-02
  -5.696  0.500E-02  0.500E-02
  -5.686  0.470E-02  0.470E-02
  -5.676  0.440E-02  0.440E-02
  -5.666  0.411E-02  0.411E-02
  -5.656  0.383E-02  0.383E-02
  -5.646  0.356E-02  0.356E-02
  -5.636  0.329E-02  0.329E-02
  -5.626  0.302E-02  0.302E-02
  -5.616  0.277E-02  0.277E-02
  -5.606  0.252E-02  0.252E-02
  -5.596  0.228E-02  0.228E-02
  -5.586  0.204E-02  0.204E-02
  -5.576  0.182E-02  0.182E-02
  -5.566  0.160E-02  0.160E-02
  -5.556  0.139E-02  0.139E-02
  -5.546  0.118E-02  0.118E-02
  -5.536  0.988E-03  0.988E-03
  -5.526  0.802E-03  0.802E-03
  -5.516  0.624E-03  0.624E-03
  -5.506  0.455E-03  0.455E-03
  -5.496  0.294E-03  0.294E-03
  -5.486  0.142E-03  0.142E-03
  -5.476 -0.137E-05 -0.137E-05
  -5.466 -0.136E-03 -0.136E-03
  -5.456 -0.261E-03 -0.261E-03
  -5.446 -0.377E-03 -0.377E-03
  -5.436 -0.483E-03 -0.483E-03
  -5.426 -0.581E-03 -0.581E-03
  -5.416 -0.669E-03 -0.669E-03
  -5.406 -0.748E-03 -0.748E-03
  -5.396 -0.817E-03 -0.817E-03
  -5.386 -0.876E-03 -0.876E-03
  -5.376 -0.926E-03 -0.926E-03
  -5.366 -0.966E-03 -0.966E-03
  -5.356 -0.996E-03 -0.996E-03
  -5.346 -0.102E-02 -0.102E-02
  -5.336 -0.103E-02 -0.103E-02
  -5.326 -0.103E-02 -0.103E-02
  -5.316 -0.102E-02 -0.102E-02
  -5.306 -0.999E-03 -0.999E-03
  -5.296 -0.970E-03 -0.970E-03
  -5.286 -0.930E-03 -0.930E-03
  -5.276 -0.881E-03 -0.881E-03
  -5.266 -0.821E-03 -0.821E-03
  -5.256 -0.751E-03 -0.751E-03
  -5.246 -0.670E-03 -0.670E-03
  -5.236 -0.580E-03 -0.580E-03
  -5.226 -0.479E-03 -0.479E-03
  -5.216 -0.368E-03 -0.368E-03
  -5.206 -0.246E-03 -0.246E-03
  -5.196 -0.115E-03 -0.115E-03
  -5.186  0.273E-04  0.273E-04
  -5.176  0.179E-03  0.179E-03
  -5.166  0.342E-03  0.342E-03
  -5.156  0.514E-03  0.514E-03
  -5.146  0.697E-03  0.697E-03
  -5.136  0.890E-03  0.890E-03
  -5.126  0.109E-02  0.109E-02
  -5.116  0.131E-02  0.131E-02
  -5.106  0.153E-02  0.153E-02
  -5.096  0.176E-02  0.176E-02
  -5.086  0.200E-02  0.200E-02
  -5.076  0.225E-02  0.225E-02
  -5.066  0.252E-02  0.252E-02
  -5.056  0.279E-02  0.279E-02
  -5.046  0.306E-02  0.306E-02
  -5.036  0.335E-02  0.335E-02
  -5.026  0.365E-02  0.365E-02
  -5.016  0.396E-02  0.396E-02
  -5.006  0.427E-02  0.427E-02
  -4.996  0.459E-02  0.459E-02
  -4.986  0.492E-02  0.492E-02
  -4.976  0.526E-02  0.526E-02
  -4.966  0.561E-02  0.561E-02
  -4.956  0.596E-02  0.596E-02
  -4.946  0.632E-02  0.632E-02
  -4.936  0.668E-02  0.668E-02
  -4.926  0.705E-02  0.705E-02
  -4.916  0.743E-02  0.743E-02
  -4.906  0.781E-02  0.781E-02
  -4.896  0.820E-02  0.820E-02
  -4.886  0.859E-02  0.859E-02
  -4.876  0.899E-02  0.899E-02
  -4.866  0.939E-02  0.939E-02
  -4.856  0.979E-02  0.979E-02
  -4.846  0.102E-01  0.102E-01
  -4.836  0.106E-01  0.106E-01
  -4.826  0.110E-01  0.110E-01
  -4.816  0.114E-01  0.114E-01
  -4.806  0.118E-01  0.118E-01
  -4.796  0.123E-01  0.123E-01
  -4.786  0.127E-01  0.127E-01
  -4.776  0.131E-01  0.131E-01
  -4.766  0.135E-01  0.135E-01
  -4.756  0.139E-01  0.139E-01
  -4.746  0.143E-01  0.143E-01
  -4.736  0.147E-01  0.147E-01
  -4.726  0.151E-01  0.151E-01
  -4.716  0.155E-01  0.155E-01
  -4.706  0.159E-01  0.159E-01
  -4.696  0.163E-01  0.163E-01
  -4.686  0.167E-01  0.167E-01
  -4.676  0.170E-01  0.170E-01
  -4.666  0.174E-01  0.174E-01
  -4.656  0.178E-01  0.178E-01
  -4.646  0.181E-01  0.181E-01
  -4.636  0.184E-01  0.184E-01
  -4.626  0.188E-01  0.188E-01
  -4.616  0.191E-01  0.191E-01
  -4.606  0.194E-01  0.194E-01
  -4.596  0.197E-01  0.197E-01
  -4.586  0.200E-01  0.200E-01
  -4.576  0.203E-01  0.203E-01
  -4.566  0.206E-01  0.206E-01
  -4.556  0.208E-01  0.208E-01
  -4.546  0.211E-01  0.211E-01
  -4.536  0.213E-01  0.213E-01
  -4.526  0.215E-01  0.215E-01
  -4.516  0.217E-01  0.217E-01
  -4.506  0.219E-01  0.219E-01
  -4.496  0.221E-01  0.221E-01
  -4.486  0.222E-01  0.222E-01
  -4.476  0.224E-01  0.224E-01
  -4.466  0.225E-01  0.225E-01
  -4.456  0.226E-01  0.226E-01
  -4.446  0.227E-01  0.227E-01
  -4.436  0.228E-01  0.228E-01
  -4.426  0.228E-01  0.228E-01
  -4.416  0.229E-01  0.229E-01
  -4.406  0.229E-01  0.229E-01
  -4.396  0.229E-01  0.229E-01
  -4.386  0.229E-01  0.229E-01
  -4.376  0.229E-01  0.229E-01
  -4.366  0.229E-01  0.229E-01
  -4.356  0.228E-01  0.228E-01
  -4.346  0.228E-01  0.228E-01
  -4.336  0.227E-01  0.227E-01
  -4.326  0.226E-01  0.226E-01
  -4.316  0.225E-01  0.225E-01
  -4.306  0.223E-01  0.223E-01
  -4.296  0.222E-01  0.222E-01
  -4.286  0.220E-01  0.220E-01
  -4.276  0.219E-01  0.219E-01
  -4.266  0.217E-01  0.217E-01
  -4.256  0.215E-01  0.215E-01
  -4.246  0.213E-01  0.213E-01
  -4.236  0.210E-01  0.210E-01
  -4.226  0.208E-01  0.208E-01
  -4.216  0.205E-01  0.205E-01
  -4.206  0.203E-01  0.203E-01
  -4.196  0.200E-01  0.200E-01
  -4.186  0.197E-01  0.197E-01
  -4.176  0.194E-01  0.194E-01
  -4.166  0.191E-01  0.191E-01
  -4.156  0.188E-01  0.188E-01
  -4.146  0.184E-01  0.184E-01
  -4.136  0.181E-01  0.181E-01
  -4.126  0.178E-01  0.178E-01
  -4.116  0.174E-01  0.174E-01
  -4.106  0.170E-01  0.170E-01
  -4.096  0.167E-01  0.167E-01
  -4.086  0.163E-01  0.163E-01
  -4.076  0.159E-01  0.159E-01
  -4.066  0.156E-01  0.156E-01
  -4.056  0.152E-01  0.152E-01
  -4.046  0.148E-01  0.148E-01
  -4.036  0.144E-01  0.144E-01
  -4.026  0.140E-01  0.140E-01
  -4.016  0.136E-01  0.136E-01
  -4.006  0.132E-01  0.132E-01
  -3.996  0.128E-01  0.128E-01
  -3.986  0.124E-01  0.124E-01
  -3.976  0.120E-01  0.120E-01
  -3.966  0.116E-01  0.116E-01
  -3.956  0.112E-01  0.112E-01
  -3.946  0.108E-01  0.108E-01
  -3.936  0.105E-01  0.105E-01
  -3.926  0.101E-01  0.101E-01
  -3.916  0.968E-02  0.968E-02
  -3.906  0.930E-02  0.930E-02
  -3.896  0.893E-02  0.893E-02
  -3.886  0.856E-02  0.856E-02
  -3.876  0.819E-02  0.819E-02
  -3.866  0.783E-02  0.783E-02
  -3.856  0.748E-02  0.748E-02
  -3.846  0.713E-02  0.713E-02
  -3.836  0.678E-02  0.678E-02
  -3.826  0.645E-02  0.645E-02
  -3.816  0.612E-02  0.612E-02
  -3.806  0.579E-02  0.579E-02
  -3.796  0.548E-02  0.548E-02
  -3.786  0.517E-02  0.517E-02
  -3.776  0.487E-02  0.487E-02
  -3.766  0.458E-02  0.458E-02
  -3.756  0.429E-02  0.429E-02
  -3.746  0.401E-02  0.401E-02
  -3.736  0.375E-02  0.375E-02
  -3.726  0.348E-02  0.348E-02
  -3.716  0.323E-02  0.323E-02
  -3.706  0.299E-02  0.299E-02
  -3.696  0.275E-02  0.275E-02
  -3.686  0.252E-02  0.252E-02
  -3.676  0.231E-02  0.231E-02
  -3.666  0.209E-02  0.209E-02
  -3.656  0.189E-02  0.189E-02
  -3.646  0.170E-02  0.170E-02
  -3.636  0.151E-02  0.151E-02
  -3.626  0.133E-02  0.133E-02
  -3.616  0.116E-02  0.116E-02
  -3.606  0.100E-02  0.100E-02
  -3.596  0.850E-03  0.850E-03
  -3.586  0.704E-03  0.704E-03
  -3.576  0.566E-03  0.566E-03
  -3.566  0.435E-03  0.435E-03
  -3.556  0.312E-03  0.312E-03
  -3.546  0.196E-03  0.196E-03
  -3.536  0.876E-04  0.876E-04
  -3.526 -0.141E-04 -0.141E-04
  -3.516 -0.109E-03 -0.109E-03
  -3.506 -0.197E-03 -0.197E-03
  -3.496 -0.279E-03 -0.279E-03
  -3.486 -0.355E-03 -0.355E-03
  -3.476 -0.424E-03 -0.424E-03
  -3.466 -0.488E-03 -0.488E-03
  -3.456 -0.546E-03 -0.546E-03
  -3.446 -0.598E-03 -0.598E-03
  -3.436 -0.645E-03 -0.645E-03
  -3.426 -0.687E-03 -0.687E-03
  -3.416 -0.724E-03 -0.724E-03
  -3.406 -0.757E-03 -0.757E-03
  -3.396 -0.784E-03 -0.784E-03
  -3.386 -0.808E-03 -0.808E-03
  -3.376 -0.827E-03 -0.827E-03
  -3.366 -0.842E-03 -0.842E-03
  -3.356 -0.854E-03 -0.854E-03
  -3.346 -0.862E-03 -0.862E-03
  -3.336 -0.866E-03 -0.866E-03
  -3.326 -0.867E-03 -0.867E-03
  -3.316 -0.866E-03 -0.866E-03
  -3.306 -0.861E-03 -0.861E-03
  -3.296 -0.853E-03 -0.853E-03
  -3.286 -0.843E-03 -0.843E-03
  -3.276 -0.831E-03 -0.831E-03
  -3.266 -0.816E-03 -0.816E-03
  -3.256 -0.800E-03 -0.800E-03
  -3.246 -0.781E-03 -0.781E-03
  -3.236 -0.761E-03 -0.761E-03
  -3.226 -0.738E-03 -0.738E-03
  -3.216 -0.715E-03 -0.715E-03
  -3.206 -0.690E-03 -0.690E-03
  -3.196 -0.663E-03 -0.663E-03
  -3.186 -0.636E-03 -0.636E-03
  -3.176 -0.607E-03 -0.607E-03
  -3.166 -0.578E-03 -0.578E-03
  -3.156 -0.547E-03 -0.547E-03
  -3.146 -0.516E-03 -0.516E-03
  -3.136 -0.484E-03 -0.484E-03
  -3.126 -0.452E-03 -0.452E-03
  -3.116 -0.419E-03 -0.419E-03
  -3.106 -0.386E-03 -0.386E-03
  -3.096 -0.352E-03 -0.352E-03
  -3.086 -0.318E-03 -0.318E-03
  -3.076 -0.284E-03 -0.284E-03
  -3.066 -0.250E-03 -0.250E-03
  -3.056 -0.216E-03 -0.216E-03
  -3.046 -0.181E-03 -0.181E-03
  -3.036 -0.147E-03 -0.147E-03
  -3.026 -0.113E-03 -0.113E-03
  -3.016 -0.787E-04 -0.787E-04
  -3.006 -0.447E-04 -0.447E-04
  -2.996 -0.109E-04 -0.109E-04
  -2.986  0.227E-04  0.227E-04
  -2.976  0.561E-04  0.561E-04
  -2.966  0.892E-04  0.892E-04
  -2.956  0.122E-03  0.122E-03
  -2.946  0.155E-03  0.155E-03
  -2.936  0.187E-03  0.187E-03
  -2.926  0.219E-03  0.219E-03
  -2.916  0.250E-03  0.250E-03
  -2.906  0.282E-03  0.282E-03
  -2.896  0.312E-03  0.312E-03
  -2.886  0.343E-03  0.343E-03
  -2.876  0.373E-03  0.373E-03
  -2.866  0.403E-03  0.403E-03
  -2.856  0.432E-03  0.432E-03
  -2.846  0.461E-03  0.461E-03
  -2.836  0.490E-03  0.490E-03
  -2.826  0.518E-03  0.518E-03
  -2.816  0.547E-03  0.547E-03
  -2.806  0.574E-03  0.574E-03
  -2.796  0.602E-03  0.602E-03
  -2.786  0.629E-03  0.629E-03
  -2.776  0.655E-03  0.655E-03
  -2.766  0.682E-03  0.682E-03
  -2.756  0.708E-03  0.708E-03
  -2.746  0.734E-03  0.734E-03
  -2.736  0.759E-03  0.759E-03
  -2.726  0.785E-03  0.785E-03
  -2.716  0.810E-03  0.810E-03
  -2.706  0.834E-03  0.834E-03
  -2.696  0.859E-03  0.859E-03
  -2.686  0.883E-03  0.883E-03
  -2.676  0.908E-03  0.908E-03
  -2.666  0.932E-03  0.932E-03
  -2.656  0.955E-03  0.955E-03
  -2.646  0.979E-03  0.979E-03
  -2.636  0.100E-02  0.100E-02
  -2.626  0.103E-02  0.103E-02
  -2.616  0.105E-02  0.105E-02
  -2.606  0.107E-02  0.107E-02
  -2.596  0.109E-02  0.109E-02
  -2.586  0.112E-02  0.112E-02
  -2.576  0.114E-02  0.114E-02
  -2.566  0.116E-02  0.116E-02
  -2.556  0.118E-02  0.118E-02
  -2.546  0.121E-02  0.121E-02
  -2.536  0.123E-02  0.123E-02
  -2.526  0.125E-02  0.125E-02
  -2.516  0.127E-02  0.127E-02
  -2.506  0.129E-02  0.129E-02
  -2.496  0.132E-02  0.132E-02
  -2.486  0.134E-02  0.134E-02
  -2.476  0.136E-02  0.136E-02
  -2.466  0.138E-02  0.138E-02
  -2.456  0.140E-02  0.140E-02
  -2.446  0.142E-02  0.142E-02
  -2.436  0.144E-02  0.144E-02
  -2.426  0.146E-02  0.146E-02
  -2.416  0.148E-02  0.148E-02
  -2.406  0.150E-02  0.150E-02
  -2.396  0.152E-02  0.152E-02
  -2.386  0.154E-02  0.154E-02
  -2.376  0.156E-02  0.156E-02
  -2.366  0.158E-02  0.158E-02
  -2.356  0.160E-02  0.160E-02
  -2.346  0.162E-02  0.162E-02
  -2.336  0.164E-02  0.164E-02
  -2.326  0.166E-02  0.166E-02
  -2.316  0.167E-02  0.167E-02
  -2.306  0.169E-02  0.169E-02
  -2.296  0.171E-02  0.171E-02
  -2.286  0.173E-02  0.173E-02
  -2.276  0.174E-02  0.174E-02
  -2.266  0.176E-02  0.176E-02
  -2.256  0.177E-02  0.177E-02
  -2.246  0.179E-02  0.179E-02
  -2.236  0.180E-02  0.180E-02
  -2.226  0.182E-02  0.182E-02
  -2.216  0.183E-02  0.183E-02
  -2.206  0.184E-02  0.184E-02
  -2.196  0.186E-02  0.186E-02
  -2.186  0.187E-02  0.187E-02
  -2.176  0.188E-02  0.188E-02
  -2.166  0.189E-02  0.189E-02
  -2.156  0.190E-02  0.190E-02
  -2.146  0.191E-02  0.191E-02
  -2.136  0.192E-02  0.192E-02
  -2.126  0.193E-02  0.193E-02
  -2.116  0.194E-02  0.194E-02
  -2.106  0.195E-02  0.195E-02
  -2.096  0.195E-02  0.195E-02
  -2.086  0.196E-02  0.196E-02
  -2.076  0.196E-02  0.196E-02
  -2.066  0.197E-02  0.197E-02
  -2.056  0.197E-02  0.197E-02
  -2.046  0.198E-02  0.198E-02
  -2.036  0.198E-02  0.198E-02
  -2.026  0.198E-02  0.198E-02
  -2.016  0.198E-02  0.198E-02
  -2.006  0.199E-02  0.199E-02
  -1.996  0.199E-02  0.199E-02
  -1.986  0.199E-02  0.199E-02
  -1.976  0.199E-02  0.199E-02
  -1.966  0.198E-02  0.198E-02
  -1.956  0.198E-02  0.198E-02
  -1.946  0.198E-02  0.198E-02
  -1.936  0.198E-02  0.198E-02
  -1.926  0.197E-02  0.197E-02
  -1.916  0.197E-02  0.197E-02
  -1.906  0.196E-02  0.196E-02
  -1.896  0.196E-02  0.196E-02
  -1.886  0.195E-02  0.195E-02
  -1.876  0.195E-02  0.195E-02
  -1.866  0.194E-02  0.194E-02
  -1.856  0.194E-02  0.194E-02
  -1.846  0.193E-02  0.193E-02
  -1.836  0.192E-02  0.192E-02
  -1.826  0.191E-02  0.191E-02
  -1.816  0.191E-02  0.191E-02
  -1.806  0.190E-02  0.190E-02
  -1.796  0.189E-02  0.189E-02
  -1.786  0.188E-02  0.188E-02
  -1.776  0.187E-02  0.187E-02
  -1.766  0.187E-02  0.187E-02
  -1.756  0.186E-02  0.186E-02
  -1.746  0.185E-02  0.185E-02
  -1.736  0.184E-02  0.184E-02
  -1.726  0.183E-02  0.183E-02
  -1.716  0.182E-02  0.182E-02
  -1.706  0.182E-02  0.182E-02
  -1.696  0.181E-02  0.181E-02
  -1.686  0.180E-02  0.180E-02
  -1.676  0.179E-02  0.179E-02
  -1.666  0.178E-02  0.178E-02
  -1.656  0.178E-02  0.178E-02
  -1.646  0.177E-02  0.177E-02
  -1.636  0.176E-02  0.176E-02
  -1.626  0.176E-02  0.176E-02
  -1.616  0.175E-02  0.175E-02
  -1.606  0.175E-02  0.175E-02
  -1.596  0.174E-02  0.174E-02
  -1.586  0.174E-02  0.174E-02
  -1.576  0.173E-02  0.173E-02
  -1.566  0.173E-02  0.173E-02
  -1.556  0.173E-02  0.173E-02
  -1.546  0.172E-02  0.172E-02
  -1.536  0.172E-02  0.172E-02
  -1.526  0.172E-02  0.172E-02
  -1.516  0.172E-02  0.172E-02
  -1.506  0.172E-02  0.172E-02
  -1.496  0.172E-02  0.172E-02
  -1.486  0.172E-02  0.172E-02
  -1.476  0.172E-02  0.172E-02
  -1.466  0.172E-02  0.172E-02
  -1.456  0.173E-02  0.173E-02
  -1.446  0.173E-02  0.173E-02
  -1.436  0.173E-02  0.173E-02
  -1.426  0.174E-02  0.174E-02
  -1.416  0.174E-02  0.174E-02
  -1.406  0.175E-02  0.175E-02
  -1.396  0.175E-02  0.175E-02
  -1.386  0.176E-02  0.176E-02
  -1.376  0.176E-02  0.176E-02
  -1.366  0.177E-02  0.177E-02
  -1.356  0.178E-02  0.178E-02
  -1.346  0.179E-02  0.179E-02
  -1.336  0.179E-02  0.179E-02
  -1.326  0.180E-02  0.180E-02
  -1.316  0.181E-02  0.181E-02
  -1.306  0.182E-02  0.182E-02
  -1.296  0.183E-02  0.183E-02
  -1.286  0.184E-02  0.184E-02
  -1.276  0.185E-02  0.185E-02
  -1.266  0.186E-02  0.186E-02
  -1.256  0.187E-02  0.187E-02
  -1.246  0.188E-02  0.188E-02
  -1.236  0.189E-02  0.189E-02
  -1.226  0.190E-02  0.190E-02
  -1.216  0.191E-02  0.191E-02
  -1.206  0.192E-02  0.192E-02
  -1.196  0.193E-02  0.193E-02
  -1.186  0.194E-02  0.194E-02
  -1.176  0.195E-02  0.195E-02
  -1.166  0.196E-02  0.196E-02
  -1.156  0.197E-02  0.197E-02
  -1.146  0.198E-02  0.198E-02
  -1.136  0.199E-02  0.199E-02
  -1.126  0.199E-02  0.199E-02
  -1.116  0.200E-02  0.200E-02
  -1.106  0.201E-02  0.201E-02
  -1.096  0.202E-02  0.202E-02
  -1.086  0.203E-02  0.203E-02
  -1.076  0.203E-02  0.203E-02
  -1.066  0.204E-02  0.204E-02
  -1.056  0.205E-02  0.205E-02
  -1.046  0.205E-02  0.205E-02
  -1.036  0.206E-02  0.206E-02
  -1.026  0.206E-02  0.206E-02
  -1.016  0.207E-02  0.207E-02
  -1.006  0.207E-02  0.207E-02
  -0.996  0.208E-02  0.208E-02
  -0.986  0.208E-02  0.208E-02
  -0.976  0.208E-02  0.208E-02
  -0.966  0.209E-02  0.209E-02
  -0.956  0.209E-02  0.209E-02
  -0.946  0.209E-02  0.209E-02
  -0.936  0.209E-02  0.209E-02
  -0.926  0.210E-02  0.210E-02
  -0.916  0.210E-02  0.210E-02
  -0.906  0.210E-02  0.210E-02
  -0.896  0.210E-02  0.210E-02
  -0.886  0.210E-02  0.210E-02
  -0.876  0.210E-02  0.210E-02
  -0.866  0.210E-02  0.210E-02
  -0.856  0.211E-02  0.211E-02
  -0.846  0.211E-02  0.211E-02
  -0.836  0.211E-02  0.211E-02
  -0.826  0.211E-02  0.211E-02
  -0.816  0.211E-02  0.211E-02
  -0.806  0.211E-02  0.211E-02
  -0.796  0.212E-02  0.212E-02
  -0.786  0.212E-02  0.212E-02
  -0.776  0.212E-02  0.212E-02
  -0.766  0.213E-02  0.213E-02
  -0.756  0.213E-02  0.213E-02
  -0.746  0.214E-02  0.214E-02
  -0.736  0.214E-02  0.214E-02
  -0.726  0.215E-02  0.215E-02
  -0.716  0.216E-02  0.216E-02
  -0.706  0.216E-02  0.216E-02
  -0.696  0.217E-02  0.217E-02
  -0.686  0.218E-02  0.218E-02
  -0.676  0.220E-02  0.220E-02
  -0.666  0.221E-02  0.221E-02
  -0.656  0.222E-02  0.222E-02
  -0.646  0.224E-02  0.224E-02
  -0.636  0.225E-02  0.225E-02
  -0.626  0.227E-02  0.227E-02
  -0.616  0.229E-02  0.229E-02
  -0.606  0.231E-02  0.231E-02
  -0.596  0.234E-02  0.234E-02
  -0.586  0.236E-02  0.236E-02
  -0.576  0.239E-02  0.239E-02
  -0.566  0.241E-02  0.241E-02
  -0.556  0.244E-02  0.244E-02
  -0.546  0.247E-02  0.247E-02
  -0.536  0.251E-02  0.251E-02
  -0.526  0.254E-02  0.254E-02
  -0.516  0.258E-02  0.258E-02
  -0.506  0.262E-02  0.262E-02
  -0.496  0.266E-02  0.266E-02
  -0.486  0.270E-02  0.270E-02
  -0.476  0.274E-02  0.274E-02
  -0.466  0.279E-02  0.279E-02
  -0.456  0.284E-02  0.284E-02
  -0.446  0.288E-02  0.288E-02
  -0.436  0.293E-02  0.293E-02
  -0.426  0.299E-02  0.299E-02
  -0.416  0.304E-02  0.304E-02
  -0.406  0.310E-02  0.310E-02
  -0.396  0.315E-02  0.315E-02
  -0.386  0.321E-02  0.321E-02
  -0.376  0.327E-02  0.327E-02
  -0.366  0.334E-02  0.334E-02
  -0.356  0.340E-02  0.340E-02
  -0.346  0.346E-02  0.346E-02
  -0.336  0.353E-02  0.353E-02
  -0.326  0.360E-02  0.360E-02
  -0.316  0.366E-02  0.366E-02
  -0.306  0.373E-02  0.373E-02
  -0.296  0.380E-02  0.380E-02
  -0.286  0.387E-02  0.387E-02
  -0.276  0.394E-02  0.394E-02
  -0.266  0.402E-02  0.402E-02
  -0.256  0.409E-02  0.409E-02
  -0.246  0.416E-02  0.416E-02
  -0.236  0.423E-02  0.423E-02
  -0.226  0.431E-02  0.431E-02
  -0.216  0.438E-02  0.438E-02
  -0.206  0.445E-02  0.445E-02
  -0.196  0.452E-02  0.452E-02
  -0.186  0.460E-02  0.460E-02
  -0.176  0.467E-02  0.467E-02
  -0.166  0.474E-02  0.474E-02
  -0.156  0.481E-02  0.481E-02
  -0.146  0.488E-02  0.488E-02
  -0.136  0.494E-02  0.494E-02
  -0.126  0.501E-02  0.501E-02
  -0.116  0.508E-02  0.508E-02
  -0.106  0.514E-02  0.514E-02
  -0.096  0.520E-02  0.520E-02
  -0.086  0.526E-02  0.526E-02
  -0.076  0.532E-02  0.532E-02
  -0.066  0.538E-02  0.538E-02
  -0.056  0.544E-02  0.544E-02
  -0.046  0.549E-02  0.549E-02
  -0.036  0.554E-02  0.554E-02
  -0.026  0.559E-02  0.559E-02
  -0.016  0.564E-02  0.564E-02
  -0.006  0.568E-02  0.568E-02
   0.004  0.572E-02  0.572E-02
   0.014  0.576E-02  0.576E-02
   0.024  0.580E-02  0.580E-02
   0.034  0.583E-02  0.583E-02
   0.044  0.586E-02  0.586E-02
   0.054  0.589E-02  0.589E-02
   0.064  0.591E-02  0.591E-02
   0.074  0.594E-02  0.594E-02
   0.084  0.595E-02  0.595E-02
   0.094  0.597E-02  0.597E-02
   0.104  0.598E-02  0.598E-02
   0.114  0.599E-02  0.599E-02
   0.124  0.600E-02  0.600E-02
   0.134  0.600E-02  0.600E-02
   0.144  0.600E-02  0.600E-02
   0.154  0.600E-02  0.600E-02
   0.164  0.599E-02  0.599E-02
   0.174  0.598E-02  0.598E-02
   0.184  0.597E-02  0.597E-02
   0.194  0.595E-02  0.595E-02
   0.204  0.593E-02  0.593E-02
   0.214  0.591E-02  0.591E-02
   0.224  0.589E-02  0.589E-02
   0.234  0.586E-02  0.586E-02
   0.244  0.583E-02  0.583E-02
   0.254  0.580E-02  0.580E-02
   0.264  0.576E-02  0.576E-02
   0.274  0.572E-02  0.572E-02
   0.284  0.568E-02  0.568E-02
   0.294  0.564E-02  0.564E-02
   0.304  0.559E-02  0.559E-02
   0.314  0.554E-02  0.554E-02
   0.324  0.549E-02  0.549E-02
   0.334  0.544E-02  0.544E-02
   0.344  0.538E-02  0.538E-02
   0.354  0.533E-02  0.533E-02
   0.364  0.527E-02  0.527E-02
   0.374  0.521E-02  0.521E-02
   0.384  0.515E-02  0.515E-02
   0.394  0.509E-02  0.509E-02
   0.404  0.502E-02  0.502E-02
   0.414  0.496E-02  0.496E-02
   0.424  0.489E-02  0.489E-02
   0.434  0.483E-02  0.483E-02
   0.444  0.476E-02  0.476E-02
   0.454  0.469E-02  0.469E-02
   0.464  0.462E-02  0.462E-02
   0.474  0.456E-02  0.456E-02
   0.484  0.449E-02  0.449E-02
   0.494  0.442E-02  0.442E-02
   0.504  0.435E-02  0.435E-02
   0.514  0.429E-02  0.429E-02
   0.524  0.422E-02  0.422E-02
   0.534  0.415E-02  0.415E-02
   0.544  0.409E-02  0.409E-02
   0.554  0.402E-02  0.402E-02
   0.564  0.396E-02  0.396E-02
   0.574  0.390E-02  0.390E-02
   0.584  0.384E-02  0.384E-02
   0.594  0.378E-02  0.378E-02
   0.604  0.372E-02  0.372E-02
   0.614  0.367E-02  0.367E-02
   0.624  0.362E-02  0.362E-02
   0.634  0.357E-02  0.357E-02
   0.644  0.352E-02  0.352E-02
   0.654  0.348E-02  0.348E-02
   0.664  0.344E-02  0.344E-02
   0.674  0.340E-02  0.340E-02
   0.684  0.337E-02  0.337E-02
   0.694  0.334E-02  0.334E-02
   0.704  0.331E-02  0.331E-02
   0.714  0.329E-02  0.329E-02
   0.724  0.327E-02  0.327E-02
   0.734  0.326E-02  0.326E-02
   0.744  0.325E-02  0.325E-02
   0.754  0.324E-02  0.324E-02
   0.764  0.324E-02  0.324E-02
   0.774  0.325E-02  0.325E-02
   0.784  0.326E-02  0.326E-02
   0.794  0.328E-02  0.328E-02
   0.804  0.330E-02  0.330E-02
   0.814  0.333E-02  0.333E-02
   0.824  0.336E-02  0.336E-02
   0.834  0.340E-02  0.340E-02
   0.844  0.345E-02  0.345E-02
   0.854  0.351E-02  0.351E-02
   0.864  0.357E-02  0.357E-02
   0.874  0.364E-02  0.364E-02
   0.884  0.371E-02  0.371E-02
   0.894  0.380E-02  0.380E-02
   0.904  0.389E-02  0.389E-02
   0.914  0.399E-02  0.399E-02
   0.924  0.410E-02  0.410E-02
   0.934  0.422E-02  0.422E-02
   0.944  0.435E-02  0.435E-02
   0.954  0.448E-02  0.448E-02
   0.964  0.463E-02  0.463E-02
   0.974  0.478E-02  0.478E-02
   0.984  0.494E-02  0.494E-02
   0.994  0.512E-02  0.512E-02
   1.004  0.530E-02  0.530E-02
   1.014  0.549E-02  0.549E-02
   1.024  0.570E-02  0.570E-02
   1.034  0.591E-02  0.591E-02
   1.044  0.613E-02  0.613E-02
   1.054  0.637E-02  0.637E-02
   1.064  0.661E-02  0.661E-02
   1.074  0.687E-02  0.687E-02
   1.084  0.714E-02  0.714E-02
   1.094  0.741E-02  0.741E-02
   1.104  0.770E-02  0.770E-02
   1.114  0.800E-02  0.800E-02
   1.124  0.831E-02  0.831E-02
   1.134  0.863E-02  0.863E-02
   1.144  0.897E-02  0.897E-02
   1.154  0.931E-02  0.931E-02
   1.164  0.967E-02  0.967E-02
   1.174  0.100E-01  0.100E-01
   1.184  0.104E-01  0.104E-01
   1.194  0.108E-01  0.108E-01
   1.204  0.112E-01  0.112E-01
   1.214  0.116E-01  0.116E-01
   1.224  0.120E-01  0.120E-01
   1.234  0.125E-01  0.125E-01
   1.244  0.129E-01  0.129E-01
   1.254  0.133E-01  0.133E-01
   1.264  0.138E-01  0.138E-01
   1.274  0.143E-01  0.143E-01
   1.284  0.148E-01  0.148E-01
   1.294  0.153E-01  0.153E-01
   1.304  0.158E-01  0.158E-01
   1.314  0.163E-01  0.163E-01
   1.324  0.168E-01  0.168E-01
   1.334  0.173E-01  0.173E-01
   1.344  0.178E-01  0.178E-01
   1.354  0.184E-01  0.184E-01
   1.364  0.189E-01  0.189E-01
   1.374  0.195E-01  0.195E-01
   1.384  0.200E-01  0.200E-01
   1.394  0.206E-01  0.206E-01
   1.404  0.212E-01  0.212E-01
   1.414  0.218E-01  0.218E-01
   1.424  0.224E-01  0.224E-01
   1.434  0.229E-01  0.229E-01
   1.444  0.235E-01  0.235E-01
   1.454  0.241E-01  0.241E-01
   1.464  0.247E-01  0.247E-01
   1.474  0.254E-01  0.254E-01
   1.484  0.260E-01  0.260E-01
   1.494  0.266E-01  0.266E-01
   1.504  0.272E-01  0.272E-01
   1.514  0.278E-01  0.278E-01
   1.524  0.284E-01  0.284E-01
   1.534  0.290E-01  0.290E-01
   1.544  0.297E-01  0.297E-01
   1.554  0.303E-01  0.303E-01
   1.564  0.309E-01  0.309E-01
   1.574  0.315E-01  0.315E-01
   1.584  0.322E-01  0.322E-01
   1.594  0.328E-01  0.328E-01
   1.604  0.334E-01  0.334E-01
   1.614  0.340E-01  0.340E-01
   1.624  0.346E-01  0.346E-01
   1.634  0.352E-01  0.352E-01
   1.644  0.359E-01  0.359E-01
   1.654  0.365E-01  0.365E-01
   1.664  0.371E-01  0.371E-01
   1.674  0.377E-01  0.377E-01
   1.684  0.383E-01  0.383E-01
   1.694  0.389E-01  0.389E-01
   1.704  0.395E-01  0.395E-01
   1.714  0.401E-01  0.401E-01
   1.724  0.407E-01  0.407E-01
   1.734  0.413E-01  0.413E-01
   1.744  0.419E-01  0.419E-01
   1.754  0.424E-01  0.424E-01
   1.764  0.430E-01  0.430E-01
   1.774  0.436E-01  0.436E-01
   1.784  0.442E-01  0.442E-01
   1.794  0.448E-01  0.448E-01
   1.804  0.453E-01  0.453E-01
   1.814  0.459E-01  0.459E-01
   1.824  0.465E-01  0.465E-01
   1.834  0.471E-01  0.471E-01
   1.844  0.476E-01  0.476E-01
   1.854  0.482E-01  0.482E-01
   1.864  0.488E-01  0.488E-01
   1.874  0.493E-01  0.493E-01
   1.884  0.499E-01  0.499E-01
   1.894  0.505E-01  0.505E-01
   1.904  0.511E-01  0.511E-01
   1.914  0.516E-01  0.516E-01
   1.924  0.522E-01  0.522E-01
   1.934  0.528E-01  0.528E-01
   1.944  0.533E-01  0.533E-01
   1.954  0.539E-01  0.539E-01
   1.964  0.545E-01  0.545E-01
   1.974  0.551E-01  0.551E-01
   1.984  0.557E-01  0.557E-01
   1.994  0.563E-01  0.563E-01
   2.004  0.569E-01  0.569E-01
   2.014  0.574E-01  0.574E-01
   2.024  0.580E-01  0.580E-01
   2.034  0.586E-01  0.586E-01
   2.044  0.593E-01  0.593E-01
   2.054  0.599E-01  0.599E-01
   2.064  0.605E-01  0.605E-01
   2.074  0.611E-01  0.611E-01
   2.084  0.617E-01  0.617E-01
   2.094  0.624E-01  0.624E-01
   2.104  0.630E-01  0.630E-01
   2.114  0.636E-01  0.636E-01
   2.124  0.643E-01  0.643E-01
   2.134  0.649E-01  0.649E-01
   2.144  0.656E-01  0.656E-01
   2.154  0.663E-01  0.663E-01
   2.164  0.669E-01  0.669E-01
   2.174  0.676E-01  0.676E-01
   2.184  0.683E-01  0.683E-01
   2.194  0.689E-01  0.689E-01
   2.204  0.696E-01  0.696E-01
   2.214  0.703E-01  0.703E-01
   2.224  0.710E-01  0.710E-01
   2.234  0.717E-01  0.717E-01
   2.244  0.724E-01  0.724E-01
   2.254  0.731E-01  0.731E-01
   2.264  0.737E-01  0.737E-01
   2.274  0.744E-01  0.744E-01
   2.284  0.751E-01  0.751E-01
   2.294  0.758E-01  0.758E-01
   2.304  0.765E-01  0.765E-01
   2.314  0.772E-01  0.772E-01
   2.324  0.779E-01  0.779E-01
   2.334  0.785E-01  0.785E-01
   2.344  0.792E-01  0.792E-01
   2.354  0.799E-01  0.799E-01
   2.364  0.805E-01  0.805E-01
   2.374  0.812E-01  0.812E-01
   2.384  0.818E-01  0.818E-01
   2.394  0.825E-01  0.825E-01
   2.404  0.831E-01  0.831E-01
   2.414  0.837E-01  0.837E-01
   2.424  0.843E-01  0.843E-01
   2.434  0.849E-01  0.849E-01
   2.444  0.854E-01  0.854E-01
   2.454  0.860E-01  0.860E-01
   2.464  0.865E-01  0.865E-01
   2.474  0.870E-01  0.870E-01
   2.484  0.875E-01  0.875E-01
   2.494  0.880E-01  0.880E-01
   2.504  0.885E-01  0.885E-01
   2.514  0.889E-01  0.889E-01
   2.524  0.893E-01  0.893E-01
   2.534  0.897E-01  0.897E-01
   2.544  0.900E-01  0.900E-01
   2.554  0.904E-01  0.904E-01
   2.564  0.907E-01  0.907E-01
   2.574  0.910E-01  0.910E-01
   2.584  0.912E-01  0.912E-01
   2.594  0.915E-01  0.915E-01
   2.604  0.917E-01  0.917E-01
   2.614  0.918E-01  0.918E-01
   2.624  0.920E-01  0.920E-01
   2.634  0.921E-01  0.921E-01
   2.644  0.921E-01  0.921E-01
   2.654  0.922E-01  0.922E-01
   2.664  0.922E-01  0.922E-01
   2.674  0.921E-01  0.921E-01
   2.684  0.921E-01  0.921E-01
   2.694  0.920E-01  0.920E-01
   2.704  0.918E-01  0.918E-01
   2.714  0.917E-01  0.917E-01
   2.724  0.915E-01  0.915E-01
   2.734  0.912E-01  0.912E-01
   2.744  0.909E-01  0.909E-01
   2.754  0.906E-01  0.906E-01
   2.764  0.903E-01  0.903E-01
   2.774  0.899E-01  0.899E-01
   2.784  0.895E-01  0.895E-01
   2.794  0.890E-01  0.890E-01
   2.804  0.885E-01  0.885E-01
   2.814  0.880E-01  0.880E-01
   2.824  0.874E-01  0.874E-01
   2.834  0.868E-01  0.868E-01
   2.844  0.862E-01  0.862E-01
   2.854  0.855E-01  0.855E-01
   2.864  0.848E-01  0.848E-01
   2.874  0.841E-01  0.841E-01
   2.884  0.833E-01  0.833E-01
   2.894  0.825E-01  0.825E-01
   2.904  0.816E-01  0.816E-01
   2.914  0.808E-01  0.808E-01
   2.924  0.799E-01  0.799E-01
   2.934  0.790E-01  0.790E-01
   2.944  0.780E-01  0.780E-01
   2.954  0.770E-01  0.770E-01
   2.964  0.760E-01  0.760E-01
   2.974  0.750E-01  0.750E-01
   2.984  0.739E-01  0.739E-01
   2.994  0.729E-01  0.729E-01
   3.004  0.718E-01  0.718E-01
   3.014  0.706E-01  0.706E-01
   3.024  0.695E-01  0.695E-01
   3.034  0.683E-01  0.683E-01
   3.044  0.672E-01  0.672E-01
   3.054  0.660E-01  0.660E-01
   3.064  0.648E-01  0.648E-01
   3.074  0.635E-01  0.635E-01
   3.084  0.623E-01  0.623E-01
   3.094  0.611E-01  0.611E-01
   3.104  0.598E-01  0.598E-01
   3.114  0.585E-01  0.585E-01
   3.124  0.572E-01  0.572E-01
   3.134  0.560E-01  0.560E-01
   3.144  0.547E-01  0.547E-01
   3.154  0.534E-01  0.534E-01
   3.164  0.521E-01  0.521E-01
   3.174  0.508E-01  0.508E-01
   3.184  0.495E-01  0.495E-01
   3.194  0.482E-01  0.482E-01
   3.204  0.469E-01  0.469E-01
   3.214  0.456E-01  0.456E-01
   3.224  0.443E-01  0.443E-01
   3.234  0.430E-01  0.430E-01
   3.244  0.417E-01  0.417E-01
   3.254  0.405E-01  0.405E-01
   3.264  0.392E-01  0.392E-01
   3.274  0.379E-01  0.379E-01
   3.284  0.367E-01  0.367E-01
   3.294  0.354E-01  0.354E-01
   3.304  0.342E-01  0.342E-01
   3.314  0.330E-01  0.330E-01
   3.324  0.318E-01  0.318E-01
   3.334  0.306E-01  0.306E-01
   3.344  0.295E-01  0.295E-01
   3.354  0.283E-01  0.283E-01
   3.364  0.272E-01  0.272E-01
   3.374  0.261E-01  0.261E-01
   3.384  0.250E-01  0.250E-01
   3.394  0.239E-01  0.239E-01
   3.404  0.228E-01  0.228E-01
   3.414  0.218E-01  0.218E-01
   3.424  0.207E-01  0.207E-01
   3.434  0.197E-01  0.197E-01
   3.444  0.188E-01  0.188E-01
   3.454  0.178E-01  0.178E-01
   3.464  0.169E-01  0.169E-01
   3.474  0.160E-01  0.160E-01
   3.484  0.151E-01  0.151E-01
   3.494  0.142E-01  0.142E-01
   3.504  0.133E-01  0.133E-01
   3.514  0.125E-01  0.125E-01
   3.524  0.117E-01  0.117E-01
   3.534  0.109E-01  0.109E-01
   3.544  0.102E-01  0.102E-01
   3.554  0.945E-02  0.945E-02
   3.564  0.875E-02  0.875E-02
   3.574  0.806E-02  0.806E-02
   3.584  0.740E-02  0.740E-02
   3.594  0.676E-02  0.676E-02
   3.604  0.615E-02  0.615E-02
   3.614  0.556E-02  0.556E-02
   3.624  0.499E-02  0.499E-02
   3.634  0.444E-02  0.444E-02
   3.644  0.391E-02  0.391E-02
   3.654  0.341E-02  0.341E-02
   3.664  0.293E-02  0.293E-02
   3.674  0.247E-02  0.247E-02
   3.684  0.203E-02  0.203E-02
   3.694  0.161E-02  0.161E-02
   3.704  0.121E-02  0.121E-02
   3.714  0.836E-03  0.836E-03
   3.724  0.477E-03  0.477E-03
   3.734  0.138E-03  0.138E-03
   3.744 -0.183E-03 -0.183E-03
   3.754 -0.486E-03 -0.486E-03
   3.764 -0.770E-03 -0.770E-03
   3.774 -0.104E-02 -0.104E-02
   3.784 -0.129E-02 -0.129E-02
   3.794 -0.152E-02 -0.152E-02
   3.804 -0.174E-02 -0.174E-02
   3.814 -0.194E-02 -0.194E-02
   3.824 -0.213E-02 -0.213E-02
   3.834 -0.230E-02 -0.230E-02
   3.844 -0.246E-02 -0.246E-02
   3.854 -0.261E-02 -0.261E-02
   3.864 -0.274E-02 -0.274E-02
   3.874 -0.286E-02 -0.286E-02
   3.884 -0.297E-02 -0.297E-02
   3.894 -0.306E-02 -0.306E-02
   3.904 -0.315E-02 -0.315E-02
   3.914 -0.322E-02 -0.322E-02
   3.924 -0.328E-02 -0.328E-02
   3.934 -0.334E-02 -0.334E-02
   3.944 -0.338E-02 -0.338E-02
   3.954 -0.342E-02 -0.342E-02
   3.964 -0.345E-02 -0.345E-02
   3.974 -0.346E-02 -0.346E-02
   3.984 -0.348E-02 -0.348E-02
   3.994 -0.348E-02 -0.348E-02
   4.004 -0.348E-02 -0.348E-02
   4.014 -0.347E-02 -0.347E-02
   4.024 -0.346E-02 -0.346E-02
   4.034 -0.344E-02 -0.344E-02
   4.044 -0.341E-02 -0.341E-02
   4.054 -0.338E-02 -0.338E-02
   4.064 -0.335E-02 -0.335E-02
   4.074 -0.331E-02 -0.331E-02
   4.084 -0.327E-02 -0.327E-02
   4.094 -0.322E-02 -0.322E-02
   4.104 -0.318E-02 -0.318E-02
   4.114 -0.313E-02 -0.313E-02
   4.124 -0.307E-02 -0.307E-02
   4.134 -0.302E-02 -0.302E-02
   4.144 -0.296E-02 -0.296E-02
   4.154 -0.290E-02 -0.290E-02
   4.164 -0.284E-02 -0.284E-02
   4.174 -0.277E-02 -0.277E-02
   4.184 -0.271E-02 -0.271E-02
   4.194 -0.264E-02 -0.264E-02
   4.204 -0.258E-02 -0.258E-02
   4.214 -0.251E-02 -0.251E-02
   4.224 -0.245E-02 -0.245E-02
   4.234 -0.238E-02 -0.238E-02
   4.244 -0.231E-02 -0.231E-02
   4.254 -0.225E-02 -0.225E-02
   4.264 -0.218E-02 -0.218E-02
   4.274 -0.211E-02 -0.211E-02
   4.284 -0.205E-02 -0.205E-02
   4.294 -0.198E-02 -0.198E-02
   4.304 -0.192E-02 -0.192E-02
   4.314 -0.185E-02 -0.185E-02
   4.324 -0.179E-02 -0.179E-02
   4.334 -0.173E-02 -0.173E-02
   4.344 -0.167E-02 -0.167E-02
   4.354 -0.161E-02 -0.161E-02
   4.364 -0.155E-02 -0.155E-02
   4.374 -0.149E-02 -0.149E-02
   4.384 -0.144E-02 -0.144E-02
   4.394 -0.138E-02 -0.138E-02
   4.404 -0.133E-02 -0.133E-02
   4.414 -0.127E-02 -0.127E-02
   4.424 -0.122E-02 -0.122E-02
   4.434 -0.117E-02 -0.117E-02
   4.444 -0.112E-02 -0.112E-02
   4.454 -0.108E-02 -0.108E-02
   4.464 -0.103E-02 -0.103E-02
   4.474 -0.987E-03 -0.987E-03
   4.484 -0.944E-03 -0.944E-03
   4.494 -0.902E-03 -0.902E-03
   4.504 -0.862E-03 -0.862E-03
   4.514 -0.822E-03 -0.822E-03
   4.524 -0.785E-03 -0.785E-03
   4.534 -0.748E-03 -0.748E-03
   4.544 -0.713E-03 -0.713E-03
   4.554 -0.679E-03 -0.679E-03
   4.564 -0.646E-03 -0.646E-03
   4.574 -0.615E-03 -0.615E-03
   4.584 -0.585E-03 -0.585E-03
   4.594 -0.556E-03 -0.556E-03
   4.604 -0.528E-03 -0.528E-03
   4.614 -0.501E-03 -0.501E-03
   4.624 -0.475E-03 -0.475E-03
   4.634 -0.451E-03 -0.451E-03
   4.644 -0.427E-03 -0.427E-03
   4.654 -0.405E-03 -0.405E-03
   4.664 -0.383E-03 -0.383E-03
   4.674 -0.363E-03 -0.363E-03
   4.684 -0.343E-03 -0.343E-03
   4.694 -0.324E-03 -0.324E-03
   4.704 -0.306E-03 -0.306E-03
   4.714 -0.289E-03 -0.289E-03
   4.724 -0.273E-03 -0.273E-03
   4.734 -0.257E-03 -0.257E-03
   4.744 -0.243E-03 -0.243E-03
   4.754 -0.229E-03 -0.229E-03
   4.764 -0.215E-03 -0.215E-03
   4.774 -0.203E-03 -0.203E-03
   4.784 -0.191E-03 -0.191E-03
   4.794 -0.179E-03 -0.179E-03
   4.804 -0.169E-03 -0.169E-03
   4.814 -0.158E-03 -0.158E-03
   4.824 -0.149E-03 -0.149E-03
   4.834 -0.140E-03 -0.140E-03
   4.844 -0.131E-03 -0.131E-03
   4.854 -0.123E-03 -0.123E-03
   4.864 -0.115E-03 -0.115E-03
   4.874 -0.108E-03 -0.108E-03
   4.884 -0.101E-03 -0.101E-03
   4.894 -0.943E-04 -0.943E-04
   4.904 -0.882E-04 -0.882E-04
   4.914 -0.825E-04 -0.825E-04
   4.924 -0.770E-04 -0.770E-04
   4.934 -0.719E-04 -0.719E-04
   4.944 -0.672E-04 -0.672E-04
   4.954 -0.627E-04 -0.627E-04
   4.964 -0.584E-04 -0.584E-04
   4.974 -0.545E-04 -0.545E-04
   4.984 -0.507E-04 -0.507E-04
   4.994 -0.472E-04 -0.472E-04
   5.004 -0.440E-04 -0.440E-04
   5.014 -0.409E-04 -0.409E-04
   5.024 -0.380E-04 -0.380E-04
   5.034 -0.353E-04 -0.353E-04
   5.044 -0.328E-04 -0.328E-04
   5.054 -0.305E-04 -0.305E-04
   5.064 -0.283E-04 -0.283E-04
   5.074 -0.262E-04 -0.262E-04
   5.084 -0.243E-04 -0.243E-04
   5.094 -0.225E-04 -0.225E-04
   5.104 -0.209E-04 -0.209E-04
   5.114 -0.193E-04 -0.193E-04
   5.124 -0.179E-04 -0.179E-04
   5.134 -0.165E-04 -0.165E-04
   5.144 -0.153E-04 -0.153E-04
   5.154 -0.141E-04 -0.141E-04
   5.164 -0.131E-04 -0.131E-04
   5.174 -0.121E-04 -0.121E-04
   5.184 -0.111E-04 -0.111E-04
   5.194 -0.103E-04 -0.103E-04
   5.204 -0.946E-05 -0.946E-05
   5.214 -0.872E-05 -0.872E-05
   5.224 -0.803E-05 -0.803E-05
   5.234 -0.739E-05 -0.739E-05
   5.244 -0.680E-05 -0.680E-05
   5.254 -0.626E-05 -0.626E-05
   5.264 -0.575E-05 -0.575E-05
   5.274 -0.528E-05 -0.528E-05
   5.284 -0.485E-05 -0.485E-05
   5.294 -0.446E-05 -0.446E-05
