# E (eV)   ldos(E)   pdos(E)   
 -27.116 -0.206E-03 -0.206E-03
 -27.106 -0.222E-03 -0.222E-03
 -27.096 -0.240E-03 -0.240E-03
 -27.086 -0.258E-03 -0.258E-03
 -27.076 -0.279E-03 -0.279E-03
 -27.066 -0.300E-03 -0.300E-03
 -27.056 -0.323E-03 -0.323E-03
 -27.046 -0.348E-03 -0.348E-03
 -27.036 -0.374E-03 -0.374E-03
 -27.026 -0.402E-03 -0.402E-03
 -27.016 -0.432E-03 -0.432E-03
 -27.006 -0.464E-03 -0.464E-03
 -26.996 -0.498E-03 -0.498E-03
 -26.986 -0.534E-03 -0.534E-03
 -26.976 -0.573E-03 -0.573E-03
 -26.966 -0.614E-03 -0.614E-03
 -26.956 -0.657E-03 -0.657E-03
 -26.946 -0.703E-03 -0.703E-03
 -26.936 -0.753E-03 -0.753E-03
 -26.926 -0.805E-03 -0.805E-03
 -26.916 -0.860E-03 -0.860E-03
 -26.906 -0.919E-03 -0.919E-03
 -26.896 -0.981E-03 -0.981E-03
 -26.886 -0.105E-02 -0.105E-02
 -26.876 -0.112E-02 -0.112E-02
 -26.866 -0.119E-02 -0.119E-02
 -26.856 -0.127E-02 -0.127E-02
 -26.846 -0.135E-02 -0.135E-02
 -26.836 -0.143E-02 -0.143E-02
 -26.826 -0.153E-02 -0.153E-02
 -26.816 -0.162E-02 -0.162E-02
 -26.806 -0.172E-02 -0.172E-02
 -26.796 -0.183E-02 -0.183E-02
 -26.786 -0.194E-02 -0.194E-02
 -26.776 -0.206E-02 -0.206E-02
 -26.766 -0.218E-02 -0.218E-02
 -26.756 -0.231E-02 -0.231E-02
 -26.746 -0.244E-02 -0.244E-02
 -26.736 -0.259E-02 -0.259E-02
 -26.726 -0.273E-02 -0.273E-02
 -26.716 -0.289E-02 -0.289E-02
 -26.706 -0.305E-02 -0.305E-02
 -26.696 -0.322E-02 -0.322E-02
 -26.686 -0.340E-02 -0.340E-02
 -26.676 -0.358E-02 -0.358E-02
 -26.666 -0.377E-02 -0.377E-02
 -26.656 -0.397E-02 -0.397E-02
 -26.646 -0.418E-02 -0.418E-02
 -26.636 -0.439E-02 -0.439E-02
 -26.626 -0.462E-02 -0.462E-02
 -26.616 -0.485E-02 -0.485E-02
 -26.606 -0.509E-02 -0.509E-02
 -26.596 -0.533E-02 -0.533E-02
 -26.586 -0.559E-02 -0.559E-02
 -26.576 -0.586E-02 -0.586E-02
 -26.566 -0.613E-02 -0.613E-02
 -26.556 -0.641E-02 -0.641E-02
 -26.546 -0.670E-02 -0.670E-02
 -26.536 -0.700E-02 -0.700E-02
 -26.526 -0.731E-02 -0.731E-02
 -26.516 -0.762E-02 -0.762E-02
 -26.506 -0.794E-02 -0.794E-02
 -26.496 -0.827E-02 -0.827E-02
 -26.486 -0.861E-02 -0.861E-02
 -26.476 -0.896E-02 -0.896E-02
 -26.466 -0.931E-02 -0.931E-02
 -26.456 -0.966E-02 -0.966E-02
 -26.446 -0.100E-01 -0.100E-01
 -26.436 -0.104E-01 -0.104E-01
 -26.426 -0.108E-01 -0.108E-01
 -26.416 -0.111E-01 -0.111E-01
 -26.406 -0.115E-01 -0.115E-01
 -26.396 -0.119E-01 -0.119E-01
 -26.386 -0.123E-01 -0.123E-01
 -26.376 -0.127E-01 -0.127E-01
 -26.366 -0.131E-01 -0.131E-01
 -26.356 -0.135E-01 -0.135E-01
 -26.346 -0.139E-01 -0.139E-01
 -26.336 -0.142E-01 -0.142E-01
 -26.326 -0.146E-01 -0.146E-01
 -26.316 -0.150E-01 -0.150E-01
 -26.306 -0.154E-01 -0.154E-01
 -26.296 -0.157E-01 -0.157E-01
 -26.286 -0.161E-01 -0.161E-01
 -26.276 -0.164E-01 -0.164E-01
 -26.266 -0.167E-01 -0.167E-01
 -26.256 -0.171E-01 -0.171E-01
 -26.246 -0.174E-01 -0.174E-01
 -26.236 -0.176E-01 -0.176E-01
 -26.226 -0.179E-01 -0.179E-01
 -26.216 -0.181E-01 -0.181E-01
 -26.206 -0.184E-01 -0.184E-01
 -26.196 -0.185E-01 -0.185E-01
 -26.186 -0.187E-01 -0.187E-01
 -26.176 -0.188E-01 -0.188E-01
 -26.166 -0.189E-01 -0.189E-01
 -26.156 -0.190E-01 -0.190E-01
 -26.146 -0.190E-01 -0.190E-01
 -26.136 -0.190E-01 -0.190E-01
 -26.126 -0.189E-01 -0.189E-01
 -26.116 -0.188E-01 -0.188E-01
 -26.106 -0.187E-01 -0.187E-01
 -26.096 -0.185E-01 -0.185E-01
 -26.086 -0.182E-01 -0.182E-01
 -26.076 -0.179E-01 -0.179E-01
 -26.066 -0.175E-01 -0.175E-01
 -26.056 -0.170E-01 -0.170E-01
 -26.046 -0.165E-01 -0.165E-01
 -26.036 -0.159E-01 -0.159E-01
 -26.026 -0.153E-01 -0.153E-01
 -26.016 -0.145E-01 -0.145E-01
 -26.006 -0.137E-01 -0.137E-01
 -25.996 -0.128E-01 -0.128E-01
 -25.986 -0.118E-01 -0.118E-01
 -25.976 -0.108E-01 -0.108E-01
 -25.966 -0.962E-02 -0.962E-02
 -25.956 -0.836E-02 -0.836E-02
 -25.946 -0.700E-02 -0.700E-02
 -25.936 -0.555E-02 -0.555E-02
 -25.926 -0.399E-02 -0.399E-02
 -25.916 -0.233E-02 -0.233E-02
 -25.906 -0.555E-03 -0.555E-03
 -25.896  0.133E-02  0.133E-02
 -25.886  0.332E-02  0.332E-02
 -25.876  0.544E-02  0.544E-02
 -25.866  0.767E-02  0.767E-02
 -25.856  0.100E-01  0.100E-01
 -25.846  0.125E-01  0.125E-01
 -25.836  0.151E-01  0.151E-01
 -25.826  0.178E-01  0.178E-01
 -25.816  0.206E-01  0.206E-01
 -25.806  0.236E-01  0.236E-01
 -25.796  0.267E-01  0.267E-01
 -25.786  0.299E-01  0.299E-01
 -25.776  0.333E-01  0.333E-01
 -25.766  0.368E-01  0.368E-01
 -25.756  0.404E-01  0.404E-01
 -25.746  0.442E-01  0.442E-01
 -25.736  0.480E-01  0.480E-01
 -25.726  0.520E-01  0.520E-01
 -25.716  0.562E-01  0.562E-01
 -25.706  0.604E-01  0.604E-01
 -25.696  0.648E-01  0.648E-01
 -25.686  0.693E-01  0.693E-01
 -25.676  0.739E-01  0.739E-01
 -25.666  0.787E-01  0.787E-01
 -25.656  0.835E-01  0.835E-01
 -25.646  0.885E-01  0.885E-01
 -25.636  0.935E-01  0.935E-01
 -25.626  0.987E-01  0.987E-01
 -25.616  0.104E+00  0.104E+00
 -25.606  0.109E+00  0.109E+00
 -25.596  0.115E+00  0.115E+00
 -25.586  0.120E+00  0.120E+00
 -25.576  0.126E+00  0.126E+00
 -25.566  0.132E+00  0.132E+00
 -25.556  0.137E+00  0.137E+00
 -25.546  0.143E+00  0.143E+00
 -25.536  0.149E+00  0.149E+00
 -25.526  0.155E+00  0.155E+00
 -25.516  0.161E+00  0.161E+00
 -25.506  0.167E+00  0.167E+00
 -25.496  0.173E+00  0.173E+00
 -25.486  0.179E+00  0.179E+00
 -25.476  0.185E+00  0.185E+00
 -25.466  0.192E+00  0.192E+00
 -25.456  0.198E+00  0.198E+00
 -25.446  0.204E+00  0.204E+00
 -25.436  0.210E+00  0.210E+00
 -25.426  0.216E+00  0.216E+00
 -25.416  0.222E+00  0.222E+00
 -25.406  0.228E+00  0.228E+00
 -25.396  0.234E+00  0.234E+00
 -25.386  0.240E+00  0.240E+00
 -25.376  0.245E+00  0.245E+00
 -25.366  0.251E+00  0.251E+00
 -25.356  0.257E+00  0.257E+00
 -25.346  0.262E+00  0.262E+00
 -25.336  0.268E+00  0.268E+00
 -25.326  0.273E+00  0.273E+00
 -25.316  0.278E+00  0.278E+00
 -25.306  0.283E+00  0.283E+00
 -25.296  0.288E+00  0.288E+00
 -25.286  0.293E+00  0.293E+00
 -25.276  0.298E+00  0.298E+00
 -25.266  0.302E+00  0.302E+00
 -25.256  0.306E+00  0.306E+00
 -25.246  0.310E+00  0.310E+00
 -25.236  0.314E+00  0.314E+00
 -25.226  0.318E+00  0.318E+00
 -25.216  0.322E+00  0.322E+00
 -25.206  0.325E+00  0.325E+00
 -25.196  0.328E+00  0.328E+00
 -25.186  0.331E+00  0.331E+00
 -25.176  0.334E+00  0.334E+00
 -25.166  0.336E+00  0.336E+00
 -25.156  0.338E+00  0.338E+00
 -25.146  0.340E+00  0.340E+00
 -25.136  0.342E+00  0.342E+00
 -25.126  0.344E+00  0.344E+00
 -25.116  0.345E+00  0.345E+00
 -25.106  0.346E+00  0.346E+00
 -25.096  0.347E+00  0.347E+00
 -25.086  0.347E+00  0.347E+00
 -25.076  0.347E+00  0.347E+00
 -25.066  0.347E+00  0.347E+00
 -25.056  0.347E+00  0.347E+00
 -25.046  0.347E+00  0.347E+00
 -25.036  0.346E+00  0.346E+00
 -25.026  0.345E+00  0.345E+00
 -25.016  0.344E+00  0.344E+00
 -25.006  0.342E+00  0.342E+00
 -24.996  0.341E+00  0.341E+00
 -24.986  0.339E+00  0.339E+00
 -24.976  0.337E+00  0.337E+00
 -24.966  0.334E+00  0.334E+00
 -24.956  0.332E+00  0.332E+00
 -24.946  0.329E+00  0.329E+00
 -24.936  0.326E+00  0.326E+00
 -24.926  0.322E+00  0.322E+00
 -24.916  0.319E+00  0.319E+00
 -24.906  0.315E+00  0.315E+00
 -24.896  0.311E+00  0.311E+00
 -24.886  0.307E+00  0.307E+00
 -24.876  0.303E+00  0.303E+00
 -24.866  0.299E+00  0.299E+00
 -24.856  0.294E+00  0.294E+00
 -24.846  0.289E+00  0.289E+00
 -24.836  0.284E+00  0.284E+00
 -24.826  0.279E+00  0.279E+00
 -24.816  0.274E+00  0.274E+00
 -24.806  0.269E+00  0.269E+00
 -24.796  0.264E+00  0.264E+00
 -24.786  0.258E+00  0.258E+00
 -24.776  0.252E+00  0.252E+00
 -24.766  0.247E+00  0.247E+00
 -24.756  0.241E+00  0.241E+00
 -24.746  0.235E+00  0.235E+00
 -24.736  0.229E+00  0.229E+00
 -24.726  0.223E+00  0.223E+00
 -24.716  0.217E+00  0.217E+00
 -24.706  0.211E+00  0.211E+00
 -24.696  0.205E+00  0.205E+00
 -24.686  0.199E+00  0.199E+00
 -24.676  0.193E+00  0.193E+00
 -24.666  0.187E+00  0.187E+00
 -24.656  0.181E+00  0.181E+00
 -24.646  0.175E+00  0.175E+00
 -24.636  0.169E+00  0.169E+00
 -24.626  0.163E+00  0.163E+00
 -24.616  0.157E+00  0.157E+00
 -24.606  0.151E+00  0.151E+00
 -24.596  0.145E+00  0.145E+00
 -24.586  0.139E+00  0.139E+00
 -24.576  0.133E+00  0.133E+00
 -24.566  0.127E+00  0.127E+00
 -24.556  0.122E+00  0.122E+00
 -24.546  0.116E+00  0.116E+00
 -24.536  0.111E+00  0.111E+00
 -24.526  0.105E+00  0.105E+00
 -24.516  0.100E+00  0.100E+00
 -24.506  0.948E-01  0.948E-01
 -24.496  0.897E-01  0.897E-01
 -24.486  0.847E-01  0.847E-01
 -24.476  0.798E-01  0.798E-01
 -24.466  0.750E-01  0.750E-01
 -24.456  0.704E-01  0.704E-01
 -24.446  0.659E-01  0.659E-01
 -24.436  0.614E-01  0.614E-01
 -24.426  0.572E-01  0.572E-01
 -24.416  0.530E-01  0.530E-01
 -24.406  0.490E-01  0.490E-01
 -24.396  0.451E-01  0.451E-01
 -24.386  0.413E-01  0.413E-01
 -24.376  0.376E-01  0.376E-01
 -24.366  0.341E-01  0.341E-01
 -24.356  0.307E-01  0.307E-01
 -24.346  0.275E-01  0.275E-01
 -24.336  0.243E-01  0.243E-01
 -24.326  0.213E-01  0.213E-01
 -24.316  0.185E-01  0.185E-01
 -24.306  0.157E-01  0.157E-01
 -24.296  0.131E-01  0.131E-01
 -24.286  0.106E-01  0.106E-01
 -24.276  0.821E-02  0.821E-02
 -24.266  0.595E-02  0.595E-02
 -24.256  0.381E-02  0.381E-02
 -24.246  0.179E-02  0.179E-02
 -24.236 -0.119E-03 -0.119E-03
 -24.226 -0.192E-02 -0.192E-02
 -24.216 -0.361E-02 -0.361E-02
 -24.206 -0.519E-02 -0.519E-02
 -24.196 -0.667E-02 -0.667E-02
 -24.186 -0.805E-02 -0.805E-02
 -24.176 -0.933E-02 -0.933E-02
 -24.166 -0.105E-01 -0.105E-01
 -24.156 -0.116E-01 -0.116E-01
 -24.146 -0.126E-01 -0.126E-01
 -24.136 -0.135E-01 -0.135E-01
 -24.126 -0.144E-01 -0.144E-01
 -24.116 -0.151E-01 -0.151E-01
 -24.106 -0.158E-01 -0.158E-01
 -24.096 -0.164E-01 -0.164E-01
 -24.086 -0.169E-01 -0.169E-01
 -24.076 -0.174E-01 -0.174E-01
 -24.066 -0.178E-01 -0.178E-01
 -24.056 -0.181E-01 -0.181E-01
 -24.046 -0.184E-01 -0.184E-01
 -24.036 -0.186E-01 -0.186E-01
 -24.026 -0.188E-01 -0.188E-01
 -24.016 -0.189E-01 -0.189E-01
 -24.006 -0.190E-01 -0.190E-01
 -23.996 -0.190E-01 -0.190E-01
 -23.986 -0.190E-01 -0.190E-01
 -23.976 -0.189E-01 -0.189E-01
 -23.966 -0.189E-01 -0.189E-01
 -23.956 -0.187E-01 -0.187E-01
 -23.946 -0.186E-01 -0.186E-01
 -23.936 -0.184E-01 -0.184E-01
 -23.926 -0.182E-01 -0.182E-01
 -23.916 -0.180E-01 -0.180E-01
 -23.906 -0.177E-01 -0.177E-01
 -23.896 -0.174E-01 -0.174E-01
 -23.886 -0.171E-01 -0.171E-01
 -23.876 -0.168E-01 -0.168E-01
 -23.866 -0.165E-01 -0.165E-01
 -23.856 -0.162E-01 -0.162E-01
 -23.846 -0.158E-01 -0.158E-01
 -23.836 -0.154E-01 -0.154E-01
 -23.826 -0.151E-01 -0.151E-01
 -23.816 -0.147E-01 -0.147E-01
 -23.806 -0.143E-01 -0.143E-01
 -23.796 -0.139E-01 -0.139E-01
 -23.786 -0.136E-01 -0.136E-01
 -23.776 -0.132E-01 -0.132E-01
 -23.766 -0.128E-01 -0.128E-01
 -23.756 -0.124E-01 -0.124E-01
 -23.746 -0.120E-01 -0.120E-01
 -23.736 -0.116E-01 -0.116E-01
 -23.726 -0.112E-01 -0.112E-01
 -23.716 -0.109E-01 -0.109E-01
 -23.706 -0.105E-01 -0.105E-01
 -23.696 -0.101E-01 -0.101E-01
 -23.686 -0.975E-02 -0.975E-02
 -23.676 -0.939E-02 -0.939E-02
 -23.666 -0.904E-02 -0.904E-02
 -23.656 -0.869E-02 -0.869E-02
 -23.646 -0.835E-02 -0.835E-02
 -23.636 -0.802E-02 -0.802E-02
 -23.626 -0.770E-02 -0.770E-02
 -23.616 -0.738E-02 -0.738E-02
 -23.606 -0.707E-02 -0.707E-02
 -23.596 -0.677E-02 -0.677E-02
 -23.586 -0.648E-02 -0.648E-02
 -23.576 -0.620E-02 -0.620E-02
 -23.566 -0.592E-02 -0.592E-02
 -23.556 -0.565E-02 -0.565E-02
 -23.546 -0.539E-02 -0.539E-02
 -23.536 -0.514E-02 -0.514E-02
 -23.526 -0.490E-02 -0.490E-02
 -23.516 -0.467E-02 -0.467E-02
 -23.506 -0.444E-02 -0.444E-02
 -23.496 -0.423E-02 -0.423E-02
 -23.486 -0.402E-02 -0.402E-02
 -23.476 -0.382E-02 -0.382E-02
 -23.466 -0.362E-02 -0.362E-02
 -23.456 -0.344E-02 -0.344E-02
 -23.446 -0.326E-02 -0.326E-02
 -23.436 -0.309E-02 -0.309E-02
 -23.426 -0.293E-02 -0.293E-02
 -23.416 -0.277E-02 -0.277E-02
 -23.406 -0.262E-02 -0.262E-02
 -23.396 -0.248E-02 -0.248E-02
 -23.386 -0.234E-02 -0.234E-02
 -23.376 -0.221E-02 -0.221E-02
 -23.366 -0.209E-02 -0.209E-02
 -23.356 -0.197E-02 -0.197E-02
 -23.346 -0.185E-02 -0.185E-02
 -23.336 -0.175E-02 -0.175E-02
 -23.326 -0.165E-02 -0.165E-02
 -23.316 -0.155E-02 -0.155E-02
 -23.306 -0.146E-02 -0.146E-02
 -23.296 -0.137E-02 -0.137E-02
 -23.286 -0.129E-02 -0.129E-02
 -23.276 -0.121E-02 -0.121E-02
 -23.266 -0.113E-02 -0.113E-02
 -23.256 -0.106E-02 -0.106E-02
 -23.246 -0.996E-03 -0.996E-03
 -23.236 -0.933E-03 -0.933E-03
 -23.226 -0.874E-03 -0.874E-03
 -23.216 -0.818E-03 -0.818E-03
 -23.206 -0.765E-03 -0.765E-03
 -23.196 -0.715E-03 -0.715E-03
 -23.186 -0.668E-03 -0.668E-03
 -23.176 -0.624E-03 -0.624E-03
 -23.166 -0.582E-03 -0.582E-03
 -23.156 -0.543E-03 -0.543E-03
 -23.146 -0.506E-03 -0.506E-03
 -23.136 -0.472E-03 -0.472E-03
 -23.126 -0.439E-03 -0.439E-03
 -23.116 -0.409E-03 -0.409E-03
 -23.106 -0.381E-03 -0.381E-03
 -23.096 -0.354E-03 -0.354E-03
 -23.086 -0.329E-03 -0.329E-03
 -23.076 -0.306E-03 -0.306E-03
 -23.066 -0.284E-03 -0.284E-03
 -23.056 -0.263E-03 -0.263E-03
 -23.046 -0.244E-03 -0.244E-03
 -23.036 -0.227E-03 -0.227E-03
 -23.026 -0.210E-03 -0.210E-03
 -23.016 -0.195E-03 -0.195E-03
 -23.006 -0.180E-03 -0.180E-03
 -22.996 -0.167E-03 -0.167E-03
 -22.986 -0.154E-03 -0.154E-03
 -22.976 -0.143E-03 -0.143E-03
 -22.966 -0.132E-03 -0.132E-03
 -22.956 -0.122E-03 -0.122E-03
 -22.946 -0.113E-03 -0.113E-03
 -22.936 -0.104E-03 -0.104E-03
 -22.926 -0.965E-04 -0.965E-04
 -22.916 -0.892E-04 -0.892E-04
 -22.906 -0.824E-04 -0.824E-04
 -22.896 -0.762E-04 -0.762E-04
 -22.886 -0.705E-04 -0.705E-04
 -22.876 -0.652E-04 -0.652E-04
 -22.866 -0.604E-04 -0.604E-04
 -22.856 -0.560E-04 -0.560E-04
 -22.846 -0.520E-04 -0.520E-04
 -22.836 -0.484E-04 -0.484E-04
 -22.826 -0.451E-04 -0.451E-04
 -22.816 -0.421E-04 -0.421E-04
 -22.806 -0.395E-04 -0.395E-04
 -22.796 -0.371E-04 -0.371E-04
 -22.786 -0.350E-04 -0.350E-04
 -22.776 -0.332E-04 -0.332E-04
 -22.766 -0.317E-04 -0.317E-04
 -22.756 -0.304E-04 -0.304E-04
 -22.746 -0.293E-04 -0.293E-04
 -22.736 -0.285E-04 -0.285E-04
 -22.726 -0.279E-04 -0.279E-04
 -22.716 -0.276E-04 -0.276E-04
 -22.706 -0.274E-04 -0.274E-04
 -22.696 -0.275E-04 -0.275E-04
 -22.686 -0.279E-04 -0.279E-04
 -22.676 -0.284E-04 -0.284E-04
 -22.666 -0.292E-04 -0.292E-04
 -22.656 -0.303E-04 -0.303E-04
 -22.646 -0.316E-04 -0.316E-04
 -22.636 -0.331E-04 -0.331E-04
 -22.626 -0.350E-04 -0.350E-04
 -22.616 -0.371E-04 -0.371E-04
 -22.606 -0.395E-04 -0.395E-04
 -22.596 -0.422E-04 -0.422E-04
 -22.586 -0.452E-04 -0.452E-04
 -22.576 -0.486E-04 -0.486E-04
 -22.566 -0.523E-04 -0.523E-04
 -22.556 -0.565E-04 -0.565E-04
 -22.546 -0.610E-04 -0.610E-04
 -22.536 -0.661E-04 -0.661E-04
 -22.526 -0.715E-04 -0.715E-04
 -22.516 -0.775E-04 -0.775E-04
 -22.506 -0.840E-04 -0.840E-04
 -22.496 -0.912E-04 -0.912E-04
 -22.486 -0.989E-04 -0.989E-04
 -22.476 -0.107E-03 -0.107E-03
 -22.466 -0.116E-03 -0.116E-03
 -22.456 -0.126E-03 -0.126E-03
 -22.446 -0.137E-03 -0.137E-03
 -22.436 -0.148E-03 -0.148E-03
 -22.426 -0.161E-03 -0.161E-03
 -22.416 -0.174E-03 -0.174E-03
 -22.406 -0.189E-03 -0.189E-03
 -22.396 -0.205E-03 -0.205E-03
 -22.386 -0.221E-03 -0.221E-03
 -22.376 -0.240E-03 -0.240E-03
 -22.366 -0.259E-03 -0.259E-03
 -22.356 -0.280E-03 -0.280E-03
 -22.346 -0.303E-03 -0.303E-03
 -22.336 -0.327E-03 -0.327E-03
 -22.326 -0.353E-03 -0.353E-03
 -22.316 -0.381E-03 -0.381E-03
 -22.306 -0.411E-03 -0.411E-03
 -22.296 -0.443E-03 -0.443E-03
 -22.286 -0.477E-03 -0.477E-03
 -22.276 -0.514E-03 -0.514E-03
 -22.266 -0.553E-03 -0.553E-03
 -22.256 -0.595E-03 -0.595E-03
 -22.246 -0.639E-03 -0.639E-03
 -22.236 -0.687E-03 -0.687E-03
 -22.226 -0.738E-03 -0.738E-03
 -22.216 -0.792E-03 -0.792E-03
 -22.206 -0.850E-03 -0.850E-03
 -22.196 -0.912E-03 -0.912E-03
 -22.186 -0.977E-03 -0.977E-03
 -22.176 -0.105E-02 -0.105E-02
 -22.166 -0.112E-02 -0.112E-02
 -22.156 -0.120E-02 -0.120E-02
 -22.146 -0.128E-02 -0.128E-02
 -22.136 -0.137E-02 -0.137E-02
 -22.126 -0.147E-02 -0.147E-02
 -22.116 -0.156E-02 -0.156E-02
 -22.106 -0.167E-02 -0.167E-02
 -22.096 -0.178E-02 -0.178E-02
 -22.086 -0.190E-02 -0.190E-02
 -22.076 -0.202E-02 -0.202E-02
 -22.066 -0.215E-02 -0.215E-02
 -22.056 -0.229E-02 -0.229E-02
 -22.046 -0.244E-02 -0.244E-02
 -22.036 -0.259E-02 -0.259E-02
 -22.026 -0.275E-02 -0.275E-02
 -22.016 -0.292E-02 -0.292E-02
 -22.006 -0.310E-02 -0.310E-02
 -21.996 -0.329E-02 -0.329E-02
 -21.986 -0.349E-02 -0.349E-02
 -21.976 -0.370E-02 -0.370E-02
 -21.966 -0.391E-02 -0.391E-02
 -21.956 -0.414E-02 -0.414E-02
 -21.946 -0.438E-02 -0.438E-02
 -21.936 -0.463E-02 -0.463E-02
 -21.926 -0.489E-02 -0.489E-02
 -21.916 -0.516E-02 -0.516E-02
 -21.906 -0.545E-02 -0.545E-02
 -21.896 -0.574E-02 -0.574E-02
 -21.886 -0.605E-02 -0.605E-02
 -21.876 -0.637E-02 -0.637E-02
 -21.866 -0.671E-02 -0.671E-02
 -21.856 -0.706E-02 -0.706E-02
 -21.846 -0.742E-02 -0.742E-02
 -21.836 -0.779E-02 -0.779E-02
 -21.826 -0.818E-02 -0.818E-02
 -21.816 -0.858E-02 -0.858E-02
 -21.806 -0.900E-02 -0.900E-02
 -21.796 -0.943E-02 -0.943E-02
 -21.786 -0.987E-02 -0.987E-02
 -21.776 -0.103E-01 -0.103E-01
 -21.766 -0.108E-01 -0.108E-01
 -21.756 -0.113E-01 -0.113E-01
 -21.746 -0.118E-01 -0.118E-01
 -21.736 -0.123E-01 -0.123E-01
 -21.726 -0.128E-01 -0.128E-01
 -21.716 -0.134E-01 -0.134E-01
 -21.706 -0.139E-01 -0.139E-01
 -21.696 -0.145E-01 -0.145E-01
 -21.686 -0.150E-01 -0.150E-01
 -21.676 -0.156E-01 -0.156E-01
 -21.666 -0.162E-01 -0.162E-01
 -21.656 -0.168E-01 -0.168E-01
 -21.646 -0.174E-01 -0.174E-01
 -21.636 -0.180E-01 -0.180E-01
 -21.626 -0.187E-01 -0.187E-01
 -21.616 -0.193E-01 -0.193E-01
 -21.606 -0.199E-01 -0.199E-01
 -21.596 -0.206E-01 -0.206E-01
 -21.586 -0.212E-01 -0.212E-01
 -21.576 -0.219E-01 -0.219E-01
 -21.566 -0.225E-01 -0.225E-01
 -21.556 -0.231E-01 -0.231E-01
 -21.546 -0.238E-01 -0.238E-01
 -21.536 -0.244E-01 -0.244E-01
 -21.526 -0.250E-01 -0.250E-01
 -21.516 -0.256E-01 -0.256E-01
 -21.506 -0.262E-01 -0.262E-01
 -21.496 -0.267E-01 -0.267E-01
 -21.486 -0.273E-01 -0.273E-01
 -21.476 -0.278E-01 -0.278E-01
 -21.466 -0.283E-01 -0.283E-01
 -21.456 -0.288E-01 -0.288E-01
 -21.446 -0.292E-01 -0.292E-01
 -21.436 -0.297E-01 -0.297E-01
 -21.426 -0.300E-01 -0.300E-01
 -21.416 -0.304E-01 -0.304E-01
 -21.406 -0.306E-01 -0.306E-01
 -21.396 -0.309E-01 -0.309E-01
 -21.386 -0.311E-01 -0.311E-01
 -21.376 -0.312E-01 -0.312E-01
 -21.366 -0.313E-01 -0.313E-01
 -21.356 -0.313E-01 -0.313E-01
 -21.346 -0.312E-01 -0.312E-01
 -21.336 -0.311E-01 -0.311E-01
 -21.326 -0.308E-01 -0.308E-01
 -21.316 -0.305E-01 -0.305E-01
 -21.306 -0.301E-01 -0.301E-01
 -21.296 -0.296E-01 -0.296E-01
 -21.286 -0.291E-01 -0.291E-01
 -21.276 -0.284E-01 -0.284E-01
 -21.266 -0.276E-01 -0.276E-01
 -21.256 -0.267E-01 -0.267E-01
 -21.246 -0.256E-01 -0.256E-01
 -21.236 -0.245E-01 -0.245E-01
 -21.226 -0.232E-01 -0.232E-01
 -21.216 -0.218E-01 -0.218E-01
 -21.206 -0.203E-01 -0.203E-01
 -21.196 -0.186E-01 -0.186E-01
 -21.186 -0.167E-01 -0.167E-01
 -21.176 -0.147E-01 -0.147E-01
 -21.166 -0.126E-01 -0.126E-01
 -21.156 -0.103E-01 -0.103E-01
 -21.146 -0.779E-02 -0.779E-02
 -21.136 -0.513E-02 -0.513E-02
 -21.126 -0.230E-02 -0.230E-02
 -21.116  0.708E-03  0.708E-03
 -21.106  0.390E-02  0.390E-02
 -21.096  0.729E-02  0.729E-02
 -21.086  0.109E-01  0.109E-01
 -21.076  0.146E-01  0.146E-01
 -21.066  0.186E-01  0.186E-01
 -21.056  0.228E-01  0.228E-01
 -21.046  0.272E-01  0.272E-01
 -21.036  0.317E-01  0.317E-01
 -21.026  0.365E-01  0.365E-01
 -21.016  0.415E-01  0.415E-01
 -21.006  0.467E-01  0.467E-01
 -20.996  0.522E-01  0.522E-01
 -20.986  0.578E-01  0.578E-01
 -20.976  0.636E-01  0.636E-01
 -20.966  0.697E-01  0.697E-01
 -20.956  0.760E-01  0.760E-01
 -20.946  0.825E-01  0.825E-01
 -20.936  0.891E-01  0.891E-01
 -20.926  0.960E-01  0.960E-01
 -20.916  0.103E+00  0.103E+00
 -20.906  0.110E+00  0.110E+00
 -20.896  0.118E+00  0.118E+00
 -20.886  0.126E+00  0.126E+00
 -20.876  0.134E+00  0.134E+00
 -20.866  0.142E+00  0.142E+00
 -20.856  0.150E+00  0.150E+00
 -20.846  0.158E+00  0.158E+00
 -20.836  0.167E+00  0.167E+00
 -20.826  0.176E+00  0.176E+00
 -20.816  0.185E+00  0.185E+00
 -20.806  0.194E+00  0.194E+00
 -20.796  0.203E+00  0.203E+00
 -20.786  0.212E+00  0.212E+00
 -20.776  0.222E+00  0.222E+00
 -20.766  0.231E+00  0.231E+00
 -20.756  0.241E+00  0.241E+00
 -20.746  0.251E+00  0.251E+00
 -20.736  0.260E+00  0.260E+00
 -20.726  0.270E+00  0.270E+00
 -20.716  0.280E+00  0.280E+00
 -20.706  0.290E+00  0.290E+00
 -20.696  0.300E+00  0.300E+00
 -20.686  0.310E+00  0.310E+00
 -20.676  0.320E+00  0.320E+00
 -20.666  0.330E+00  0.330E+00
 -20.656  0.340E+00  0.340E+00
 -20.646  0.350E+00  0.350E+00
 -20.636  0.360E+00  0.360E+00
 -20.626  0.370E+00  0.370E+00
 -20.616  0.380E+00  0.380E+00
 -20.606  0.389E+00  0.389E+00
 -20.596  0.399E+00  0.399E+00
 -20.586  0.408E+00  0.408E+00
 -20.576  0.418E+00  0.418E+00
 -20.566  0.427E+00  0.427E+00
 -20.556  0.436E+00  0.436E+00
 -20.546  0.445E+00  0.445E+00
 -20.536  0.453E+00  0.453E+00
 -20.526  0.462E+00  0.462E+00
 -20.516  0.470E+00  0.470E+00
 -20.506  0.478E+00  0.478E+00
 -20.496  0.486E+00  0.486E+00
 -20.486  0.493E+00  0.493E+00
 -20.476  0.500E+00  0.500E+00
 -20.466  0.507E+00  0.507E+00
 -20.456  0.514E+00  0.514E+00
 -20.446  0.520E+00  0.520E+00
 -20.436  0.526E+00  0.526E+00
 -20.426  0.532E+00  0.532E+00
 -20.416  0.537E+00  0.537E+00
 -20.406  0.542E+00  0.542E+00
 -20.396  0.546E+00  0.546E+00
 -20.386  0.550E+00  0.550E+00
 -20.376  0.554E+00  0.554E+00
 -20.366  0.558E+00  0.558E+00
 -20.356  0.561E+00  0.561E+00
 -20.346  0.563E+00  0.563E+00
 -20.336  0.566E+00  0.566E+00
 -20.326  0.568E+00  0.568E+00
 -20.316  0.569E+00  0.569E+00
 -20.306  0.570E+00  0.570E+00
 -20.296  0.571E+00  0.571E+00
 -20.286  0.571E+00  0.571E+00
 -20.276  0.571E+00  0.571E+00
 -20.266  0.570E+00  0.570E+00
 -20.256  0.569E+00  0.569E+00
 -20.246  0.568E+00  0.568E+00
 -20.236  0.566E+00  0.566E+00
 -20.226  0.564E+00  0.564E+00
 -20.216  0.561E+00  0.561E+00
 -20.206  0.558E+00  0.558E+00
 -20.196  0.555E+00  0.555E+00
 -20.186  0.551E+00  0.551E+00
 -20.176  0.547E+00  0.547E+00
 -20.166  0.542E+00  0.542E+00
 -20.156  0.537E+00  0.537E+00
 -20.146  0.532E+00  0.532E+00
 -20.136  0.527E+00  0.527E+00
 -20.126  0.521E+00  0.521E+00
 -20.116  0.514E+00  0.514E+00
 -20.106  0.508E+00  0.508E+00
 -20.096  0.501E+00  0.501E+00
 -20.086  0.494E+00  0.494E+00
 -20.076  0.487E+00  0.487E+00
 -20.066  0.479E+00  0.479E+00
 -20.056  0.471E+00  0.471E+00
 -20.046  0.463E+00  0.463E+00
 -20.036  0.454E+00  0.454E+00
 -20.026  0.446E+00  0.446E+00
 -20.016  0.437E+00  0.437E+00
 -20.006  0.428E+00  0.428E+00
 -19.996  0.419E+00  0.419E+00
 -19.986  0.410E+00  0.410E+00
 -19.976  0.400E+00  0.400E+00
 -19.966  0.391E+00  0.391E+00
 -19.956  0.381E+00  0.381E+00
 -19.946  0.371E+00  0.371E+00
 -19.936  0.362E+00  0.362E+00
 -19.926  0.352E+00  0.352E+00
 -19.916  0.342E+00  0.342E+00
 -19.906  0.332E+00  0.332E+00
 -19.896  0.322E+00  0.322E+00
 -19.886  0.312E+00  0.312E+00
 -19.876  0.302E+00  0.302E+00
 -19.866  0.292E+00  0.292E+00
 -19.856  0.282E+00  0.282E+00
 -19.846  0.272E+00  0.272E+00
 -19.836  0.262E+00  0.262E+00
 -19.826  0.252E+00  0.252E+00
 -19.816  0.243E+00  0.243E+00
 -19.806  0.233E+00  0.233E+00
 -19.796  0.224E+00  0.224E+00
 -19.786  0.214E+00  0.214E+00
 -19.776  0.205E+00  0.205E+00
 -19.766  0.196E+00  0.196E+00
 -19.756  0.187E+00  0.187E+00
 -19.746  0.178E+00  0.178E+00
 -19.736  0.169E+00  0.169E+00
 -19.726  0.161E+00  0.161E+00
 -19.716  0.152E+00  0.152E+00
 -19.706  0.144E+00  0.144E+00
 -19.696  0.136E+00  0.136E+00
 -19.686  0.128E+00  0.128E+00
 -19.676  0.121E+00  0.121E+00
 -19.666  0.113E+00  0.113E+00
 -19.656  0.106E+00  0.106E+00
 -19.646  0.991E-01  0.991E-01
 -19.636  0.923E-01  0.923E-01
 -19.626  0.857E-01  0.857E-01
 -19.616  0.794E-01  0.794E-01
 -19.606  0.732E-01  0.732E-01
 -19.596  0.673E-01  0.673E-01
 -19.586  0.615E-01  0.615E-01
 -19.576  0.560E-01  0.560E-01
 -19.566  0.507E-01  0.507E-01
 -19.556  0.456E-01  0.456E-01
 -19.546  0.408E-01  0.408E-01
 -19.536  0.361E-01  0.361E-01
 -19.526  0.317E-01  0.317E-01
 -19.516  0.275E-01  0.275E-01
 -19.506  0.234E-01  0.234E-01
 -19.496  0.196E-01  0.196E-01
 -19.486  0.160E-01  0.160E-01
 -19.476  0.126E-01  0.126E-01
 -19.466  0.935E-02  0.935E-02
 -19.456  0.632E-02  0.632E-02
 -19.446  0.347E-02  0.347E-02
 -19.436  0.801E-03  0.801E-03
 -19.426 -0.169E-02 -0.169E-02
 -19.416 -0.400E-02 -0.400E-02
 -19.406 -0.615E-02 -0.615E-02
 -19.396 -0.813E-02 -0.813E-02
 -19.386 -0.995E-02 -0.995E-02
 -19.376 -0.116E-01 -0.116E-01
 -19.366 -0.131E-01 -0.131E-01
 -19.356 -0.145E-01 -0.145E-01
 -19.346 -0.158E-01 -0.158E-01
 -19.336 -0.169E-01 -0.169E-01
 -19.326 -0.178E-01 -0.178E-01
 -19.316 -0.187E-01 -0.187E-01
 -19.306 -0.194E-01 -0.194E-01
 -19.296 -0.201E-01 -0.201E-01
 -19.286 -0.206E-01 -0.206E-01
 -19.276 -0.210E-01 -0.210E-01
 -19.266 -0.214E-01 -0.214E-01
 -19.256 -0.216E-01 -0.216E-01
 -19.246 -0.217E-01 -0.217E-01
 -19.236 -0.218E-01 -0.218E-01
 -19.226 -0.218E-01 -0.218E-01
 -19.216 -0.217E-01 -0.217E-01
 -19.206 -0.216E-01 -0.216E-01
 -19.196 -0.214E-01 -0.214E-01
 -19.186 -0.211E-01 -0.211E-01
 -19.176 -0.208E-01 -0.208E-01
 -19.166 -0.205E-01 -0.205E-01
 -19.156 -0.201E-01 -0.201E-01
 -19.146 -0.197E-01 -0.197E-01
 -19.136 -0.192E-01 -0.192E-01
 -19.126 -0.187E-01 -0.187E-01
 -19.116 -0.181E-01 -0.181E-01
 -19.106 -0.176E-01 -0.176E-01
 -19.096 -0.170E-01 -0.170E-01
 -19.086 -0.164E-01 -0.164E-01
 -19.076 -0.158E-01 -0.158E-01
 -19.066 -0.152E-01 -0.152E-01
 -19.056 -0.146E-01 -0.146E-01
 -19.046 -0.139E-01 -0.139E-01
 -19.036 -0.133E-01 -0.133E-01
 -19.026 -0.126E-01 -0.126E-01
 -19.016 -0.120E-01 -0.120E-01
 -19.006 -0.114E-01 -0.114E-01
 -18.996 -0.107E-01 -0.107E-01
 -18.986 -0.101E-01 -0.101E-01
 -18.976 -0.947E-02 -0.947E-02
 -18.966 -0.886E-02 -0.886E-02
 -18.956 -0.826E-02 -0.826E-02
 -18.946 -0.767E-02 -0.767E-02
 -18.936 -0.709E-02 -0.709E-02
 -18.926 -0.653E-02 -0.653E-02
 -18.916 -0.598E-02 -0.598E-02
 -18.906 -0.545E-02 -0.545E-02
 -18.896 -0.494E-02 -0.494E-02
 -18.886 -0.444E-02 -0.444E-02
 -18.876 -0.396E-02 -0.396E-02
 -18.866 -0.350E-02 -0.350E-02
 -18.856 -0.306E-02 -0.306E-02
 -18.846 -0.264E-02 -0.264E-02
 -18.836 -0.223E-02 -0.223E-02
 -18.826 -0.185E-02 -0.185E-02
 -18.816 -0.148E-02 -0.148E-02
 -18.806 -0.114E-02 -0.114E-02
 -18.796 -0.813E-03 -0.813E-03
 -18.786 -0.506E-03 -0.506E-03
 -18.776 -0.219E-03 -0.219E-03
 -18.766  0.498E-04  0.498E-04
 -18.756  0.300E-03  0.300E-03
 -18.746  0.531E-03  0.531E-03
 -18.736  0.745E-03  0.745E-03
 -18.726  0.941E-03  0.941E-03
 -18.716  0.112E-02  0.112E-02
 -18.706  0.128E-02  0.128E-02
 -18.696  0.143E-02  0.143E-02
 -18.686  0.156E-02  0.156E-02
 -18.676  0.167E-02  0.167E-02
 -18.666  0.177E-02  0.177E-02
 -18.656  0.186E-02  0.186E-02
 -18.646  0.193E-02  0.193E-02
 -18.636  0.199E-02  0.199E-02
 -18.626  0.203E-02  0.203E-02
 -18.616  0.207E-02  0.207E-02
 -18.606  0.209E-02  0.209E-02
 -18.596  0.210E-02  0.210E-02
 -18.586  0.210E-02  0.210E-02
 -18.576  0.209E-02  0.209E-02
 -18.566  0.207E-02  0.207E-02
 -18.556  0.205E-02  0.205E-02
 -18.546  0.201E-02  0.201E-02
 -18.536  0.197E-02  0.197E-02
 -18.526  0.192E-02  0.192E-02
 -18.516  0.186E-02  0.186E-02
 -18.506  0.180E-02  0.180E-02
 -18.496  0.173E-02  0.173E-02
 -18.486  0.166E-02  0.166E-02
 -18.476  0.158E-02  0.158E-02
 -18.466  0.149E-02  0.149E-02
 -18.456  0.141E-02  0.141E-02
 -18.446  0.132E-02  0.132E-02
 -18.436  0.122E-02  0.122E-02
 -18.426  0.113E-02  0.113E-02
 -18.416  0.103E-02  0.103E-02
 -18.406  0.926E-03  0.926E-03
 -18.396  0.824E-03  0.824E-03
 -18.386  0.719E-03  0.719E-03
 -18.376  0.614E-03  0.614E-03
 -18.366  0.508E-03  0.508E-03
 -18.356  0.401E-03  0.401E-03
 -18.346  0.294E-03  0.294E-03
 -18.336  0.187E-03  0.187E-03
 -18.326  0.801E-04  0.801E-04
 -18.316 -0.265E-04 -0.265E-04
 -18.306 -0.133E-03 -0.133E-03
 -18.296 -0.238E-03 -0.238E-03
 -18.286 -0.342E-03 -0.342E-03
 -18.276 -0.446E-03 -0.446E-03
 -18.266 -0.548E-03 -0.548E-03
 -18.256 -0.648E-03 -0.648E-03
 -18.246 -0.747E-03 -0.747E-03
 -18.236 -0.845E-03 -0.845E-03
 -18.226 -0.941E-03 -0.941E-03
 -18.216 -0.103E-02 -0.103E-02
 -18.206 -0.113E-02 -0.113E-02
 -18.196 -0.122E-02 -0.122E-02
 -18.186 -0.130E-02 -0.130E-02
 -18.176 -0.139E-02 -0.139E-02
 -18.166 -0.147E-02 -0.147E-02
 -18.156 -0.155E-02 -0.155E-02
 -18.146 -0.163E-02 -0.163E-02
 -18.136 -0.170E-02 -0.170E-02
 -18.126 -0.178E-02 -0.178E-02
 -18.116 -0.185E-02 -0.185E-02
 -18.106 -0.191E-02 -0.191E-02
 -18.096 -0.198E-02 -0.198E-02
 -18.086 -0.204E-02 -0.204E-02
 -18.076 -0.209E-02 -0.209E-02
 -18.066 -0.215E-02 -0.215E-02
 -18.056 -0.220E-02 -0.220E-02
 -18.046 -0.224E-02 -0.224E-02
 -18.036 -0.228E-02 -0.228E-02
 -18.026 -0.232E-02 -0.232E-02
 -18.016 -0.236E-02 -0.236E-02
 -18.006 -0.239E-02 -0.239E-02
 -17.996 -0.242E-02 -0.242E-02
 -17.986 -0.244E-02 -0.244E-02
 -17.976 -0.246E-02 -0.246E-02
 -17.966 -0.247E-02 -0.247E-02
 -17.956 -0.248E-02 -0.248E-02
 -17.946 -0.248E-02 -0.248E-02
 -17.936 -0.248E-02 -0.248E-02
 -17.926 -0.247E-02 -0.247E-02
 -17.916 -0.246E-02 -0.246E-02
 -17.906 -0.244E-02 -0.244E-02
 -17.896 -0.242E-02 -0.242E-02
 -17.886 -0.239E-02 -0.239E-02
 -17.876 -0.235E-02 -0.235E-02
 -17.866 -0.230E-02 -0.230E-02
 -17.856 -0.225E-02 -0.225E-02
 -17.846 -0.220E-02 -0.220E-02
 -17.836 -0.213E-02 -0.213E-02
 -17.826 -0.206E-02 -0.206E-02
 -17.816 -0.198E-02 -0.198E-02
 -17.806 -0.189E-02 -0.189E-02
 -17.796 -0.179E-02 -0.179E-02
 -17.786 -0.169E-02 -0.169E-02
 -17.776 -0.158E-02 -0.158E-02
 -17.766 -0.145E-02 -0.145E-02
 -17.756 -0.132E-02 -0.132E-02
 -17.746 -0.118E-02 -0.118E-02
 -17.736 -0.103E-02 -0.103E-02
 -17.726 -0.868E-03 -0.868E-03
 -17.716 -0.697E-03 -0.697E-03
 -17.706 -0.516E-03 -0.516E-03
 -17.696 -0.324E-03 -0.324E-03
 -17.686 -0.122E-03 -0.122E-03
 -17.676  0.916E-04  0.916E-04
 -17.666  0.316E-03  0.316E-03
 -17.656  0.552E-03  0.552E-03
 -17.646  0.799E-03  0.799E-03
 -17.636  0.106E-02  0.106E-02
 -17.626  0.133E-02  0.133E-02
 -17.616  0.161E-02  0.161E-02
 -17.606  0.190E-02  0.190E-02
 -17.596  0.221E-02  0.221E-02
 -17.586  0.253E-02  0.253E-02
 -17.576  0.286E-02  0.286E-02
 -17.566  0.320E-02  0.320E-02
 -17.556  0.355E-02  0.355E-02
 -17.546  0.392E-02  0.392E-02
 -17.536  0.430E-02  0.430E-02
 -17.526  0.469E-02  0.469E-02
 -17.516  0.509E-02  0.509E-02
 -17.506  0.550E-02  0.550E-02
 -17.496  0.592E-02  0.592E-02
 -17.486  0.636E-02  0.636E-02
 -17.476  0.681E-02  0.681E-02
 -17.466  0.726E-02  0.726E-02
 -17.456  0.773E-02  0.773E-02
 -17.446  0.821E-02  0.821E-02
 -17.436  0.870E-02  0.870E-02
 -17.426  0.919E-02  0.919E-02
 -17.416  0.970E-02  0.970E-02
 -17.406  0.102E-01  0.102E-01
 -17.396  0.107E-01  0.107E-01
 -17.386  0.113E-01  0.113E-01
 -17.376  0.118E-01  0.118E-01
 -17.366  0.124E-01  0.124E-01
 -17.356  0.129E-01  0.129E-01
 -17.346  0.135E-01  0.135E-01
 -17.336  0.140E-01  0.140E-01
 -17.326  0.146E-01  0.146E-01
 -17.316  0.152E-01  0.152E-01
 -17.306  0.158E-01  0.158E-01
 -17.296  0.163E-01  0.163E-01
 -17.286  0.169E-01  0.169E-01
 -17.276  0.175E-01  0.175E-01
 -17.266  0.181E-01  0.181E-01
 -17.256  0.187E-01  0.187E-01
 -17.246  0.192E-01  0.192E-01
 -17.236  0.198E-01  0.198E-01
 -17.226  0.204E-01  0.204E-01
 -17.216  0.210E-01  0.210E-01
 -17.206  0.216E-01  0.216E-01
 -17.196  0.221E-01  0.221E-01
 -17.186  0.227E-01  0.227E-01
 -17.176  0.232E-01  0.232E-01
 -17.166  0.238E-01  0.238E-01
 -17.156  0.243E-01  0.243E-01
 -17.146  0.249E-01  0.249E-01
 -17.136  0.254E-01  0.254E-01
 -17.126  0.259E-01  0.259E-01
 -17.116  0.264E-01  0.264E-01
 -17.106  0.269E-01  0.269E-01
 -17.096  0.274E-01  0.274E-01
 -17.086  0.278E-01  0.278E-01
 -17.076  0.283E-01  0.283E-01
 -17.066  0.287E-01  0.287E-01
 -17.056  0.291E-01  0.291E-01
 -17.046  0.295E-01  0.295E-01
 -17.036  0.299E-01  0.299E-01
 -17.026  0.303E-01  0.303E-01
 -17.016  0.307E-01  0.307E-01
 -17.006  0.310E-01  0.310E-01
 -16.996  0.313E-01  0.313E-01
 -16.986  0.316E-01  0.316E-01
 -16.976  0.319E-01  0.319E-01
 -16.966  0.322E-01  0.322E-01
 -16.956  0.324E-01  0.324E-01
 -16.946  0.326E-01  0.326E-01
 -16.936  0.328E-01  0.328E-01
 -16.926  0.330E-01  0.330E-01
 -16.916  0.331E-01  0.331E-01
 -16.906  0.333E-01  0.333E-01
 -16.896  0.334E-01  0.334E-01
 -16.886  0.335E-01  0.335E-01
 -16.876  0.336E-01  0.336E-01
 -16.866  0.336E-01  0.336E-01
 -16.856  0.336E-01  0.336E-01
 -16.846  0.336E-01  0.336E-01
 -16.836  0.336E-01  0.336E-01
 -16.826  0.336E-01  0.336E-01
 -16.816  0.335E-01  0.335E-01
 -16.806  0.334E-01  0.334E-01
 -16.796  0.333E-01  0.333E-01
 -16.786  0.332E-01  0.332E-01
 -16.776  0.331E-01  0.331E-01
 -16.766  0.329E-01  0.329E-01
 -16.756  0.328E-01  0.328E-01
 -16.746  0.326E-01  0.326E-01
 -16.736  0.323E-01  0.323E-01
 -16.726  0.321E-01  0.321E-01
 -16.716  0.319E-01  0.319E-01
 -16.706  0.316E-01  0.316E-01
 -16.696  0.313E-01  0.313E-01
 -16.686  0.310E-01  0.310E-01
 -16.676  0.307E-01  0.307E-01
 -16.666  0.304E-01  0.304E-01
 -16.656  0.300E-01  0.300E-01
 -16.646  0.297E-01  0.297E-01
 -16.636  0.293E-01  0.293E-01
 -16.626  0.289E-01  0.289E-01
 -16.616  0.285E-01  0.285E-01
 -16.606  0.281E-01  0.281E-01
 -16.596  0.277E-01  0.277E-01
 -16.586  0.273E-01  0.273E-01
 -16.576  0.269E-01  0.269E-01
 -16.566  0.264E-01  0.264E-01
 -16.556  0.260E-01  0.260E-01
 -16.546  0.256E-01  0.256E-01
 -16.536  0.251E-01  0.251E-01
 -16.526  0.247E-01  0.247E-01
 -16.516  0.242E-01  0.242E-01
 -16.506  0.237E-01  0.237E-01
 -16.496  0.233E-01  0.233E-01
 -16.486  0.228E-01  0.228E-01
 -16.476  0.223E-01  0.223E-01
 -16.466  0.219E-01  0.219E-01
 -16.456  0.214E-01  0.214E-01
 -16.446  0.209E-01  0.209E-01
 -16.436  0.205E-01  0.205E-01
 -16.426  0.200E-01  0.200E-01
 -16.416  0.195E-01  0.195E-01
 -16.406  0.191E-01  0.191E-01
 -16.396  0.186E-01  0.186E-01
 -16.386  0.182E-01  0.182E-01
 -16.376  0.177E-01  0.177E-01
 -16.366  0.173E-01  0.173E-01
 -16.356  0.168E-01  0.168E-01
 -16.346  0.164E-01  0.164E-01
 -16.336  0.160E-01  0.160E-01
 -16.326  0.156E-01  0.156E-01
 -16.316  0.151E-01  0.151E-01
 -16.306  0.147E-01  0.147E-01
 -16.296  0.143E-01  0.143E-01
 -16.286  0.139E-01  0.139E-01
 -16.276  0.136E-01  0.136E-01
 -16.266  0.132E-01  0.132E-01
 -16.256  0.128E-01  0.128E-01
 -16.246  0.124E-01  0.124E-01
 -16.236  0.121E-01  0.121E-01
 -16.226  0.117E-01  0.117E-01
 -16.216  0.114E-01  0.114E-01
 -16.206  0.111E-01  0.111E-01
 -16.196  0.107E-01  0.107E-01
 -16.186  0.104E-01  0.104E-01
 -16.176  0.101E-01  0.101E-01
 -16.166  0.980E-02  0.980E-02
 -16.156  0.950E-02  0.950E-02
 -16.146  0.922E-02  0.922E-02
 -16.136  0.894E-02  0.894E-02
 -16.126  0.866E-02  0.866E-02
 -16.116  0.840E-02  0.840E-02
 -16.106  0.814E-02  0.814E-02
 -16.096  0.789E-02  0.789E-02
 -16.086  0.765E-02  0.765E-02
 -16.076  0.741E-02  0.741E-02
 -16.066  0.718E-02  0.718E-02
 -16.056  0.696E-02  0.696E-02
 -16.046  0.674E-02  0.674E-02
 -16.036  0.653E-02  0.653E-02
 -16.026  0.632E-02  0.632E-02
 -16.016  0.612E-02  0.612E-02
 -16.006  0.593E-02  0.593E-02
 -15.996  0.574E-02  0.574E-02
 -15.986  0.555E-02  0.555E-02
 -15.976  0.537E-02  0.537E-02
 -15.966  0.520E-02  0.520E-02
 -15.956  0.503E-02  0.503E-02
 -15.946  0.486E-02  0.486E-02
 -15.936  0.470E-02  0.470E-02
 -15.926  0.455E-02  0.455E-02
 -15.916  0.439E-02  0.439E-02
 -15.906  0.424E-02  0.424E-02
 -15.896  0.409E-02  0.409E-02
 -15.886  0.395E-02  0.395E-02
 -15.876  0.381E-02  0.381E-02
 -15.866  0.367E-02  0.367E-02
 -15.856  0.354E-02  0.354E-02
 -15.846  0.340E-02  0.340E-02
 -15.836  0.327E-02  0.327E-02
 -15.826  0.315E-02  0.315E-02
 -15.816  0.302E-02  0.302E-02
 -15.806  0.290E-02  0.290E-02
 -15.796  0.277E-02  0.277E-02
 -15.786  0.265E-02  0.265E-02
 -15.776  0.253E-02  0.253E-02
 -15.766  0.242E-02  0.242E-02
 -15.756  0.230E-02  0.230E-02
 -15.746  0.219E-02  0.219E-02
 -15.736  0.207E-02  0.207E-02
 -15.726  0.196E-02  0.196E-02
 -15.716  0.185E-02  0.185E-02
 -15.706  0.174E-02  0.174E-02
 -15.696  0.162E-02  0.162E-02
 -15.686  0.151E-02  0.151E-02
 -15.676  0.141E-02  0.141E-02
 -15.666  0.130E-02  0.130E-02
 -15.656  0.119E-02  0.119E-02
 -15.646  0.108E-02  0.108E-02
 -15.636  0.970E-03  0.970E-03
 -15.626  0.861E-03  0.861E-03
 -15.616  0.752E-03  0.752E-03
 -15.606  0.643E-03  0.643E-03
 -15.596  0.534E-03  0.534E-03
 -15.586  0.425E-03  0.425E-03
 -15.576  0.315E-03  0.315E-03
 -15.566  0.204E-03  0.204E-03
 -15.556  0.929E-04  0.929E-04
 -15.546 -0.191E-04 -0.191E-04
 -15.536 -0.132E-03 -0.132E-03
 -15.526 -0.246E-03 -0.246E-03
 -15.516 -0.361E-03 -0.361E-03
 -15.506 -0.476E-03 -0.476E-03
 -15.496 -0.594E-03 -0.594E-03
 -15.486 -0.712E-03 -0.712E-03
 -15.476 -0.832E-03 -0.832E-03
 -15.466 -0.954E-03 -0.954E-03
 -15.456 -0.108E-02 -0.108E-02
 -15.446 -0.120E-02 -0.120E-02
 -15.436 -0.133E-02 -0.133E-02
 -15.426 -0.146E-02 -0.146E-02
 -15.416 -0.159E-02 -0.159E-02
 -15.406 -0.172E-02 -0.172E-02
 -15.396 -0.186E-02 -0.186E-02
 -15.386 -0.200E-02 -0.200E-02
 -15.376 -0.214E-02 -0.214E-02
 -15.366 -0.228E-02 -0.228E-02
 -15.356 -0.243E-02 -0.243E-02
 -15.346 -0.258E-02 -0.258E-02
 -15.336 -0.273E-02 -0.273E-02
 -15.326 -0.288E-02 -0.288E-02
 -15.316 -0.304E-02 -0.304E-02
 -15.306 -0.320E-02 -0.320E-02
 -15.296 -0.337E-02 -0.337E-02
 -15.286 -0.354E-02 -0.354E-02
 -15.276 -0.371E-02 -0.371E-02
 -15.266 -0.388E-02 -0.388E-02
 -15.256 -0.406E-02 -0.406E-02
 -15.246 -0.424E-02 -0.424E-02
 -15.236 -0.443E-02 -0.443E-02
 -15.226 -0.461E-02 -0.461E-02
 -15.216 -0.481E-02 -0.481E-02
 -15.206 -0.500E-02 -0.500E-02
 -15.196 -0.520E-02 -0.520E-02
 -15.186 -0.540E-02 -0.540E-02
 -15.176 -0.561E-02 -0.561E-02
 -15.166 -0.581E-02 -0.581E-02
 -15.156 -0.602E-02 -0.602E-02
 -15.146 -0.624E-02 -0.624E-02
 -15.136 -0.645E-02 -0.645E-02
 -15.126 -0.667E-02 -0.667E-02
 -15.116 -0.689E-02 -0.689E-02
 -15.106 -0.711E-02 -0.711E-02
 -15.096 -0.733E-02 -0.733E-02
 -15.086 -0.755E-02 -0.755E-02
 -15.076 -0.778E-02 -0.778E-02
 -15.066 -0.800E-02 -0.800E-02
 -15.056 -0.823E-02 -0.823E-02
 -15.046 -0.845E-02 -0.845E-02
 -15.036 -0.867E-02 -0.867E-02
 -15.026 -0.889E-02 -0.889E-02
 -15.016 -0.910E-02 -0.910E-02
 -15.006 -0.932E-02 -0.932E-02
 -14.996 -0.953E-02 -0.953E-02
 -14.986 -0.973E-02 -0.973E-02
 -14.976 -0.993E-02 -0.993E-02
 -14.966 -0.101E-01 -0.101E-01
 -14.956 -0.103E-01 -0.103E-01
 -14.946 -0.105E-01 -0.105E-01
 -14.936 -0.107E-01 -0.107E-01
 -14.926 -0.108E-01 -0.108E-01
 -14.916 -0.110E-01 -0.110E-01
 -14.906 -0.111E-01 -0.111E-01
 -14.896 -0.112E-01 -0.112E-01
 -14.886 -0.113E-01 -0.113E-01
 -14.876 -0.114E-01 -0.114E-01
 -14.866 -0.115E-01 -0.115E-01
 -14.856 -0.115E-01 -0.115E-01
 -14.846 -0.116E-01 -0.116E-01
 -14.836 -0.116E-01 -0.116E-01
 -14.826 -0.116E-01 -0.116E-01
 -14.816 -0.115E-01 -0.115E-01
 -14.806 -0.115E-01 -0.115E-01
 -14.796 -0.114E-01 -0.114E-01
 -14.786 -0.113E-01 -0.113E-01
 -14.776 -0.111E-01 -0.111E-01
 -14.766 -0.110E-01 -0.110E-01
 -14.756 -0.108E-01 -0.108E-01
 -14.746 -0.105E-01 -0.105E-01
 -14.736 -0.102E-01 -0.102E-01
 -14.726 -0.991E-02 -0.991E-02
 -14.716 -0.955E-02 -0.955E-02
 -14.706 -0.915E-02 -0.915E-02
 -14.696 -0.871E-02 -0.871E-02
 -14.686 -0.822E-02 -0.822E-02
 -14.676 -0.768E-02 -0.768E-02
 -14.666 -0.710E-02 -0.710E-02
 -14.656 -0.647E-02 -0.647E-02
 -14.646 -0.578E-02 -0.578E-02
 -14.636 -0.504E-02 -0.504E-02
 -14.626 -0.425E-02 -0.425E-02
 -14.616 -0.339E-02 -0.339E-02
 -14.606 -0.249E-02 -0.249E-02
 -14.596 -0.152E-02 -0.152E-02
 -14.586 -0.487E-03 -0.487E-03
 -14.576  0.604E-03  0.604E-03
 -14.566  0.176E-02  0.176E-02
 -14.556  0.298E-02  0.298E-02
 -14.546  0.427E-02  0.427E-02
 -14.536  0.562E-02  0.562E-02
 -14.526  0.704E-02  0.704E-02
 -14.516  0.853E-02  0.853E-02
 -14.506  0.101E-01  0.101E-01
 -14.496  0.117E-01  0.117E-01
 -14.486  0.134E-01  0.134E-01
 -14.476  0.152E-01  0.152E-01
 -14.466  0.170E-01  0.170E-01
 -14.456  0.190E-01  0.190E-01
 -14.446  0.210E-01  0.210E-01
 -14.436  0.230E-01  0.230E-01
 -14.426  0.252E-01  0.252E-01
 -14.416  0.274E-01  0.274E-01
 -14.406  0.296E-01  0.296E-01
 -14.396  0.320E-01  0.320E-01
 -14.386  0.344E-01  0.344E-01
 -14.376  0.369E-01  0.369E-01
 -14.366  0.395E-01  0.395E-01
 -14.356  0.421E-01  0.421E-01
 -14.346  0.448E-01  0.448E-01
 -14.336  0.476E-01  0.476E-01
 -14.326  0.504E-01  0.504E-01
 -14.316  0.533E-01  0.533E-01
 -14.306  0.563E-01  0.563E-01
 -14.296  0.593E-01  0.593E-01
 -14.286  0.624E-01  0.624E-01
 -14.276  0.655E-01  0.655E-01
 -14.266  0.687E-01  0.687E-01
 -14.256  0.720E-01  0.720E-01
 -14.246  0.753E-01  0.753E-01
 -14.236  0.786E-01  0.786E-01
 -14.226  0.820E-01  0.820E-01
 -14.216  0.854E-01  0.854E-01
 -14.206  0.888E-01  0.888E-01
 -14.196  0.923E-01  0.923E-01
 -14.186  0.959E-01  0.959E-01
 -14.176  0.994E-01  0.994E-01
 -14.166  0.103E+00  0.103E+00
 -14.156  0.107E+00  0.107E+00
 -14.146  0.110E+00  0.110E+00
 -14.136  0.114E+00  0.114E+00
 -14.126  0.117E+00  0.117E+00
 -14.116  0.121E+00  0.121E+00
 -14.106  0.125E+00  0.125E+00
 -14.096  0.128E+00  0.128E+00
 -14.086  0.132E+00  0.132E+00
 -14.076  0.136E+00  0.136E+00
 -14.066  0.139E+00  0.139E+00
 -14.056  0.143E+00  0.143E+00
 -14.046  0.146E+00  0.146E+00
 -14.036  0.150E+00  0.150E+00
 -14.026  0.153E+00  0.153E+00
 -14.016  0.157E+00  0.157E+00
 -14.006  0.160E+00  0.160E+00
 -13.996  0.164E+00  0.164E+00
 -13.986  0.167E+00  0.167E+00
 -13.976  0.170E+00  0.170E+00
 -13.966  0.173E+00  0.173E+00
 -13.956  0.177E+00  0.177E+00
 -13.946  0.180E+00  0.180E+00
 -13.936  0.183E+00  0.183E+00
 -13.926  0.186E+00  0.186E+00
 -13.916  0.189E+00  0.189E+00
 -13.906  0.191E+00  0.191E+00
 -13.896  0.194E+00  0.194E+00
 -13.886  0.197E+00  0.197E+00
 -13.876  0.199E+00  0.199E+00
 -13.866  0.202E+00  0.202E+00
 -13.856  0.204E+00  0.204E+00
 -13.846  0.206E+00  0.206E+00
 -13.836  0.208E+00  0.208E+00
 -13.826  0.210E+00  0.210E+00
 -13.816  0.212E+00  0.212E+00
 -13.806  0.214E+00  0.214E+00
 -13.796  0.216E+00  0.216E+00
 -13.786  0.218E+00  0.218E+00
 -13.776  0.219E+00  0.219E+00
 -13.766  0.221E+00  0.221E+00
 -13.756  0.222E+00  0.222E+00
 -13.746  0.223E+00  0.223E+00
 -13.736  0.224E+00  0.224E+00
 -13.726  0.225E+00  0.225E+00
 -13.716  0.226E+00  0.226E+00
 -13.706  0.227E+00  0.227E+00
 -13.696  0.227E+00  0.227E+00
 -13.686  0.228E+00  0.228E+00
 -13.676  0.228E+00  0.228E+00
 -13.666  0.228E+00  0.228E+00
 -13.656  0.229E+00  0.229E+00
 -13.646  0.229E+00  0.229E+00
 -13.636  0.229E+00  0.229E+00
 -13.626  0.228E+00  0.228E+00
 -13.616  0.228E+00  0.228E+00
 -13.606  0.228E+00  0.228E+00
 -13.596  0.227E+00  0.227E+00
 -13.586  0.227E+00  0.227E+00
 -13.576  0.226E+00  0.226E+00
 -13.566  0.225E+00  0.225E+00
 -13.556  0.224E+00  0.224E+00
 -13.546  0.223E+00  0.223E+00
 -13.536  0.222E+00  0.222E+00
 -13.526  0.221E+00  0.221E+00
 -13.516  0.220E+00  0.220E+00
 -13.506  0.218E+00  0.218E+00
 -13.496  0.217E+00  0.217E+00
 -13.486  0.215E+00  0.215E+00
 -13.476  0.214E+00  0.214E+00
 -13.466  0.212E+00  0.212E+00
 -13.456  0.210E+00  0.210E+00
 -13.446  0.208E+00  0.208E+00
 -13.436  0.206E+00  0.206E+00
 -13.426  0.204E+00  0.204E+00
 -13.416  0.202E+00  0.202E+00
 -13.406  0.200E+00  0.200E+00
 -13.396  0.198E+00  0.198E+00
 -13.386  0.196E+00  0.196E+00
 -13.376  0.194E+00  0.194E+00
 -13.366  0.191E+00  0.191E+00
 -13.356  0.189E+00  0.189E+00
 -13.346  0.187E+00  0.187E+00
 -13.336  0.184E+00  0.184E+00
 -13.326  0.182E+00  0.182E+00
 -13.316  0.179E+00  0.179E+00
 -13.306  0.177E+00  0.177E+00
 -13.296  0.174E+00  0.174E+00
 -13.286  0.172E+00  0.172E+00
 -13.276  0.169E+00  0.169E+00
 -13.266  0.167E+00  0.167E+00
 -13.256  0.164E+00  0.164E+00
 -13.246  0.162E+00  0.162E+00
 -13.236  0.159E+00  0.159E+00
 -13.226  0.156E+00  0.156E+00
 -13.216  0.154E+00  0.154E+00
 -13.206  0.151E+00  0.151E+00
 -13.196  0.148E+00  0.148E+00
 -13.186  0.146E+00  0.146E+00
 -13.176  0.143E+00  0.143E+00
 -13.166  0.141E+00  0.141E+00
 -13.156  0.138E+00  0.138E+00
 -13.146  0.135E+00  0.135E+00
 -13.136  0.133E+00  0.133E+00
 -13.126  0.130E+00  0.130E+00
 -13.116  0.128E+00  0.128E+00
 -13.106  0.125E+00  0.125E+00
 -13.096  0.123E+00  0.123E+00
 -13.086  0.120E+00  0.120E+00
 -13.076  0.118E+00  0.118E+00
 -13.066  0.115E+00  0.115E+00
 -13.056  0.113E+00  0.113E+00
 -13.046  0.110E+00  0.110E+00
 -13.036  0.108E+00  0.108E+00
 -13.026  0.105E+00  0.105E+00
 -13.016  0.103E+00  0.103E+00
 -13.006  0.101E+00  0.101E+00
 -12.996  0.982E-01  0.982E-01
 -12.986  0.959E-01  0.959E-01
 -12.976  0.936E-01  0.936E-01
 -12.966  0.914E-01  0.914E-01
 -12.956  0.891E-01  0.891E-01
 -12.946  0.869E-01  0.869E-01
 -12.936  0.848E-01  0.848E-01
 -12.926  0.826E-01  0.826E-01
 -12.916  0.805E-01  0.805E-01
 -12.906  0.784E-01  0.784E-01
 -12.896  0.763E-01  0.763E-01
 -12.886  0.742E-01  0.742E-01
 -12.876  0.722E-01  0.722E-01
 -12.866  0.702E-01  0.702E-01
 -12.856  0.682E-01  0.682E-01
 -12.846  0.663E-01  0.663E-01
 -12.836  0.644E-01  0.644E-01
 -12.826  0.625E-01  0.625E-01
 -12.816  0.607E-01  0.607E-01
 -12.806  0.588E-01  0.588E-01
 -12.796  0.570E-01  0.570E-01
 -12.786  0.553E-01  0.553E-01
 -12.776  0.535E-01  0.535E-01
 -12.766  0.518E-01  0.518E-01
 -12.756  0.501E-01  0.501E-01
 -12.746  0.484E-01  0.484E-01
 -12.736  0.468E-01  0.468E-01
 -12.726  0.452E-01  0.452E-01
 -12.716  0.436E-01  0.436E-01
 -12.706  0.420E-01  0.420E-01
 -12.696  0.405E-01  0.405E-01
 -12.686  0.390E-01  0.390E-01
 -12.676  0.375E-01  0.375E-01
 -12.666  0.361E-01  0.361E-01
 -12.656  0.347E-01  0.347E-01
 -12.646  0.333E-01  0.333E-01
 -12.636  0.319E-01  0.319E-01
 -12.626  0.306E-01  0.306E-01
 -12.616  0.293E-01  0.293E-01
 -12.606  0.280E-01  0.280E-01
 -12.596  0.268E-01  0.268E-01
 -12.586  0.255E-01  0.255E-01
 -12.576  0.243E-01  0.243E-01
 -12.566  0.231E-01  0.231E-01
 -12.556  0.220E-01  0.220E-01
 -12.546  0.209E-01  0.209E-01
 -12.536  0.198E-01  0.198E-01
 -12.526  0.187E-01  0.187E-01
 -12.516  0.177E-01  0.177E-01
 -12.506  0.167E-01  0.167E-01
 -12.496  0.157E-01  0.157E-01
 -12.486  0.147E-01  0.147E-01
 -12.476  0.138E-01  0.138E-01
 -12.466  0.129E-01  0.129E-01
 -12.456  0.120E-01  0.120E-01
 -12.446  0.111E-01  0.111E-01
 -12.436  0.103E-01  0.103E-01
 -12.426  0.950E-02  0.950E-02
 -12.416  0.873E-02  0.873E-02
 -12.406  0.797E-02  0.797E-02
 -12.396  0.724E-02  0.724E-02
 -12.386  0.654E-02  0.654E-02
 -12.376  0.586E-02  0.586E-02
 -12.366  0.521E-02  0.521E-02
 -12.356  0.458E-02  0.458E-02
 -12.346  0.397E-02  0.397E-02
 -12.336  0.339E-02  0.339E-02
 -12.326  0.283E-02  0.283E-02
 -12.316  0.229E-02  0.229E-02
 -12.306  0.178E-02  0.178E-02
 -12.296  0.129E-02  0.129E-02
 -12.286  0.822E-03  0.822E-03
 -12.276  0.376E-03  0.376E-03
 -12.266 -0.489E-04 -0.489E-04
 -12.256 -0.453E-03 -0.453E-03
 -12.246 -0.836E-03 -0.836E-03
 -12.236 -0.120E-02 -0.120E-02
 -12.226 -0.154E-02 -0.154E-02
 -12.216 -0.187E-02 -0.187E-02
 -12.206 -0.217E-02 -0.217E-02
 -12.196 -0.246E-02 -0.246E-02
 -12.186 -0.272E-02 -0.272E-02
 -12.176 -0.297E-02 -0.297E-02
 -12.166 -0.321E-02 -0.321E-02
 -12.156 -0.342E-02 -0.342E-02
 -12.146 -0.362E-02 -0.362E-02
 -12.136 -0.381E-02 -0.381E-02
 -12.126 -0.397E-02 -0.397E-02
 -12.116 -0.413E-02 -0.413E-02
 -12.106 -0.427E-02 -0.427E-02
 -12.096 -0.439E-02 -0.439E-02
 -12.086 -0.451E-02 -0.451E-02
 -12.076 -0.460E-02 -0.460E-02
 -12.066 -0.469E-02 -0.469E-02
 -12.056 -0.477E-02 -0.477E-02
 -12.046 -0.483E-02 -0.483E-02
 -12.036 -0.488E-02 -0.488E-02
 -12.026 -0.493E-02 -0.493E-02
 -12.016 -0.496E-02 -0.496E-02
 -12.006 -0.498E-02 -0.498E-02
 -11.996 -0.499E-02 -0.499E-02
 -11.986 -0.500E-02 -0.500E-02
 -11.976 -0.500E-02 -0.500E-02
 -11.966 -0.499E-02 -0.499E-02
 -11.956 -0.497E-02 -0.497E-02
 -11.946 -0.494E-02 -0.494E-02
 -11.936 -0.491E-02 -0.491E-02
 -11.926 -0.487E-02 -0.487E-02
 -11.916 -0.483E-02 -0.483E-02
 -11.906 -0.478E-02 -0.478E-02
 -11.896 -0.473E-02 -0.473E-02
 -11.886 -0.467E-02 -0.467E-02
 -11.876 -0.461E-02 -0.461E-02
 -11.866 -0.454E-02 -0.454E-02
 -11.856 -0.448E-02 -0.448E-02
 -11.846 -0.440E-02 -0.440E-02
 -11.836 -0.433E-02 -0.433E-02
 -11.826 -0.425E-02 -0.425E-02
 -11.816 -0.417E-02 -0.417E-02
 -11.806 -0.409E-02 -0.409E-02
 -11.796 -0.401E-02 -0.401E-02
 -11.786 -0.392E-02 -0.392E-02
 -11.776 -0.384E-02 -0.384E-02
 -11.766 -0.375E-02 -0.375E-02
 -11.756 -0.366E-02 -0.366E-02
 -11.746 -0.357E-02 -0.357E-02
 -11.736 -0.348E-02 -0.348E-02
 -11.726 -0.339E-02 -0.339E-02
 -11.716 -0.330E-02 -0.330E-02
 -11.706 -0.321E-02 -0.321E-02
 -11.696 -0.312E-02 -0.312E-02
 -11.686 -0.303E-02 -0.303E-02
 -11.676 -0.294E-02 -0.294E-02
 -11.666 -0.285E-02 -0.285E-02
 -11.656 -0.276E-02 -0.276E-02
 -11.646 -0.267E-02 -0.267E-02
 -11.636 -0.258E-02 -0.258E-02
 -11.626 -0.250E-02 -0.250E-02
 -11.616 -0.241E-02 -0.241E-02
 -11.606 -0.232E-02 -0.232E-02
 -11.596 -0.223E-02 -0.223E-02
 -11.586 -0.215E-02 -0.215E-02
 -11.576 -0.206E-02 -0.206E-02
 -11.566 -0.198E-02 -0.198E-02
 -11.556 -0.189E-02 -0.189E-02
 -11.546 -0.181E-02 -0.181E-02
 -11.536 -0.172E-02 -0.172E-02
 -11.526 -0.164E-02 -0.164E-02
 -11.516 -0.156E-02 -0.156E-02
 -11.506 -0.147E-02 -0.147E-02
 -11.496 -0.139E-02 -0.139E-02
 -11.486 -0.130E-02 -0.130E-02
 -11.476 -0.122E-02 -0.122E-02
 -11.466 -0.113E-02 -0.113E-02
 -11.456 -0.105E-02 -0.105E-02
 -11.446 -0.960E-03 -0.960E-03
 -11.436 -0.873E-03 -0.873E-03
 -11.426 -0.784E-03 -0.784E-03
 -11.416 -0.694E-03 -0.694E-03
 -11.406 -0.603E-03 -0.603E-03
 -11.396 -0.511E-03 -0.511E-03
 -11.386 -0.417E-03 -0.417E-03
 -11.376 -0.321E-03 -0.321E-03
 -11.366 -0.223E-03 -0.223E-03
 -11.356 -0.123E-03 -0.123E-03
 -11.346 -0.203E-04 -0.203E-04
 -11.336  0.847E-04  0.847E-04
 -11.326  0.192E-03  0.192E-03
 -11.316  0.303E-03  0.303E-03
 -11.306  0.416E-03  0.416E-03
 -11.296  0.533E-03  0.533E-03
 -11.286  0.653E-03  0.653E-03
 -11.276  0.776E-03  0.776E-03
 -11.266  0.904E-03  0.904E-03
 -11.256  0.103E-02  0.103E-02
 -11.246  0.117E-02  0.117E-02
 -11.236  0.131E-02  0.131E-02
 -11.226  0.145E-02  0.145E-02
 -11.216  0.160E-02  0.160E-02
 -11.206  0.175E-02  0.175E-02
 -11.196  0.191E-02  0.191E-02
 -11.186  0.207E-02  0.207E-02
 -11.176  0.224E-02  0.224E-02
 -11.166  0.241E-02  0.241E-02
 -11.156  0.259E-02  0.259E-02
 -11.146  0.277E-02  0.277E-02
 -11.136  0.296E-02  0.296E-02
 -11.126  0.315E-02  0.315E-02
 -11.116  0.335E-02  0.335E-02
 -11.106  0.355E-02  0.355E-02
 -11.096  0.376E-02  0.376E-02
 -11.086  0.397E-02  0.397E-02
 -11.076  0.419E-02  0.419E-02
 -11.066  0.442E-02  0.442E-02
 -11.056  0.465E-02  0.465E-02
 -11.046  0.488E-02  0.488E-02
 -11.036  0.513E-02  0.513E-02
 -11.026  0.537E-02  0.537E-02
 -11.016  0.562E-02  0.562E-02
 -11.006  0.588E-02  0.588E-02
 -10.996  0.614E-02  0.614E-02
 -10.986  0.640E-02  0.640E-02
 -10.976  0.667E-02  0.667E-02
 -10.966  0.695E-02  0.695E-02
 -10.956  0.723E-02  0.723E-02
 -10.946  0.751E-02  0.751E-02
 -10.936  0.779E-02  0.779E-02
 -10.926  0.808E-02  0.808E-02
 -10.916  0.838E-02  0.838E-02
 -10.906  0.867E-02  0.867E-02
 -10.896  0.897E-02  0.897E-02
 -10.886  0.927E-02  0.927E-02
 -10.876  0.957E-02  0.957E-02
 -10.866  0.988E-02  0.988E-02
 -10.856  0.102E-01  0.102E-01
 -10.846  0.105E-01  0.105E-01
 -10.836  0.108E-01  0.108E-01
 -10.826  0.111E-01  0.111E-01
 -10.816  0.114E-01  0.114E-01
 -10.806  0.117E-01  0.117E-01
 -10.796  0.120E-01  0.120E-01
 -10.786  0.123E-01  0.123E-01
 -10.776  0.126E-01  0.126E-01
 -10.766  0.129E-01  0.129E-01
 -10.756  0.132E-01  0.132E-01
 -10.746  0.135E-01  0.135E-01
 -10.736  0.138E-01  0.138E-01
 -10.726  0.141E-01  0.141E-01
 -10.716  0.144E-01  0.144E-01
 -10.706  0.147E-01  0.147E-01
 -10.696  0.149E-01  0.149E-01
 -10.686  0.152E-01  0.152E-01
 -10.676  0.155E-01  0.155E-01
 -10.666  0.157E-01  0.157E-01
 -10.656  0.160E-01  0.160E-01
 -10.646  0.162E-01  0.162E-01
 -10.636  0.164E-01  0.164E-01
 -10.626  0.167E-01  0.167E-01
 -10.616  0.169E-01  0.169E-01
 -10.606  0.171E-01  0.171E-01
 -10.596  0.173E-01  0.173E-01
 -10.586  0.175E-01  0.175E-01
 -10.576  0.176E-01  0.176E-01
 -10.566  0.178E-01  0.178E-01
 -10.556  0.180E-01  0.180E-01
 -10.546  0.181E-01  0.181E-01
 -10.536  0.182E-01  0.182E-01
 -10.526  0.184E-01  0.184E-01
 -10.516  0.185E-01  0.185E-01
 -10.506  0.186E-01  0.186E-01
 -10.496  0.186E-01  0.186E-01
 -10.486  0.187E-01  0.187E-01
 -10.476  0.188E-01  0.188E-01
 -10.466  0.188E-01  0.188E-01
 -10.456  0.189E-01  0.189E-01
 -10.446  0.189E-01  0.189E-01
 -10.436  0.189E-01  0.189E-01
 -10.426  0.189E-01  0.189E-01
 -10.416  0.189E-01  0.189E-01
 -10.406  0.188E-01  0.188E-01
 -10.396  0.188E-01  0.188E-01
 -10.386  0.187E-01  0.187E-01
 -10.376  0.187E-01  0.187E-01
 -10.366  0.186E-01  0.186E-01
 -10.356  0.185E-01  0.185E-01
 -10.346  0.184E-01  0.184E-01
 -10.336  0.182E-01  0.182E-01
 -10.326  0.181E-01  0.181E-01
 -10.316  0.180E-01  0.180E-01
 -10.306  0.178E-01  0.178E-01
 -10.296  0.176E-01  0.176E-01
 -10.286  0.174E-01  0.174E-01
 -10.276  0.172E-01  0.172E-01
 -10.266  0.170E-01  0.170E-01
 -10.256  0.168E-01  0.168E-01
 -10.246  0.166E-01  0.166E-01
 -10.236  0.164E-01  0.164E-01
 -10.226  0.161E-01  0.161E-01
 -10.216  0.159E-01  0.159E-01
 -10.206  0.156E-01  0.156E-01
 -10.196  0.153E-01  0.153E-01
 -10.186  0.151E-01  0.151E-01
 -10.176  0.148E-01  0.148E-01
 -10.166  0.145E-01  0.145E-01
 -10.156  0.142E-01  0.142E-01
 -10.146  0.139E-01  0.139E-01
 -10.136  0.136E-01  0.136E-01
 -10.126  0.132E-01  0.132E-01
 -10.116  0.129E-01  0.129E-01
 -10.106  0.126E-01  0.126E-01
 -10.096  0.123E-01  0.123E-01
 -10.086  0.119E-01  0.119E-01
 -10.076  0.116E-01  0.116E-01
 -10.066  0.113E-01  0.113E-01
 -10.056  0.109E-01  0.109E-01
 -10.046  0.106E-01  0.106E-01
 -10.036  0.102E-01  0.102E-01
 -10.026  0.990E-02  0.990E-02
 -10.016  0.956E-02  0.956E-02
 -10.006  0.922E-02  0.922E-02
  -9.996  0.888E-02  0.888E-02
  -9.986  0.854E-02  0.854E-02
  -9.976  0.820E-02  0.820E-02
  -9.966  0.786E-02  0.786E-02
  -9.956  0.753E-02  0.753E-02
  -9.946  0.720E-02  0.720E-02
  -9.936  0.687E-02  0.687E-02
  -9.926  0.654E-02  0.654E-02
  -9.916  0.622E-02  0.622E-02
  -9.906  0.591E-02  0.591E-02
  -9.896  0.560E-02  0.560E-02
  -9.886  0.529E-02  0.529E-02
  -9.876  0.499E-02  0.499E-02
  -9.866  0.469E-02  0.469E-02
  -9.856  0.440E-02  0.440E-02
  -9.846  0.412E-02  0.412E-02
  -9.836  0.384E-02  0.384E-02
  -9.826  0.357E-02  0.357E-02
  -9.816  0.330E-02  0.330E-02
  -9.806  0.304E-02  0.304E-02
  -9.796  0.279E-02  0.279E-02
  -9.786  0.255E-02  0.255E-02
  -9.776  0.231E-02  0.231E-02
  -9.766  0.208E-02  0.208E-02
  -9.756  0.186E-02  0.186E-02
  -9.746  0.165E-02  0.165E-02
  -9.736  0.145E-02  0.145E-02
  -9.726  0.125E-02  0.125E-02
  -9.716  0.106E-02  0.106E-02
  -9.706  0.881E-03  0.881E-03
  -9.696  0.709E-03  0.709E-03
  -9.686  0.547E-03  0.547E-03
  -9.676  0.393E-03  0.393E-03
  -9.666  0.248E-03  0.248E-03
  -9.656  0.111E-03  0.111E-03
  -9.646 -0.160E-04 -0.160E-04
  -9.636 -0.134E-03 -0.134E-03
  -9.626 -0.244E-03 -0.244E-03
  -9.616 -0.344E-03 -0.344E-03
  -9.606 -0.435E-03 -0.435E-03
  -9.596 -0.517E-03 -0.517E-03
  -9.586 -0.589E-03 -0.589E-03
  -9.576 -0.653E-03 -0.653E-03
  -9.566 -0.706E-03 -0.706E-03
  -9.556 -0.751E-03 -0.751E-03
  -9.546 -0.786E-03 -0.786E-03
  -9.536 -0.812E-03 -0.812E-03
  -9.526 -0.828E-03 -0.828E-03
  -9.516 -0.834E-03 -0.834E-03
  -9.506 -0.831E-03 -0.831E-03
  -9.496 -0.818E-03 -0.818E-03
  -9.486 -0.796E-03 -0.796E-03
  -9.476 -0.764E-03 -0.764E-03
  -9.466 -0.722E-03 -0.722E-03
  -9.456 -0.670E-03 -0.670E-03
  -9.446 -0.608E-03 -0.608E-03
  -9.436 -0.537E-03 -0.537E-03
  -9.426 -0.456E-03 -0.456E-03
  -9.416 -0.364E-03 -0.364E-03
  -9.406 -0.263E-03 -0.263E-03
  -9.396 -0.151E-03 -0.151E-03
  -9.386 -0.300E-04 -0.300E-04
  -9.376  0.102E-03  0.102E-03
  -9.366  0.243E-03  0.243E-03
  -9.356  0.395E-03  0.395E-03
  -9.346  0.558E-03  0.558E-03
  -9.336  0.730E-03  0.730E-03
  -9.326  0.913E-03  0.913E-03
  -9.316  0.111E-02  0.111E-02
  -9.306  0.131E-02  0.131E-02
  -9.296  0.152E-02  0.152E-02
  -9.286  0.175E-02  0.175E-02
  -9.276  0.198E-02  0.198E-02
  -9.266  0.222E-02  0.222E-02
  -9.256  0.248E-02  0.248E-02
  -9.246  0.274E-02  0.274E-02
  -9.236  0.302E-02  0.302E-02
  -9.226  0.330E-02  0.330E-02
  -9.216  0.360E-02  0.360E-02
  -9.206  0.390E-02  0.390E-02
  -9.196  0.422E-02  0.422E-02
  -9.186  0.454E-02  0.454E-02
  -9.176  0.488E-02  0.488E-02
  -9.166  0.522E-02  0.522E-02
  -9.156  0.557E-02  0.557E-02
  -9.146  0.594E-02  0.594E-02
  -9.136  0.631E-02  0.631E-02
  -9.126  0.669E-02  0.669E-02
  -9.116  0.708E-02  0.708E-02
  -9.106  0.747E-02  0.747E-02
  -9.096  0.788E-02  0.788E-02
  -9.086  0.829E-02  0.829E-02
  -9.076  0.871E-02  0.871E-02
  -9.066  0.914E-02  0.914E-02
  -9.056  0.957E-02  0.957E-02
  -9.046  0.100E-01  0.100E-01
  -9.036  0.105E-01  0.105E-01
  -9.026  0.109E-01  0.109E-01
  -9.016  0.114E-01  0.114E-01
  -9.006  0.118E-01  0.118E-01
  -8.996  0.123E-01  0.123E-01
  -8.986  0.128E-01  0.128E-01
  -8.976  0.133E-01  0.133E-01
  -8.966  0.137E-01  0.137E-01
  -8.956  0.142E-01  0.142E-01
  -8.946  0.147E-01  0.147E-01
  -8.936  0.152E-01  0.152E-01
  -8.926  0.157E-01  0.157E-01
  -8.916  0.162E-01  0.162E-01
  -8.906  0.166E-01  0.166E-01
  -8.896  0.171E-01  0.171E-01
  -8.886  0.176E-01  0.176E-01
  -8.876  0.181E-01  0.181E-01
  -8.866  0.186E-01  0.186E-01
  -8.856  0.191E-01  0.191E-01
  -8.846  0.195E-01  0.195E-01
  -8.836  0.200E-01  0.200E-01
  -8.826  0.205E-01  0.205E-01
  -8.816  0.209E-01  0.209E-01
  -8.806  0.214E-01  0.214E-01
  -8.796  0.218E-01  0.218E-01
  -8.786  0.223E-01  0.223E-01
  -8.776  0.227E-01  0.227E-01
  -8.766  0.231E-01  0.231E-01
  -8.756  0.235E-01  0.235E-01
  -8.746  0.239E-01  0.239E-01
  -8.736  0.243E-01  0.243E-01
  -8.726  0.247E-01  0.247E-01
  -8.716  0.251E-01  0.251E-01
  -8.706  0.254E-01  0.254E-01
  -8.696  0.258E-01  0.258E-01
  -8.686  0.261E-01  0.261E-01
  -8.676  0.264E-01  0.264E-01
  -8.666  0.267E-01  0.267E-01
  -8.656  0.270E-01  0.270E-01
  -8.646  0.273E-01  0.273E-01
  -8.636  0.276E-01  0.276E-01
  -8.626  0.278E-01  0.278E-01
  -8.616  0.281E-01  0.281E-01
  -8.606  0.283E-01  0.283E-01
  -8.596  0.285E-01  0.285E-01
  -8.586  0.287E-01  0.287E-01
  -8.576  0.288E-01  0.288E-01
  -8.566  0.290E-01  0.290E-01
  -8.556  0.291E-01  0.291E-01
  -8.546  0.292E-01  0.292E-01
  -8.536  0.293E-01  0.293E-01
  -8.526  0.294E-01  0.294E-01
  -8.516  0.295E-01  0.295E-01
  -8.506  0.295E-01  0.295E-01
  -8.496  0.296E-01  0.296E-01
  -8.486  0.296E-01  0.296E-01
  -8.476  0.296E-01  0.296E-01
  -8.466  0.295E-01  0.295E-01
  -8.456  0.295E-01  0.295E-01
  -8.446  0.294E-01  0.294E-01
  -8.436  0.294E-01  0.294E-01
  -8.426  0.293E-01  0.293E-01
  -8.416  0.292E-01  0.292E-01
  -8.406  0.291E-01  0.291E-01
  -8.396  0.289E-01  0.289E-01
  -8.386  0.288E-01  0.288E-01
  -8.376  0.286E-01  0.286E-01
  -8.366  0.284E-01  0.284E-01
  -8.356  0.282E-01  0.282E-01
  -8.346  0.280E-01  0.280E-01
  -8.336  0.278E-01  0.278E-01
  -8.326  0.276E-01  0.276E-01
  -8.316  0.273E-01  0.273E-01
  -8.306  0.271E-01  0.271E-01
  -8.296  0.268E-01  0.268E-01
  -8.286  0.265E-01  0.265E-01
  -8.276  0.262E-01  0.262E-01
  -8.266  0.259E-01  0.259E-01
  -8.256  0.256E-01  0.256E-01
  -8.246  0.253E-01  0.253E-01
  -8.236  0.250E-01  0.250E-01
  -8.226  0.247E-01  0.247E-01
  -8.216  0.243E-01  0.243E-01
  -8.206  0.240E-01  0.240E-01
  -8.196  0.236E-01  0.236E-01
  -8.186  0.233E-01  0.233E-01
  -8.176  0.229E-01  0.229E-01
  -8.166  0.226E-01  0.226E-01
  -8.156  0.222E-01  0.222E-01
  -8.146  0.218E-01  0.218E-01
  -8.136  0.214E-01  0.214E-01
  -8.126  0.211E-01  0.211E-01
  -8.116  0.207E-01  0.207E-01
  -8.106  0.203E-01  0.203E-01
  -8.096  0.199E-01  0.199E-01
  -8.086  0.196E-01  0.196E-01
  -8.076  0.192E-01  0.192E-01
  -8.066  0.188E-01  0.188E-01
  -8.056  0.184E-01  0.184E-01
  -8.046  0.180E-01  0.180E-01
  -8.036  0.177E-01  0.177E-01
  -8.026  0.173E-01  0.173E-01
  -8.016  0.169E-01  0.169E-01
  -8.006  0.166E-01  0.166E-01
  -7.996  0.162E-01  0.162E-01
  -7.986  0.158E-01  0.158E-01
  -7.976  0.155E-01  0.155E-01
  -7.966  0.151E-01  0.151E-01
  -7.956  0.148E-01  0.148E-01
  -7.946  0.144E-01  0.144E-01
  -7.936  0.141E-01  0.141E-01
  -7.926  0.137E-01  0.137E-01
  -7.916  0.134E-01  0.134E-01
  -7.906  0.131E-01  0.131E-01
  -7.896  0.127E-01  0.127E-01
  -7.886  0.124E-01  0.124E-01
  -7.876  0.121E-01  0.121E-01
  -7.866  0.118E-01  0.118E-01
  -7.856  0.115E-01  0.115E-01
  -7.846  0.112E-01  0.112E-01
  -7.836  0.109E-01  0.109E-01
  -7.826  0.106E-01  0.106E-01
  -7.816  0.103E-01  0.103E-01
  -7.806  0.100E-01  0.100E-01
  -7.796  0.977E-02  0.977E-02
  -7.786  0.950E-02  0.950E-02
  -7.776  0.923E-02  0.923E-02
  -7.766  0.898E-02  0.898E-02
  -7.756  0.872E-02  0.872E-02
  -7.746  0.847E-02  0.847E-02
  -7.736  0.823E-02  0.823E-02
  -7.726  0.799E-02  0.799E-02
  -7.716  0.776E-02  0.776E-02
  -7.706  0.753E-02  0.753E-02
  -7.696  0.731E-02  0.731E-02
  -7.686  0.709E-02  0.709E-02
  -7.676  0.688E-02  0.688E-02
  -7.666  0.667E-02  0.667E-02
  -7.656  0.647E-02  0.647E-02
  -7.646  0.627E-02  0.627E-02
  -7.636  0.608E-02  0.608E-02
  -7.626  0.589E-02  0.589E-02
  -7.616  0.571E-02  0.571E-02
  -7.606  0.553E-02  0.553E-02
  -7.596  0.536E-02  0.536E-02
  -7.586  0.519E-02  0.519E-02
  -7.576  0.502E-02  0.502E-02
  -7.566  0.487E-02  0.487E-02
  -7.556  0.471E-02  0.471E-02
  -7.546  0.457E-02  0.457E-02
  -7.536  0.443E-02  0.443E-02
  -7.526  0.429E-02  0.429E-02
  -7.516  0.416E-02  0.416E-02
  -7.506  0.404E-02  0.404E-02
  -7.496  0.392E-02  0.392E-02
  -7.486  0.381E-02  0.381E-02
  -7.476  0.370E-02  0.370E-02
  -7.466  0.360E-02  0.360E-02
  -7.456  0.351E-02  0.351E-02
  -7.446  0.342E-02  0.342E-02
  -7.436  0.335E-02  0.335E-02
  -7.426  0.328E-02  0.328E-02
  -7.416  0.321E-02  0.321E-02
  -7.406  0.316E-02  0.316E-02
  -7.396  0.311E-02  0.311E-02
  -7.386  0.307E-02  0.307E-02
  -7.376  0.304E-02  0.304E-02
  -7.366  0.302E-02  0.302E-02
  -7.356  0.301E-02  0.301E-02
  -7.346  0.301E-02  0.301E-02
  -7.336  0.301E-02  0.301E-02
  -7.326  0.303E-02  0.303E-02
  -7.316  0.306E-02  0.306E-02
  -7.306  0.310E-02  0.310E-02
  -7.296  0.315E-02  0.315E-02
  -7.286  0.321E-02  0.321E-02
  -7.276  0.329E-02  0.329E-02
  -7.266  0.337E-02  0.337E-02
  -7.256  0.347E-02  0.347E-02
  -7.246  0.358E-02  0.358E-02
  -7.236  0.371E-02  0.371E-02
  -7.226  0.384E-02  0.384E-02
  -7.216  0.400E-02  0.400E-02
  -7.206  0.416E-02  0.416E-02
  -7.196  0.434E-02  0.434E-02
  -7.186  0.453E-02  0.453E-02
  -7.176  0.474E-02  0.474E-02
  -7.166  0.497E-02  0.497E-02
  -7.156  0.521E-02  0.521E-02
  -7.146  0.546E-02  0.546E-02
  -7.136  0.573E-02  0.573E-02
  -7.126  0.602E-02  0.602E-02
  -7.116  0.632E-02  0.632E-02
  -7.106  0.664E-02  0.664E-02
  -7.096  0.698E-02  0.698E-02
  -7.086  0.733E-02  0.733E-02
  -7.076  0.770E-02  0.770E-02
  -7.066  0.809E-02  0.809E-02
  -7.056  0.849E-02  0.849E-02
  -7.046  0.891E-02  0.891E-02
  -7.036  0.935E-02  0.935E-02
  -7.026  0.981E-02  0.981E-02
  -7.016  0.103E-01  0.103E-01
  -7.006  0.108E-01  0.108E-01
  -6.996  0.113E-01  0.113E-01
  -6.986  0.118E-01  0.118E-01
  -6.976  0.123E-01  0.123E-01
  -6.966  0.129E-01  0.129E-01
  -6.956  0.135E-01  0.135E-01
  -6.946  0.141E-01  0.141E-01
  -6.936  0.147E-01  0.147E-01
  -6.926  0.153E-01  0.153E-01
  -6.916  0.159E-01  0.159E-01
  -6.906  0.166E-01  0.166E-01
  -6.896  0.172E-01  0.172E-01
  -6.886  0.179E-01  0.179E-01
  -6.876  0.186E-01  0.186E-01
  -6.866  0.193E-01  0.193E-01
  -6.856  0.200E-01  0.200E-01
  -6.846  0.207E-01  0.207E-01
  -6.836  0.215E-01  0.215E-01
  -6.826  0.222E-01  0.222E-01
  -6.816  0.230E-01  0.230E-01
  -6.806  0.238E-01  0.238E-01
  -6.796  0.245E-01  0.245E-01
  -6.786  0.253E-01  0.253E-01
  -6.776  0.261E-01  0.261E-01
  -6.766  0.269E-01  0.269E-01
  -6.756  0.277E-01  0.277E-01
  -6.746  0.285E-01  0.285E-01
  -6.736  0.293E-01  0.293E-01
  -6.726  0.301E-01  0.301E-01
  -6.716  0.309E-01  0.309E-01
  -6.706  0.318E-01  0.318E-01
  -6.696  0.326E-01  0.326E-01
  -6.686  0.334E-01  0.334E-01
  -6.676  0.342E-01  0.342E-01
  -6.666  0.350E-01  0.350E-01
  -6.656  0.358E-01  0.358E-01
  -6.646  0.366E-01  0.366E-01
  -6.636  0.374E-01  0.374E-01
  -6.626  0.382E-01  0.382E-01
  -6.616  0.389E-01  0.389E-01
  -6.606  0.397E-01  0.397E-01
  -6.596  0.404E-01  0.404E-01
  -6.586  0.412E-01  0.412E-01
  -6.576  0.419E-01  0.419E-01
  -6.566  0.426E-01  0.426E-01
  -6.556  0.433E-01  0.433E-01
  -6.546  0.440E-01  0.440E-01
  -6.536  0.446E-01  0.446E-01
  -6.526  0.453E-01  0.453E-01
  -6.516  0.459E-01  0.459E-01
  -6.506  0.465E-01  0.465E-01
  -6.496  0.471E-01  0.471E-01
  -6.486  0.476E-01  0.476E-01
  -6.476  0.481E-01  0.481E-01
  -6.466  0.486E-01  0.486E-01
  -6.456  0.491E-01  0.491E-01
  -6.446  0.496E-01  0.496E-01
  -6.436  0.500E-01  0.500E-01
  -6.426  0.504E-01  0.504E-01
  -6.416  0.507E-01  0.507E-01
  -6.406  0.511E-01  0.511E-01
  -6.396  0.514E-01  0.514E-01
  -6.386  0.517E-01  0.517E-01
  -6.376  0.519E-01  0.519E-01
  -6.366  0.521E-01  0.521E-01
  -6.356  0.523E-01  0.523E-01
  -6.346  0.524E-01  0.524E-01
  -6.336  0.525E-01  0.525E-01
  -6.326  0.526E-01  0.526E-01
  -6.316  0.526E-01  0.526E-01
  -6.306  0.526E-01  0.526E-01
  -6.296  0.526E-01  0.526E-01
  -6.286  0.526E-01  0.526E-01
  -6.276  0.524E-01  0.524E-01
  -6.266  0.523E-01  0.523E-01
  -6.256  0.521E-01  0.521E-01
  -6.246  0.519E-01  0.519E-01
  -6.236  0.517E-01  0.517E-01
  -6.226  0.514E-01  0.514E-01
  -6.216  0.511E-01  0.511E-01
  -6.206  0.507E-01  0.507E-01
  -6.196  0.503E-01  0.503E-01
  -6.186  0.499E-01  0.499E-01
  -6.176  0.495E-01  0.495E-01
  -6.166  0.490E-01  0.490E-01
  -6.156  0.485E-01  0.485E-01
  -6.146  0.479E-01  0.479E-01
  -6.136  0.473E-01  0.473E-01
  -6.126  0.467E-01  0.467E-01
  -6.116  0.460E-01  0.460E-01
  -6.106  0.454E-01  0.454E-01
  -6.096  0.447E-01  0.447E-01
  -6.086  0.439E-01  0.439E-01
  -6.076  0.431E-01  0.431E-01
  -6.066  0.424E-01  0.424E-01
  -6.056  0.415E-01  0.415E-01
  -6.046  0.407E-01  0.407E-01
  -6.036  0.398E-01  0.398E-01
  -6.026  0.389E-01  0.389E-01
  -6.016  0.380E-01  0.380E-01
  -6.006  0.370E-01  0.370E-01
  -5.996  0.361E-01  0.361E-01
  -5.986  0.351E-01  0.351E-01
  -5.976  0.341E-01  0.341E-01
  -5.966  0.331E-01  0.331E-01
  -5.956  0.320E-01  0.320E-01
  -5.946  0.310E-01  0.310E-01
  -5.936  0.299E-01  0.299E-01
  -5.926  0.288E-01  0.288E-01
  -5.916  0.277E-01  0.277E-01
  -5.906  0.266E-01  0.266E-01
  -5.896  0.255E-01  0.255E-01
  -5.886  0.244E-01  0.244E-01
  -5.876  0.232E-01  0.232E-01
  -5.866  0.221E-01  0.221E-01
  -5.856  0.209E-01  0.209E-01
  -5.846  0.198E-01  0.198E-01
  -5.836  0.186E-01  0.186E-01
  -5.826  0.174E-01  0.174E-01
  -5.816  0.163E-01  0.163E-01
  -5.806  0.151E-01  0.151E-01
  -5.796  0.139E-01  0.139E-01
  -5.786  0.128E-01  0.128E-01
  -5.776  0.116E-01  0.116E-01
  -5.766  0.105E-01  0.105E-01
  -5.756  0.932E-02  0.932E-02
  -5.746  0.817E-02  0.817E-02
  -5.736  0.704E-02  0.704E-02
  -5.726  0.592E-02  0.592E-02
  -5.716  0.481E-02  0.481E-02
  -5.706  0.371E-02  0.371E-02
  -5.696  0.262E-02  0.262E-02
  -5.686  0.155E-02  0.155E-02
  -5.676  0.502E-03  0.502E-03
  -5.666 -0.533E-03 -0.533E-03
  -5.656 -0.155E-02 -0.155E-02
  -5.646 -0.254E-02 -0.254E-02
  -5.636 -0.351E-02 -0.351E-02
  -5.626 -0.446E-02 -0.446E-02
  -5.616 -0.538E-02 -0.538E-02
  -5.606 -0.627E-02 -0.627E-02
  -5.596 -0.714E-02 -0.714E-02
  -5.586 -0.797E-02 -0.797E-02
  -5.576 -0.877E-02 -0.877E-02
  -5.566 -0.953E-02 -0.953E-02
  -5.556 -0.103E-01 -0.103E-01
  -5.546 -0.110E-01 -0.110E-01
  -5.536 -0.116E-01 -0.116E-01
  -5.526 -0.122E-01 -0.122E-01
  -5.516 -0.128E-01 -0.128E-01
  -5.506 -0.133E-01 -0.133E-01
  -5.496 -0.138E-01 -0.138E-01
  -5.486 -0.142E-01 -0.142E-01
  -5.476 -0.145E-01 -0.145E-01
  -5.466 -0.149E-01 -0.149E-01
  -5.456 -0.151E-01 -0.151E-01
  -5.446 -0.153E-01 -0.153E-01
  -5.436 -0.154E-01 -0.154E-01
  -5.426 -0.155E-01 -0.155E-01
  -5.416 -0.155E-01 -0.155E-01
  -5.406 -0.154E-01 -0.154E-01
  -5.396 -0.153E-01 -0.153E-01
  -5.386 -0.151E-01 -0.151E-01
  -5.376 -0.148E-01 -0.148E-01
  -5.366 -0.144E-01 -0.144E-01
  -5.356 -0.140E-01 -0.140E-01
  -5.346 -0.134E-01 -0.134E-01
  -5.336 -0.128E-01 -0.128E-01
  -5.326 -0.121E-01 -0.121E-01
  -5.316 -0.113E-01 -0.113E-01
  -5.306 -0.104E-01 -0.104E-01
  -5.296 -0.938E-02 -0.938E-02
  -5.286 -0.828E-02 -0.828E-02
  -5.276 -0.708E-02 -0.708E-02
  -5.266 -0.578E-02 -0.578E-02
  -5.256 -0.437E-02 -0.437E-02
  -5.246 -0.285E-02 -0.285E-02
  -5.236 -0.122E-02 -0.122E-02
  -5.226  0.518E-03  0.518E-03
  -5.216  0.237E-02  0.237E-02
  -5.206  0.435E-02  0.435E-02
  -5.196  0.644E-02  0.644E-02
  -5.186  0.864E-02  0.864E-02
  -5.176  0.110E-01  0.110E-01
  -5.166  0.134E-01  0.134E-01
  -5.156  0.160E-01  0.160E-01
  -5.146  0.187E-01  0.187E-01
  -5.136  0.215E-01  0.215E-01
  -5.126  0.245E-01  0.245E-01
  -5.116  0.276E-01  0.276E-01
  -5.106  0.308E-01  0.308E-01
  -5.096  0.341E-01  0.341E-01
  -5.086  0.376E-01  0.376E-01
  -5.076  0.412E-01  0.412E-01
  -5.066  0.449E-01  0.449E-01
  -5.056  0.487E-01  0.487E-01
  -5.046  0.527E-01  0.527E-01
  -5.036  0.568E-01  0.568E-01
  -5.026  0.610E-01  0.610E-01
  -5.016  0.653E-01  0.653E-01
  -5.006  0.697E-01  0.697E-01
  -4.996  0.743E-01  0.743E-01
  -4.986  0.790E-01  0.790E-01
  -4.976  0.837E-01  0.837E-01
  -4.966  0.886E-01  0.886E-01
  -4.956  0.936E-01  0.936E-01
  -4.946  0.987E-01  0.987E-01
  -4.936  0.104E+00  0.104E+00
  -4.926  0.109E+00  0.109E+00
  -4.916  0.115E+00  0.115E+00
  -4.906  0.120E+00  0.120E+00
  -4.896  0.125E+00  0.125E+00
  -4.886  0.131E+00  0.131E+00
  -4.876  0.137E+00  0.137E+00
  -4.866  0.142E+00  0.142E+00
  -4.856  0.148E+00  0.148E+00
  -4.846  0.154E+00  0.154E+00
  -4.836  0.160E+00  0.160E+00
  -4.826  0.166E+00  0.166E+00
  -4.816  0.172E+00  0.172E+00
  -4.806  0.178E+00  0.178E+00
  -4.796  0.184E+00  0.184E+00
  -4.786  0.190E+00  0.190E+00
  -4.776  0.196E+00  0.196E+00
  -4.766  0.201E+00  0.201E+00
  -4.756  0.207E+00  0.207E+00
  -4.746  0.213E+00  0.213E+00
  -4.736  0.219E+00  0.219E+00
  -4.726  0.225E+00  0.225E+00
  -4.716  0.231E+00  0.231E+00
  -4.706  0.236E+00  0.236E+00
  -4.696  0.242E+00  0.242E+00
  -4.686  0.248E+00  0.248E+00
  -4.676  0.253E+00  0.253E+00
  -4.666  0.258E+00  0.258E+00
  -4.656  0.264E+00  0.264E+00
  -4.646  0.269E+00  0.269E+00
  -4.636  0.274E+00  0.274E+00
  -4.626  0.279E+00  0.279E+00
  -4.616  0.284E+00  0.284E+00
  -4.606  0.288E+00  0.288E+00
  -4.596  0.293E+00  0.293E+00
  -4.586  0.297E+00  0.297E+00
  -4.576  0.301E+00  0.301E+00
  -4.566  0.305E+00  0.305E+00
  -4.556  0.309E+00  0.309E+00
  -4.546  0.313E+00  0.313E+00
  -4.536  0.316E+00  0.316E+00
  -4.526  0.320E+00  0.320E+00
  -4.516  0.323E+00  0.323E+00
  -4.506  0.326E+00  0.326E+00
  -4.496  0.328E+00  0.328E+00
  -4.486  0.331E+00  0.331E+00
  -4.476  0.333E+00  0.333E+00
  -4.466  0.335E+00  0.335E+00
  -4.456  0.337E+00  0.337E+00
  -4.446  0.338E+00  0.338E+00
  -4.436  0.339E+00  0.339E+00
  -4.426  0.340E+00  0.340E+00
  -4.416  0.341E+00  0.341E+00
  -4.406  0.342E+00  0.342E+00
  -4.396  0.342E+00  0.342E+00
  -4.386  0.342E+00  0.342E+00
  -4.376  0.342E+00  0.342E+00
  -4.366  0.342E+00  0.342E+00
  -4.356  0.341E+00  0.341E+00
  -4.346  0.340E+00  0.340E+00
  -4.336  0.339E+00  0.339E+00
  -4.326  0.338E+00  0.338E+00
  -4.316  0.337E+00  0.337E+00
  -4.306  0.335E+00  0.335E+00
  -4.296  0.333E+00  0.333E+00
  -4.286  0.331E+00  0.331E+00
  -4.276  0.328E+00  0.328E+00
  -4.266  0.326E+00  0.326E+00
  -4.256  0.323E+00  0.323E+00
  -4.246  0.320E+00  0.320E+00
  -4.236  0.316E+00  0.316E+00
  -4.226  0.313E+00  0.313E+00
  -4.216  0.309E+00  0.309E+00
  -4.206  0.305E+00  0.305E+00
  -4.196  0.301E+00  0.301E+00
  -4.186  0.297E+00  0.297E+00
  -4.176  0.293E+00  0.293E+00
  -4.166  0.289E+00  0.289E+00
  -4.156  0.284E+00  0.284E+00
  -4.146  0.279E+00  0.279E+00
  -4.136  0.274E+00  0.274E+00
  -4.126  0.269E+00  0.269E+00
  -4.116  0.264E+00  0.264E+00
  -4.106  0.259E+00  0.259E+00
  -4.096  0.254E+00  0.254E+00
  -4.086  0.248E+00  0.248E+00
  -4.076  0.243E+00  0.243E+00
  -4.066  0.237E+00  0.237E+00
  -4.056  0.232E+00  0.232E+00
  -4.046  0.226E+00  0.226E+00
  -4.036  0.220E+00  0.220E+00
  -4.026  0.215E+00  0.215E+00
  -4.016  0.209E+00  0.209E+00
  -4.006  0.203E+00  0.203E+00
  -3.996  0.197E+00  0.197E+00
  -3.986  0.191E+00  0.191E+00
  -3.976  0.185E+00  0.185E+00
  -3.966  0.180E+00  0.180E+00
  -3.956  0.174E+00  0.174E+00
  -3.946  0.168E+00  0.168E+00
  -3.936  0.162E+00  0.162E+00
  -3.926  0.156E+00  0.156E+00
  -3.916  0.151E+00  0.151E+00
  -3.906  0.145E+00  0.145E+00
  -3.896  0.140E+00  0.140E+00
  -3.886  0.134E+00  0.134E+00
  -3.876  0.129E+00  0.129E+00
  -3.866  0.123E+00  0.123E+00
  -3.856  0.118E+00  0.118E+00
  -3.846  0.113E+00  0.113E+00
  -3.836  0.107E+00  0.107E+00
  -3.826  0.102E+00  0.102E+00
  -3.816  0.974E-01  0.974E-01
  -3.806  0.925E-01  0.925E-01
  -3.796  0.878E-01  0.878E-01
  -3.786  0.831E-01  0.831E-01
  -3.776  0.785E-01  0.785E-01
  -3.766  0.741E-01  0.741E-01
  -3.756  0.698E-01  0.698E-01
  -3.746  0.655E-01  0.655E-01
  -3.736  0.614E-01  0.614E-01
  -3.726  0.574E-01  0.574E-01
  -3.716  0.536E-01  0.536E-01
  -3.706  0.498E-01  0.498E-01
  -3.696  0.462E-01  0.462E-01
  -3.686  0.427E-01  0.427E-01
  -3.676  0.393E-01  0.393E-01
  -3.666  0.360E-01  0.360E-01
  -3.656  0.329E-01  0.329E-01
  -3.646  0.298E-01  0.298E-01
  -3.636  0.269E-01  0.269E-01
  -3.626  0.241E-01  0.241E-01
  -3.616  0.214E-01  0.214E-01
  -3.606  0.189E-01  0.189E-01
  -3.596  0.164E-01  0.164E-01
  -3.586  0.141E-01  0.141E-01
  -3.576  0.119E-01  0.119E-01
  -3.566  0.979E-02  0.979E-02
  -3.556  0.779E-02  0.779E-02
  -3.546  0.589E-02  0.589E-02
  -3.536  0.410E-02  0.410E-02
  -3.526  0.241E-02  0.241E-02
  -3.516  0.825E-03  0.825E-03
  -3.506 -0.667E-03 -0.667E-03
  -3.496 -0.206E-02 -0.206E-02
  -3.486 -0.337E-02 -0.337E-02
  -3.476 -0.459E-02 -0.459E-02
  -3.466 -0.572E-02 -0.572E-02
  -3.456 -0.676E-02 -0.676E-02
  -3.446 -0.773E-02 -0.773E-02
  -3.436 -0.862E-02 -0.862E-02
  -3.426 -0.943E-02 -0.943E-02
  -3.416 -0.102E-01 -0.102E-01
  -3.406 -0.108E-01 -0.108E-01
  -3.396 -0.114E-01 -0.114E-01
  -3.386 -0.120E-01 -0.120E-01
  -3.376 -0.125E-01 -0.125E-01
  -3.366 -0.129E-01 -0.129E-01
  -3.356 -0.132E-01 -0.132E-01
  -3.346 -0.135E-01 -0.135E-01
  -3.336 -0.138E-01 -0.138E-01
  -3.326 -0.140E-01 -0.140E-01
  -3.316 -0.142E-01 -0.142E-01
  -3.306 -0.143E-01 -0.143E-01
  -3.296 -0.144E-01 -0.144E-01
  -3.286 -0.144E-01 -0.144E-01
  -3.276 -0.144E-01 -0.144E-01
  -3.266 -0.144E-01 -0.144E-01
  -3.256 -0.143E-01 -0.143E-01
  -3.246 -0.142E-01 -0.142E-01
  -3.236 -0.141E-01 -0.141E-01
  -3.226 -0.140E-01 -0.140E-01
  -3.216 -0.138E-01 -0.138E-01
  -3.206 -0.136E-01 -0.136E-01
  -3.196 -0.134E-01 -0.134E-01
  -3.186 -0.132E-01 -0.132E-01
  -3.176 -0.130E-01 -0.130E-01
  -3.166 -0.127E-01 -0.127E-01
  -3.156 -0.125E-01 -0.125E-01
  -3.146 -0.122E-01 -0.122E-01
  -3.136 -0.119E-01 -0.119E-01
  -3.126 -0.116E-01 -0.116E-01
  -3.116 -0.113E-01 -0.113E-01
  -3.106 -0.110E-01 -0.110E-01
  -3.096 -0.107E-01 -0.107E-01
  -3.086 -0.103E-01 -0.103E-01
  -3.076 -0.100E-01 -0.100E-01
  -3.066 -0.969E-02 -0.969E-02
  -3.056 -0.936E-02 -0.936E-02
  -3.046 -0.903E-02 -0.903E-02
  -3.036 -0.870E-02 -0.870E-02
  -3.026 -0.837E-02 -0.837E-02
  -3.016 -0.805E-02 -0.805E-02
  -3.006 -0.772E-02 -0.772E-02
  -2.996 -0.740E-02 -0.740E-02
  -2.986 -0.708E-02 -0.708E-02
  -2.976 -0.677E-02 -0.677E-02
  -2.966 -0.645E-02 -0.645E-02
  -2.956 -0.615E-02 -0.615E-02
  -2.946 -0.584E-02 -0.584E-02
  -2.936 -0.555E-02 -0.555E-02
  -2.926 -0.525E-02 -0.525E-02
  -2.916 -0.497E-02 -0.497E-02
  -2.906 -0.468E-02 -0.468E-02
  -2.896 -0.441E-02 -0.441E-02
  -2.886 -0.414E-02 -0.414E-02
  -2.876 -0.387E-02 -0.387E-02
  -2.866 -0.361E-02 -0.361E-02
  -2.856 -0.336E-02 -0.336E-02
  -2.846 -0.312E-02 -0.312E-02
  -2.836 -0.288E-02 -0.288E-02
  -2.826 -0.264E-02 -0.264E-02
  -2.816 -0.242E-02 -0.242E-02
  -2.806 -0.219E-02 -0.219E-02
  -2.796 -0.198E-02 -0.198E-02
  -2.786 -0.177E-02 -0.177E-02
  -2.776 -0.157E-02 -0.157E-02
  -2.766 -0.137E-02 -0.137E-02
  -2.756 -0.118E-02 -0.118E-02
  -2.746 -0.992E-03 -0.992E-03
  -2.736 -0.811E-03 -0.811E-03
  -2.726 -0.637E-03 -0.637E-03
  -2.716 -0.467E-03 -0.467E-03
  -2.706 -0.303E-03 -0.303E-03
  -2.696 -0.144E-03 -0.144E-03
  -2.686  0.979E-05  0.979E-05
  -2.676  0.159E-03  0.159E-03
  -2.666  0.303E-03  0.303E-03
  -2.656  0.443E-03  0.443E-03
  -2.646  0.579E-03  0.579E-03
  -2.636  0.710E-03  0.710E-03
  -2.626  0.836E-03  0.836E-03
  -2.616  0.959E-03  0.959E-03
  -2.606  0.108E-02  0.108E-02
  -2.596  0.119E-02  0.119E-02
  -2.586  0.130E-02  0.130E-02
  -2.576  0.141E-02  0.141E-02
  -2.566  0.152E-02  0.152E-02
  -2.556  0.162E-02  0.162E-02
  -2.546  0.172E-02  0.172E-02
  -2.536  0.181E-02  0.181E-02
  -2.526  0.190E-02  0.190E-02
  -2.516  0.199E-02  0.199E-02
  -2.506  0.208E-02  0.208E-02
  -2.496  0.217E-02  0.217E-02
  -2.486  0.225E-02  0.225E-02
  -2.476  0.233E-02  0.233E-02
  -2.466  0.240E-02  0.240E-02
  -2.456  0.248E-02  0.248E-02
  -2.446  0.255E-02  0.255E-02
  -2.436  0.262E-02  0.262E-02
  -2.426  0.269E-02  0.269E-02
  -2.416  0.276E-02  0.276E-02
  -2.406  0.282E-02  0.282E-02
  -2.396  0.288E-02  0.288E-02
  -2.386  0.294E-02  0.294E-02
  -2.376  0.300E-02  0.300E-02
  -2.366  0.306E-02  0.306E-02
  -2.356  0.312E-02  0.312E-02
  -2.346  0.317E-02  0.317E-02
  -2.336  0.323E-02  0.323E-02
  -2.326  0.328E-02  0.328E-02
  -2.316  0.333E-02  0.333E-02
  -2.306  0.338E-02  0.338E-02
  -2.296  0.342E-02  0.342E-02
  -2.286  0.347E-02  0.347E-02
  -2.276  0.351E-02  0.351E-02
  -2.266  0.356E-02  0.356E-02
  -2.256  0.360E-02  0.360E-02
  -2.246  0.364E-02  0.364E-02
  -2.236  0.368E-02  0.368E-02
  -2.226  0.371E-02  0.371E-02
  -2.216  0.375E-02  0.375E-02
  -2.206  0.379E-02  0.379E-02
  -2.196  0.382E-02  0.382E-02
  -2.186  0.385E-02  0.385E-02
  -2.176  0.388E-02  0.388E-02
  -2.166  0.391E-02  0.391E-02
  -2.156  0.394E-02  0.394E-02
  -2.146  0.396E-02  0.396E-02
  -2.136  0.399E-02  0.399E-02
  -2.126  0.401E-02  0.401E-02
  -2.116  0.404E-02  0.404E-02
  -2.106  0.406E-02  0.406E-02
  -2.096  0.408E-02  0.408E-02
  -2.086  0.410E-02  0.410E-02
  -2.076  0.411E-02  0.411E-02
  -2.066  0.413E-02  0.413E-02
  -2.056  0.414E-02  0.414E-02
  -2.046  0.415E-02  0.415E-02
  -2.036  0.416E-02  0.416E-02
  -2.026  0.417E-02  0.417E-02
  -2.016  0.418E-02  0.418E-02
  -2.006  0.419E-02  0.419E-02
  -1.996  0.420E-02  0.420E-02
  -1.986  0.420E-02  0.420E-02
  -1.976  0.420E-02  0.420E-02
  -1.966  0.420E-02  0.420E-02
  -1.956  0.420E-02  0.420E-02
  -1.946  0.420E-02  0.420E-02
  -1.936  0.420E-02  0.420E-02
  -1.926  0.420E-02  0.420E-02
  -1.916  0.419E-02  0.419E-02
  -1.906  0.419E-02  0.419E-02
  -1.896  0.418E-02  0.418E-02
  -1.886  0.417E-02  0.417E-02
  -1.876  0.416E-02  0.416E-02
  -1.866  0.415E-02  0.415E-02
  -1.856  0.414E-02  0.414E-02
  -1.846  0.413E-02  0.413E-02
  -1.836  0.411E-02  0.411E-02
  -1.826  0.410E-02  0.410E-02
  -1.816  0.409E-02  0.409E-02
  -1.806  0.407E-02  0.407E-02
  -1.796  0.405E-02  0.405E-02
  -1.786  0.404E-02  0.404E-02
  -1.776  0.402E-02  0.402E-02
  -1.766  0.400E-02  0.400E-02
  -1.756  0.398E-02  0.398E-02
  -1.746  0.396E-02  0.396E-02
  -1.736  0.394E-02  0.394E-02
  -1.726  0.392E-02  0.392E-02
  -1.716  0.390E-02  0.390E-02
  -1.706  0.388E-02  0.388E-02
  -1.696  0.387E-02  0.387E-02
  -1.686  0.385E-02  0.385E-02
  -1.676  0.383E-02  0.383E-02
  -1.666  0.381E-02  0.381E-02
  -1.656  0.379E-02  0.379E-02
  -1.646  0.377E-02  0.377E-02
  -1.636  0.375E-02  0.375E-02
  -1.626  0.373E-02  0.373E-02
  -1.616  0.371E-02  0.371E-02
  -1.606  0.370E-02  0.370E-02
  -1.596  0.368E-02  0.368E-02
  -1.586  0.366E-02  0.366E-02
  -1.576  0.365E-02  0.365E-02
  -1.566  0.364E-02  0.364E-02
  -1.556  0.362E-02  0.362E-02
  -1.546  0.361E-02  0.361E-02
  -1.536  0.360E-02  0.360E-02
  -1.526  0.359E-02  0.359E-02
  -1.516  0.358E-02  0.358E-02
  -1.506  0.357E-02  0.357E-02
  -1.496  0.357E-02  0.357E-02
  -1.486  0.356E-02  0.356E-02
  -1.476  0.356E-02  0.356E-02
  -1.466  0.355E-02  0.355E-02
  -1.456  0.355E-02  0.355E-02
  -1.446  0.355E-02  0.355E-02
  -1.436  0.355E-02  0.355E-02
  -1.426  0.356E-02  0.356E-02
  -1.416  0.356E-02  0.356E-02
  -1.406  0.356E-02  0.356E-02
  -1.396  0.357E-02  0.357E-02
  -1.386  0.358E-02  0.358E-02
  -1.376  0.359E-02  0.359E-02
  -1.366  0.360E-02  0.360E-02
  -1.356  0.361E-02  0.361E-02
  -1.346  0.363E-02  0.363E-02
  -1.336  0.364E-02  0.364E-02
  -1.326  0.366E-02  0.366E-02
  -1.316  0.367E-02  0.367E-02
  -1.306  0.369E-02  0.369E-02
  -1.296  0.371E-02  0.371E-02
  -1.286  0.373E-02  0.373E-02
  -1.276  0.376E-02  0.376E-02
  -1.266  0.378E-02  0.378E-02
  -1.256  0.380E-02  0.380E-02
  -1.246  0.383E-02  0.383E-02
  -1.236  0.385E-02  0.385E-02
  -1.226  0.388E-02  0.388E-02
  -1.216  0.391E-02  0.391E-02
  -1.206  0.394E-02  0.394E-02
  -1.196  0.397E-02  0.397E-02
  -1.186  0.400E-02  0.400E-02
  -1.176  0.402E-02  0.402E-02
  -1.166  0.405E-02  0.405E-02
  -1.156  0.408E-02  0.408E-02
  -1.146  0.412E-02  0.412E-02
  -1.136  0.415E-02  0.415E-02
  -1.126  0.418E-02  0.418E-02
  -1.116  0.421E-02  0.421E-02
  -1.106  0.424E-02  0.424E-02
  -1.096  0.427E-02  0.427E-02
  -1.086  0.430E-02  0.430E-02
  -1.076  0.432E-02  0.432E-02
  -1.066  0.435E-02  0.435E-02
  -1.056  0.438E-02  0.438E-02
  -1.046  0.441E-02  0.441E-02
  -1.036  0.443E-02  0.443E-02
  -1.026  0.446E-02  0.446E-02
  -1.016  0.448E-02  0.448E-02
  -1.006  0.450E-02  0.450E-02
  -0.996  0.453E-02  0.453E-02
  -0.986  0.455E-02  0.455E-02
  -0.976  0.457E-02  0.457E-02
  -0.966  0.458E-02  0.458E-02
  -0.956  0.460E-02  0.460E-02
  -0.946  0.461E-02  0.461E-02
  -0.936  0.463E-02  0.463E-02
  -0.926  0.464E-02  0.464E-02
  -0.916  0.465E-02  0.465E-02
  -0.906  0.466E-02  0.466E-02
  -0.896  0.466E-02  0.466E-02
  -0.886  0.467E-02  0.467E-02
  -0.876  0.467E-02  0.467E-02
  -0.866  0.467E-02  0.467E-02
  -0.856  0.467E-02  0.467E-02
  -0.846  0.466E-02  0.466E-02
  -0.836  0.466E-02  0.466E-02
  -0.826  0.465E-02  0.465E-02
  -0.816  0.464E-02  0.464E-02
  -0.806  0.462E-02  0.462E-02
  -0.796  0.461E-02  0.461E-02
  -0.786  0.459E-02  0.459E-02
  -0.776  0.458E-02  0.458E-02
  -0.766  0.455E-02  0.455E-02
  -0.756  0.453E-02  0.453E-02
  -0.746  0.451E-02  0.451E-02
  -0.736  0.448E-02  0.448E-02
  -0.726  0.445E-02  0.445E-02
  -0.716  0.442E-02  0.442E-02
  -0.706  0.439E-02  0.439E-02
  -0.696  0.436E-02  0.436E-02
  -0.686  0.432E-02  0.432E-02
  -0.676  0.429E-02  0.429E-02
  -0.666  0.425E-02  0.425E-02
  -0.656  0.421E-02  0.421E-02
  -0.646  0.417E-02  0.417E-02
  -0.636  0.412E-02  0.412E-02
  -0.626  0.408E-02  0.408E-02
  -0.616  0.404E-02  0.404E-02
  -0.606  0.399E-02  0.399E-02
  -0.596  0.394E-02  0.394E-02
  -0.586  0.390E-02  0.390E-02
  -0.576  0.385E-02  0.385E-02
  -0.566  0.380E-02  0.380E-02
  -0.556  0.375E-02  0.375E-02
  -0.546  0.370E-02  0.370E-02
  -0.536  0.365E-02  0.365E-02
  -0.526  0.360E-02  0.360E-02
  -0.516  0.355E-02  0.355E-02
  -0.506  0.350E-02  0.350E-02
  -0.496  0.345E-02  0.345E-02
  -0.486  0.340E-02  0.340E-02
  -0.476  0.335E-02  0.335E-02
  -0.466  0.330E-02  0.330E-02
  -0.456  0.325E-02  0.325E-02
  -0.446  0.320E-02  0.320E-02
  -0.436  0.315E-02  0.315E-02
  -0.426  0.311E-02  0.311E-02
  -0.416  0.306E-02  0.306E-02
  -0.406  0.301E-02  0.301E-02
  -0.396  0.297E-02  0.297E-02
  -0.386  0.293E-02  0.293E-02
  -0.376  0.289E-02  0.289E-02
  -0.366  0.285E-02  0.285E-02
  -0.356  0.281E-02  0.281E-02
  -0.346  0.277E-02  0.277E-02
  -0.336  0.274E-02  0.274E-02
  -0.326  0.270E-02  0.270E-02
  -0.316  0.267E-02  0.267E-02
  -0.306  0.264E-02  0.264E-02
  -0.296  0.261E-02  0.261E-02
  -0.286  0.259E-02  0.259E-02
  -0.276  0.256E-02  0.256E-02
  -0.266  0.254E-02  0.254E-02
  -0.256  0.252E-02  0.252E-02
  -0.246  0.250E-02  0.250E-02
  -0.236  0.248E-02  0.248E-02
  -0.226  0.247E-02  0.247E-02
  -0.216  0.245E-02  0.245E-02
  -0.206  0.244E-02  0.244E-02
  -0.196  0.243E-02  0.243E-02
  -0.186  0.243E-02  0.243E-02
  -0.176  0.242E-02  0.242E-02
  -0.166  0.242E-02  0.242E-02
  -0.156  0.242E-02  0.242E-02
  -0.146  0.242E-02  0.242E-02
  -0.136  0.242E-02  0.242E-02
  -0.126  0.243E-02  0.243E-02
  -0.116  0.243E-02  0.243E-02
  -0.106  0.244E-02  0.244E-02
  -0.096  0.245E-02  0.245E-02
  -0.086  0.246E-02  0.246E-02
  -0.076  0.248E-02  0.248E-02
  -0.066  0.249E-02  0.249E-02
  -0.056  0.251E-02  0.251E-02
  -0.046  0.252E-02  0.252E-02
  -0.036  0.254E-02  0.254E-02
  -0.026  0.256E-02  0.256E-02
  -0.016  0.258E-02  0.258E-02
  -0.006  0.261E-02  0.261E-02
   0.004  0.263E-02  0.263E-02
   0.014  0.265E-02  0.265E-02
   0.024  0.268E-02  0.268E-02
   0.034  0.271E-02  0.271E-02
   0.044  0.273E-02  0.273E-02
   0.054  0.276E-02  0.276E-02
   0.064  0.279E-02  0.279E-02
   0.074  0.281E-02  0.281E-02
   0.084  0.284E-02  0.284E-02
   0.094  0.287E-02  0.287E-02
   0.104  0.290E-02  0.290E-02
   0.114  0.293E-02  0.293E-02
   0.124  0.295E-02  0.295E-02
   0.134  0.298E-02  0.298E-02
   0.144  0.301E-02  0.301E-02
   0.154  0.304E-02  0.304E-02
   0.164  0.307E-02  0.307E-02
   0.174  0.309E-02  0.309E-02
   0.184  0.312E-02  0.312E-02
   0.194  0.314E-02  0.314E-02
   0.204  0.317E-02  0.317E-02
   0.214  0.319E-02  0.319E-02
   0.224  0.322E-02  0.322E-02
   0.234  0.324E-02  0.324E-02
   0.244  0.326E-02  0.326E-02
   0.254  0.328E-02  0.328E-02
   0.264  0.330E-02  0.330E-02
   0.274  0.332E-02  0.332E-02
   0.284  0.334E-02  0.334E-02
   0.294  0.335E-02  0.335E-02
   0.304  0.337E-02  0.337E-02
   0.314  0.338E-02  0.338E-02
   0.324  0.340E-02  0.340E-02
   0.334  0.341E-02  0.341E-02
   0.344  0.342E-02  0.342E-02
   0.354  0.342E-02  0.342E-02
   0.364  0.343E-02  0.343E-02
   0.374  0.344E-02  0.344E-02
   0.384  0.344E-02  0.344E-02
   0.394  0.345E-02  0.345E-02
   0.404  0.345E-02  0.345E-02
   0.414  0.345E-02  0.345E-02
   0.424  0.345E-02  0.345E-02
   0.434  0.344E-02  0.344E-02
   0.444  0.344E-02  0.344E-02
   0.454  0.343E-02  0.343E-02
   0.464  0.343E-02  0.343E-02
   0.474  0.342E-02  0.342E-02
   0.484  0.341E-02  0.341E-02
   0.494  0.340E-02  0.340E-02
   0.504  0.339E-02  0.339E-02
   0.514  0.338E-02  0.338E-02
   0.524  0.336E-02  0.336E-02
   0.534  0.335E-02  0.335E-02
   0.544  0.333E-02  0.333E-02
   0.554  0.331E-02  0.331E-02
   0.564  0.330E-02  0.330E-02
   0.574  0.328E-02  0.328E-02
   0.584  0.326E-02  0.326E-02
   0.594  0.324E-02  0.324E-02
   0.604  0.321E-02  0.321E-02
   0.614  0.319E-02  0.319E-02
   0.624  0.317E-02  0.317E-02
   0.634  0.315E-02  0.315E-02
   0.644  0.312E-02  0.312E-02
   0.654  0.310E-02  0.310E-02
   0.664  0.307E-02  0.307E-02
   0.674  0.305E-02  0.305E-02
   0.684  0.302E-02  0.302E-02
   0.694  0.299E-02  0.299E-02
   0.704  0.297E-02  0.297E-02
   0.714  0.294E-02  0.294E-02
   0.724  0.291E-02  0.291E-02
   0.734  0.289E-02  0.289E-02
   0.744  0.286E-02  0.286E-02
   0.754  0.283E-02  0.283E-02
   0.764  0.280E-02  0.280E-02
   0.774  0.278E-02  0.278E-02
   0.784  0.275E-02  0.275E-02
   0.794  0.272E-02  0.272E-02
   0.804  0.270E-02  0.270E-02
   0.814  0.267E-02  0.267E-02
   0.824  0.265E-02  0.265E-02
   0.834  0.262E-02  0.262E-02
   0.844  0.260E-02  0.260E-02
   0.854  0.257E-02  0.257E-02
   0.864  0.255E-02  0.255E-02
   0.874  0.252E-02  0.252E-02
   0.884  0.250E-02  0.250E-02
   0.894  0.248E-02  0.248E-02
   0.904  0.246E-02  0.246E-02
   0.914  0.244E-02  0.244E-02
   0.924  0.242E-02  0.242E-02
   0.934  0.240E-02  0.240E-02
   0.944  0.238E-02  0.238E-02
   0.954  0.236E-02  0.236E-02
   0.964  0.235E-02  0.235E-02
   0.974  0.233E-02  0.233E-02
   0.984  0.232E-02  0.232E-02
   0.994  0.230E-02  0.230E-02
   1.004  0.229E-02  0.229E-02
   1.014  0.228E-02  0.228E-02
   1.024  0.227E-02  0.227E-02
   1.034  0.226E-02  0.226E-02
   1.044  0.225E-02  0.225E-02
   1.054  0.224E-02  0.224E-02
   1.064  0.224E-02  0.224E-02
   1.074  0.223E-02  0.223E-02
   1.084  0.223E-02  0.223E-02
   1.094  0.222E-02  0.222E-02
   1.104  0.222E-02  0.222E-02
   1.114  0.222E-02  0.222E-02
   1.124  0.222E-02  0.222E-02
   1.134  0.222E-02  0.222E-02
   1.144  0.222E-02  0.222E-02
   1.154  0.223E-02  0.223E-02
   1.164  0.223E-02  0.223E-02
   1.174  0.224E-02  0.224E-02
   1.184  0.225E-02  0.225E-02
   1.194  0.225E-02  0.225E-02
   1.204  0.226E-02  0.226E-02
   1.214  0.227E-02  0.227E-02
   1.224  0.229E-02  0.229E-02
   1.234  0.230E-02  0.230E-02
   1.244  0.231E-02  0.231E-02
   1.254  0.233E-02  0.233E-02
   1.264  0.234E-02  0.234E-02
   1.274  0.236E-02  0.236E-02
   1.284  0.238E-02  0.238E-02
   1.294  0.239E-02  0.239E-02
   1.304  0.241E-02  0.241E-02
   1.314  0.243E-02  0.243E-02
   1.324  0.245E-02  0.245E-02
   1.334  0.248E-02  0.248E-02
   1.344  0.250E-02  0.250E-02
   1.354  0.252E-02  0.252E-02
   1.364  0.255E-02  0.255E-02
   1.374  0.257E-02  0.257E-02
   1.384  0.259E-02  0.259E-02
   1.394  0.262E-02  0.262E-02
   1.404  0.265E-02  0.265E-02
   1.414  0.267E-02  0.267E-02
   1.424  0.270E-02  0.270E-02
   1.434  0.273E-02  0.273E-02
   1.444  0.275E-02  0.275E-02
   1.454  0.278E-02  0.278E-02
   1.464  0.281E-02  0.281E-02
   1.474  0.284E-02  0.284E-02
   1.484  0.287E-02  0.287E-02
   1.494  0.289E-02  0.289E-02
   1.504  0.292E-02  0.292E-02
   1.514  0.295E-02  0.295E-02
   1.524  0.298E-02  0.298E-02
   1.534  0.301E-02  0.301E-02
   1.544  0.303E-02  0.303E-02
   1.554  0.306E-02  0.306E-02
   1.564  0.309E-02  0.309E-02
   1.574  0.312E-02  0.312E-02
   1.584  0.314E-02  0.314E-02
   1.594  0.317E-02  0.317E-02
   1.604  0.319E-02  0.319E-02
   1.614  0.322E-02  0.322E-02
   1.624  0.324E-02  0.324E-02
   1.634  0.327E-02  0.327E-02
   1.644  0.329E-02  0.329E-02
   1.654  0.331E-02  0.331E-02
   1.664  0.333E-02  0.333E-02
   1.674  0.335E-02  0.335E-02
   1.684  0.337E-02  0.337E-02
   1.694  0.339E-02  0.339E-02
   1.704  0.341E-02  0.341E-02
   1.714  0.343E-02  0.343E-02
   1.724  0.345E-02  0.345E-02
   1.734  0.346E-02  0.346E-02
   1.744  0.348E-02  0.348E-02
   1.754  0.350E-02  0.350E-02
   1.764  0.351E-02  0.351E-02
   1.774  0.352E-02  0.352E-02
   1.784  0.353E-02  0.353E-02
   1.794  0.355E-02  0.355E-02
   1.804  0.356E-02  0.356E-02
   1.814  0.357E-02  0.357E-02
   1.824  0.358E-02  0.358E-02
   1.834  0.359E-02  0.359E-02
   1.844  0.359E-02  0.359E-02
   1.854  0.360E-02  0.360E-02
   1.864  0.361E-02  0.361E-02
   1.874  0.362E-02  0.362E-02
   1.884  0.362E-02  0.362E-02
   1.894  0.363E-02  0.363E-02
   1.904  0.364E-02  0.364E-02
   1.914  0.364E-02  0.364E-02
   1.924  0.365E-02  0.365E-02
   1.934  0.366E-02  0.366E-02
   1.944  0.366E-02  0.366E-02
   1.954  0.367E-02  0.367E-02
   1.964  0.368E-02  0.368E-02
   1.974  0.369E-02  0.369E-02
   1.984  0.370E-02  0.370E-02
   1.994  0.370E-02  0.370E-02
   2.004  0.372E-02  0.372E-02
   2.014  0.373E-02  0.373E-02
   2.024  0.374E-02  0.374E-02
   2.034  0.375E-02  0.375E-02
   2.044  0.377E-02  0.377E-02
   2.054  0.378E-02  0.378E-02
   2.064  0.380E-02  0.380E-02
   2.074  0.382E-02  0.382E-02
   2.084  0.384E-02  0.384E-02
   2.094  0.387E-02  0.387E-02
   2.104  0.390E-02  0.390E-02
   2.114  0.392E-02  0.392E-02
   2.124  0.396E-02  0.396E-02
   2.134  0.399E-02  0.399E-02
   2.144  0.403E-02  0.403E-02
   2.154  0.407E-02  0.407E-02
   2.164  0.411E-02  0.411E-02
   2.174  0.415E-02  0.415E-02
   2.184  0.420E-02  0.420E-02
   2.194  0.426E-02  0.426E-02
   2.204  0.431E-02  0.431E-02
   2.214  0.437E-02  0.437E-02
   2.224  0.444E-02  0.444E-02
   2.234  0.450E-02  0.450E-02
   2.244  0.457E-02  0.457E-02
   2.254  0.465E-02  0.465E-02
   2.264  0.473E-02  0.473E-02
   2.274  0.481E-02  0.481E-02
   2.284  0.490E-02  0.490E-02
   2.294  0.500E-02  0.500E-02
   2.304  0.509E-02  0.509E-02
   2.314  0.519E-02  0.519E-02
   2.324  0.530E-02  0.530E-02
   2.334  0.541E-02  0.541E-02
   2.344  0.553E-02  0.553E-02
   2.354  0.565E-02  0.565E-02
   2.364  0.577E-02  0.577E-02
   2.374  0.590E-02  0.590E-02
   2.384  0.603E-02  0.603E-02
   2.394  0.617E-02  0.617E-02
   2.404  0.631E-02  0.631E-02
   2.414  0.646E-02  0.646E-02
   2.424  0.661E-02  0.661E-02
   2.434  0.676E-02  0.676E-02
   2.444  0.692E-02  0.692E-02
   2.454  0.709E-02  0.709E-02
   2.464  0.725E-02  0.725E-02
   2.474  0.742E-02  0.742E-02
   2.484  0.760E-02  0.760E-02
   2.494  0.778E-02  0.778E-02
   2.504  0.796E-02  0.796E-02
   2.514  0.814E-02  0.814E-02
   2.524  0.833E-02  0.833E-02
   2.534  0.852E-02  0.852E-02
   2.544  0.871E-02  0.871E-02
   2.554  0.891E-02  0.891E-02
   2.564  0.910E-02  0.910E-02
   2.574  0.930E-02  0.930E-02
   2.584  0.950E-02  0.950E-02
   2.594  0.971E-02  0.971E-02
   2.604  0.991E-02  0.991E-02
   2.614  0.101E-01  0.101E-01
   2.624  0.103E-01  0.103E-01
   2.634  0.105E-01  0.105E-01
   2.644  0.107E-01  0.107E-01
   2.654  0.109E-01  0.109E-01
   2.664  0.111E-01  0.111E-01
   2.674  0.113E-01  0.113E-01
   2.684  0.115E-01  0.115E-01
   2.694  0.117E-01  0.117E-01
   2.704  0.119E-01  0.119E-01
   2.714  0.121E-01  0.121E-01
   2.724  0.123E-01  0.123E-01
   2.734  0.125E-01  0.125E-01
   2.744  0.127E-01  0.127E-01
   2.754  0.129E-01  0.129E-01
   2.764  0.131E-01  0.131E-01
   2.774  0.132E-01  0.132E-01
   2.784  0.134E-01  0.134E-01
   2.794  0.136E-01  0.136E-01
   2.804  0.137E-01  0.137E-01
   2.814  0.139E-01  0.139E-01
   2.824  0.140E-01  0.140E-01
   2.834  0.142E-01  0.142E-01
   2.844  0.143E-01  0.143E-01
   2.854  0.145E-01  0.145E-01
   2.864  0.146E-01  0.146E-01
   2.874  0.147E-01  0.147E-01
   2.884  0.148E-01  0.148E-01
   2.894  0.149E-01  0.149E-01
   2.904  0.150E-01  0.150E-01
   2.914  0.151E-01  0.151E-01
   2.924  0.152E-01  0.152E-01
   2.934  0.153E-01  0.153E-01
   2.944  0.153E-01  0.153E-01
   2.954  0.154E-01  0.154E-01
   2.964  0.154E-01  0.154E-01
   2.974  0.155E-01  0.155E-01
   2.984  0.155E-01  0.155E-01
   2.994  0.155E-01  0.155E-01
   3.004  0.155E-01  0.155E-01
   3.014  0.155E-01  0.155E-01
   3.024  0.155E-01  0.155E-01
   3.034  0.155E-01  0.155E-01
   3.044  0.155E-01  0.155E-01
   3.054  0.154E-01  0.154E-01
   3.064  0.154E-01  0.154E-01
   3.074  0.153E-01  0.153E-01
   3.084  0.153E-01  0.153E-01
   3.094  0.152E-01  0.152E-01
   3.104  0.151E-01  0.151E-01
   3.114  0.150E-01  0.150E-01
   3.124  0.149E-01  0.149E-01
   3.134  0.148E-01  0.148E-01
   3.144  0.147E-01  0.147E-01
   3.154  0.146E-01  0.146E-01
   3.164  0.145E-01  0.145E-01
   3.174  0.143E-01  0.143E-01
   3.184  0.142E-01  0.142E-01
   3.194  0.140E-01  0.140E-01
   3.204  0.139E-01  0.139E-01
   3.214  0.137E-01  0.137E-01
   3.224  0.135E-01  0.135E-01
   3.234  0.133E-01  0.133E-01
   3.244  0.131E-01  0.131E-01
   3.254  0.129E-01  0.129E-01
   3.264  0.127E-01  0.127E-01
   3.274  0.125E-01  0.125E-01
   3.284  0.123E-01  0.123E-01
   3.294  0.121E-01  0.121E-01
   3.304  0.119E-01  0.119E-01
   3.314  0.116E-01  0.116E-01
   3.324  0.114E-01  0.114E-01
   3.334  0.112E-01  0.112E-01
   3.344  0.109E-01  0.109E-01
   3.354  0.107E-01  0.107E-01
   3.364  0.105E-01  0.105E-01
   3.374  0.102E-01  0.102E-01
   3.384  0.996E-02  0.996E-02
   3.394  0.971E-02  0.971E-02
   3.404  0.946E-02  0.946E-02
   3.414  0.921E-02  0.921E-02
   3.424  0.895E-02  0.895E-02
   3.434  0.870E-02  0.870E-02
   3.444  0.845E-02  0.845E-02
   3.454  0.819E-02  0.819E-02
   3.464  0.794E-02  0.794E-02
   3.474  0.768E-02  0.768E-02
   3.484  0.743E-02  0.743E-02
   3.494  0.718E-02  0.718E-02
   3.504  0.693E-02  0.693E-02
   3.514  0.668E-02  0.668E-02
   3.524  0.643E-02  0.643E-02
   3.534  0.619E-02  0.619E-02
   3.544  0.595E-02  0.595E-02
   3.554  0.571E-02  0.571E-02
   3.564  0.547E-02  0.547E-02
   3.574  0.524E-02  0.524E-02
   3.584  0.501E-02  0.501E-02
   3.594  0.478E-02  0.478E-02
   3.604  0.456E-02  0.456E-02
   3.614  0.434E-02  0.434E-02
   3.624  0.412E-02  0.412E-02
   3.634  0.391E-02  0.391E-02
   3.644  0.371E-02  0.371E-02
   3.654  0.351E-02  0.351E-02
   3.664  0.331E-02  0.331E-02
   3.674  0.312E-02  0.312E-02
   3.684  0.293E-02  0.293E-02
   3.694  0.275E-02  0.275E-02
   3.704  0.257E-02  0.257E-02
   3.714  0.239E-02  0.239E-02
   3.724  0.223E-02  0.223E-02
   3.734  0.206E-02  0.206E-02
   3.744  0.191E-02  0.191E-02
   3.754  0.175E-02  0.175E-02
   3.764  0.160E-02  0.160E-02
   3.774  0.146E-02  0.146E-02
   3.784  0.132E-02  0.132E-02
   3.794  0.119E-02  0.119E-02
   3.804  0.107E-02  0.107E-02
   3.814  0.943E-03  0.943E-03
   3.824  0.826E-03  0.826E-03
   3.834  0.714E-03  0.714E-03
   3.844  0.606E-03  0.606E-03
   3.854  0.504E-03  0.504E-03
   3.864  0.407E-03  0.407E-03
   3.874  0.314E-03  0.314E-03
   3.884  0.226E-03  0.226E-03
   3.894  0.142E-03  0.142E-03
   3.904  0.631E-04  0.631E-04
   3.914 -0.116E-04 -0.116E-04
   3.924 -0.819E-04 -0.819E-04
   3.934 -0.148E-03 -0.148E-03
   3.944 -0.210E-03 -0.210E-03
   3.954 -0.268E-03 -0.268E-03
   3.964 -0.322E-03 -0.322E-03
   3.974 -0.372E-03 -0.372E-03
   3.984 -0.419E-03 -0.419E-03
   3.994 -0.462E-03 -0.462E-03
   4.004 -0.502E-03 -0.502E-03
   4.014 -0.538E-03 -0.538E-03
   4.024 -0.571E-03 -0.571E-03
   4.034 -0.601E-03 -0.601E-03
   4.044 -0.628E-03 -0.628E-03
   4.054 -0.652E-03 -0.652E-03
   4.064 -0.674E-03 -0.674E-03
   4.074 -0.692E-03 -0.692E-03
   4.084 -0.709E-03 -0.709E-03
   4.094 -0.723E-03 -0.723E-03
   4.104 -0.734E-03 -0.734E-03
   4.114 -0.744E-03 -0.744E-03
   4.124 -0.751E-03 -0.751E-03
   4.134 -0.756E-03 -0.756E-03
   4.144 -0.760E-03 -0.760E-03
   4.154 -0.762E-03 -0.762E-03
   4.164 -0.762E-03 -0.762E-03
   4.174 -0.761E-03 -0.761E-03
   4.184 -0.758E-03 -0.758E-03
   4.194 -0.754E-03 -0.754E-03
   4.204 -0.748E-03 -0.748E-03
   4.214 -0.742E-03 -0.742E-03
   4.224 -0.734E-03 -0.734E-03
   4.234 -0.726E-03 -0.726E-03
   4.244 -0.716E-03 -0.716E-03
   4.254 -0.706E-03 -0.706E-03
   4.264 -0.695E-03 -0.695E-03
   4.274 -0.683E-03 -0.683E-03
   4.284 -0.671E-03 -0.671E-03
   4.294 -0.658E-03 -0.658E-03
   4.304 -0.645E-03 -0.645E-03
   4.314 -0.631E-03 -0.631E-03
   4.324 -0.617E-03 -0.617E-03
   4.334 -0.602E-03 -0.602E-03
   4.344 -0.588E-03 -0.588E-03
   4.354 -0.573E-03 -0.573E-03
   4.364 -0.558E-03 -0.558E-03
   4.374 -0.543E-03 -0.543E-03
   4.384 -0.527E-03 -0.527E-03
   4.394 -0.512E-03 -0.512E-03
   4.404 -0.497E-03 -0.497E-03
   4.414 -0.482E-03 -0.482E-03
   4.424 -0.467E-03 -0.467E-03
   4.434 -0.452E-03 -0.452E-03
   4.444 -0.437E-03 -0.437E-03
   4.454 -0.422E-03 -0.422E-03
   4.464 -0.408E-03 -0.408E-03
   4.474 -0.393E-03 -0.393E-03
   4.484 -0.379E-03 -0.379E-03
   4.494 -0.365E-03 -0.365E-03
   4.504 -0.352E-03 -0.352E-03
   4.514 -0.339E-03 -0.339E-03
   4.524 -0.325E-03 -0.325E-03
   4.534 -0.313E-03 -0.313E-03
   4.544 -0.300E-03 -0.300E-03
   4.554 -0.288E-03 -0.288E-03
   4.564 -0.276E-03 -0.276E-03
   4.574 -0.265E-03 -0.265E-03
   4.584 -0.253E-03 -0.253E-03
   4.594 -0.242E-03 -0.242E-03
   4.604 -0.232E-03 -0.232E-03
   4.614 -0.221E-03 -0.221E-03
   4.624 -0.212E-03 -0.212E-03
   4.634 -0.202E-03 -0.202E-03
   4.644 -0.193E-03 -0.193E-03
   4.654 -0.184E-03 -0.184E-03
   4.664 -0.175E-03 -0.175E-03
   4.674 -0.167E-03 -0.167E-03
   4.684 -0.158E-03 -0.158E-03
   4.694 -0.151E-03 -0.151E-03
   4.704 -0.143E-03 -0.143E-03
   4.714 -0.136E-03 -0.136E-03
   4.724 -0.129E-03 -0.129E-03
   4.734 -0.122E-03 -0.122E-03
   4.744 -0.116E-03 -0.116E-03
   4.754 -0.110E-03 -0.110E-03
   4.764 -0.104E-03 -0.104E-03
   4.774 -0.986E-04 -0.986E-04
   4.784 -0.933E-04 -0.933E-04
   4.794 -0.882E-04 -0.882E-04
   4.804 -0.834E-04 -0.834E-04
   4.814 -0.787E-04 -0.787E-04
   4.824 -0.743E-04 -0.743E-04
   4.834 -0.701E-04 -0.701E-04
   4.844 -0.661E-04 -0.661E-04
   4.854 -0.623E-04 -0.623E-04
   4.864 -0.587E-04 -0.587E-04
   4.874 -0.552E-04 -0.552E-04
   4.884 -0.520E-04 -0.520E-04
   4.894 -0.489E-04 -0.489E-04
   4.904 -0.459E-04 -0.459E-04
   4.914 -0.431E-04 -0.431E-04
   4.924 -0.405E-04 -0.405E-04
   4.934 -0.380E-04 -0.380E-04
   4.944 -0.356E-04 -0.356E-04
   4.954 -0.334E-04 -0.334E-04
   4.964 -0.313E-04 -0.313E-04
   4.974 -0.293E-04 -0.293E-04
   4.984 -0.274E-04 -0.274E-04
   4.994 -0.256E-04 -0.256E-04
   5.004 -0.240E-04 -0.240E-04
   5.014 -0.224E-04 -0.224E-04
   5.024 -0.209E-04 -0.209E-04
   5.034 -0.195E-04 -0.195E-04
   5.044 -0.182E-04 -0.182E-04
   5.054 -0.170E-04 -0.170E-04
   5.064 -0.158E-04 -0.158E-04
   5.074 -0.148E-04 -0.148E-04
   5.084 -0.137E-04 -0.137E-04
   5.094 -0.128E-04 -0.128E-04
   5.104 -0.119E-04 -0.119E-04
   5.114 -0.111E-04 -0.111E-04
   5.124 -0.103E-04 -0.103E-04
   5.134 -0.954E-05 -0.954E-05
   5.144 -0.886E-05 -0.886E-05
   5.154 -0.822E-05 -0.822E-05
   5.164 -0.762E-05 -0.762E-05
   5.174 -0.707E-05 -0.707E-05
   5.184 -0.655E-05 -0.655E-05
   5.194 -0.606E-05 -0.606E-05
   5.204 -0.561E-05 -0.561E-05
   5.214 -0.519E-05 -0.519E-05
   5.224 -0.480E-05 -0.480E-05
   5.234 -0.444E-05 -0.444E-05
   5.244 -0.410E-05 -0.410E-05
   5.254 -0.378E-05 -0.378E-05
   5.264 -0.349E-05 -0.349E-05
   5.274 -0.322E-05 -0.322E-05
   5.284 -0.297E-05 -0.297E-05
   5.294 -0.274E-05 -0.274E-05
