# E (eV)   ldos(E)   pdos(E)   
 -27.116 -0.695E-04 -0.695E-04
 -27.106 -0.750E-04 -0.750E-04
 -27.096 -0.809E-04 -0.809E-04
 -27.086 -0.872E-04 -0.872E-04
 -27.076 -0.940E-04 -0.940E-04
 -27.066 -0.101E-03 -0.101E-03
 -27.056 -0.109E-03 -0.109E-03
 -27.046 -0.117E-03 -0.117E-03
 -27.036 -0.126E-03 -0.126E-03
 -27.026 -0.135E-03 -0.135E-03
 -27.016 -0.145E-03 -0.145E-03
 -27.006 -0.156E-03 -0.156E-03
 -26.996 -0.168E-03 -0.168E-03
 -26.986 -0.180E-03 -0.180E-03
 -26.976 -0.193E-03 -0.193E-03
 -26.966 -0.206E-03 -0.206E-03
 -26.956 -0.221E-03 -0.221E-03
 -26.946 -0.236E-03 -0.236E-03
 -26.936 -0.253E-03 -0.253E-03
 -26.926 -0.270E-03 -0.270E-03
 -26.916 -0.289E-03 -0.289E-03
 -26.906 -0.308E-03 -0.308E-03
 -26.896 -0.329E-03 -0.329E-03
 -26.886 -0.351E-03 -0.351E-03
 -26.876 -0.374E-03 -0.374E-03
 -26.866 -0.399E-03 -0.399E-03
 -26.856 -0.425E-03 -0.425E-03
 -26.846 -0.452E-03 -0.452E-03
 -26.836 -0.481E-03 -0.481E-03
 -26.826 -0.511E-03 -0.511E-03
 -26.816 -0.543E-03 -0.543E-03
 -26.806 -0.577E-03 -0.577E-03
 -26.796 -0.612E-03 -0.612E-03
 -26.786 -0.649E-03 -0.649E-03
 -26.776 -0.688E-03 -0.688E-03
 -26.766 -0.729E-03 -0.729E-03
 -26.756 -0.772E-03 -0.772E-03
 -26.746 -0.817E-03 -0.817E-03
 -26.736 -0.864E-03 -0.864E-03
 -26.726 -0.913E-03 -0.913E-03
 -26.716 -0.964E-03 -0.964E-03
 -26.706 -0.102E-02 -0.102E-02
 -26.696 -0.107E-02 -0.107E-02
 -26.686 -0.113E-02 -0.113E-02
 -26.676 -0.119E-02 -0.119E-02
 -26.666 -0.126E-02 -0.126E-02
 -26.656 -0.132E-02 -0.132E-02
 -26.646 -0.139E-02 -0.139E-02
 -26.636 -0.146E-02 -0.146E-02
 -26.626 -0.154E-02 -0.154E-02
 -26.616 -0.161E-02 -0.161E-02
 -26.606 -0.169E-02 -0.169E-02
 -26.596 -0.177E-02 -0.177E-02
 -26.586 -0.186E-02 -0.186E-02
 -26.576 -0.195E-02 -0.195E-02
 -26.566 -0.204E-02 -0.204E-02
 -26.556 -0.213E-02 -0.213E-02
 -26.546 -0.222E-02 -0.222E-02
 -26.536 -0.232E-02 -0.232E-02
 -26.526 -0.242E-02 -0.242E-02
 -26.516 -0.253E-02 -0.253E-02
 -26.506 -0.263E-02 -0.263E-02
 -26.496 -0.274E-02 -0.274E-02
 -26.486 -0.285E-02 -0.285E-02
 -26.476 -0.296E-02 -0.296E-02
 -26.466 -0.308E-02 -0.308E-02
 -26.456 -0.320E-02 -0.320E-02
 -26.446 -0.331E-02 -0.331E-02
 -26.436 -0.343E-02 -0.343E-02
 -26.426 -0.356E-02 -0.356E-02
 -26.416 -0.368E-02 -0.368E-02
 -26.406 -0.380E-02 -0.380E-02
 -26.396 -0.393E-02 -0.393E-02
 -26.386 -0.406E-02 -0.406E-02
 -26.376 -0.418E-02 -0.418E-02
 -26.366 -0.431E-02 -0.431E-02
 -26.356 -0.443E-02 -0.443E-02
 -26.346 -0.456E-02 -0.456E-02
 -26.336 -0.468E-02 -0.468E-02
 -26.326 -0.480E-02 -0.480E-02
 -26.316 -0.493E-02 -0.493E-02
 -26.306 -0.504E-02 -0.504E-02
 -26.296 -0.516E-02 -0.516E-02
 -26.286 -0.527E-02 -0.527E-02
 -26.276 -0.538E-02 -0.538E-02
 -26.266 -0.548E-02 -0.548E-02
 -26.256 -0.558E-02 -0.558E-02
 -26.246 -0.568E-02 -0.568E-02
 -26.236 -0.576E-02 -0.576E-02
 -26.226 -0.585E-02 -0.585E-02
 -26.216 -0.592E-02 -0.592E-02
 -26.206 -0.598E-02 -0.598E-02
 -26.196 -0.604E-02 -0.604E-02
 -26.186 -0.609E-02 -0.609E-02
 -26.176 -0.612E-02 -0.612E-02
 -26.166 -0.615E-02 -0.615E-02
 -26.156 -0.616E-02 -0.616E-02
 -26.146 -0.616E-02 -0.616E-02
 -26.136 -0.615E-02 -0.615E-02
 -26.126 -0.612E-02 -0.612E-02
 -26.116 -0.608E-02 -0.608E-02
 -26.106 -0.602E-02 -0.602E-02
 -26.096 -0.594E-02 -0.594E-02
 -26.086 -0.584E-02 -0.584E-02
 -26.076 -0.573E-02 -0.573E-02
 -26.066 -0.559E-02 -0.559E-02
 -26.056 -0.544E-02 -0.544E-02
 -26.046 -0.526E-02 -0.526E-02
 -26.036 -0.506E-02 -0.506E-02
 -26.026 -0.483E-02 -0.483E-02
 -26.016 -0.458E-02 -0.458E-02
 -26.006 -0.430E-02 -0.430E-02
 -25.996 -0.399E-02 -0.399E-02
 -25.986 -0.366E-02 -0.366E-02
 -25.976 -0.330E-02 -0.330E-02
 -25.966 -0.290E-02 -0.290E-02
 -25.956 -0.248E-02 -0.248E-02
 -25.946 -0.202E-02 -0.202E-02
 -25.936 -0.153E-02 -0.153E-02
 -25.926 -0.101E-02 -0.101E-02
 -25.916 -0.453E-03 -0.453E-03
 -25.906  0.141E-03  0.141E-03
 -25.896  0.771E-03  0.771E-03
 -25.886  0.144E-02  0.144E-02
 -25.876  0.214E-02  0.214E-02
 -25.866  0.289E-02  0.289E-02
 -25.856  0.367E-02  0.367E-02
 -25.846  0.449E-02  0.449E-02
 -25.836  0.535E-02  0.535E-02
 -25.826  0.626E-02  0.626E-02
 -25.816  0.720E-02  0.720E-02
 -25.806  0.819E-02  0.819E-02
 -25.796  0.922E-02  0.922E-02
 -25.786  0.103E-01  0.103E-01
 -25.776  0.114E-01  0.114E-01
 -25.766  0.125E-01  0.125E-01
 -25.756  0.137E-01  0.137E-01
 -25.746  0.150E-01  0.150E-01
 -25.736  0.163E-01  0.163E-01
 -25.726  0.176E-01  0.176E-01
 -25.716  0.189E-01  0.189E-01
 -25.706  0.203E-01  0.203E-01
 -25.696  0.218E-01  0.218E-01
 -25.686  0.233E-01  0.233E-01
 -25.676  0.248E-01  0.248E-01
 -25.666  0.263E-01  0.263E-01
 -25.656  0.279E-01  0.279E-01
 -25.646  0.296E-01  0.296E-01
 -25.636  0.312E-01  0.312E-01
 -25.626  0.329E-01  0.329E-01
 -25.616  0.346E-01  0.346E-01
 -25.606  0.364E-01  0.364E-01
 -25.596  0.382E-01  0.382E-01
 -25.586  0.400E-01  0.400E-01
 -25.576  0.418E-01  0.418E-01
 -25.566  0.437E-01  0.437E-01
 -25.556  0.456E-01  0.456E-01
 -25.546  0.475E-01  0.475E-01
 -25.536  0.494E-01  0.494E-01
 -25.526  0.513E-01  0.513E-01
 -25.516  0.533E-01  0.533E-01
 -25.506  0.553E-01  0.553E-01
 -25.496  0.572E-01  0.572E-01
 -25.486  0.592E-01  0.592E-01
 -25.476  0.612E-01  0.612E-01
 -25.466  0.632E-01  0.632E-01
 -25.456  0.651E-01  0.651E-01
 -25.446  0.671E-01  0.671E-01
 -25.436  0.691E-01  0.691E-01
 -25.426  0.710E-01  0.710E-01
 -25.416  0.730E-01  0.730E-01
 -25.406  0.749E-01  0.749E-01
 -25.396  0.768E-01  0.768E-01
 -25.386  0.787E-01  0.787E-01
 -25.376  0.806E-01  0.806E-01
 -25.366  0.824E-01  0.824E-01
 -25.356  0.842E-01  0.842E-01
 -25.346  0.860E-01  0.860E-01
 -25.336  0.877E-01  0.877E-01
 -25.326  0.894E-01  0.894E-01
 -25.316  0.911E-01  0.911E-01
 -25.306  0.927E-01  0.927E-01
 -25.296  0.942E-01  0.942E-01
 -25.286  0.958E-01  0.958E-01
 -25.276  0.972E-01  0.972E-01
 -25.266  0.986E-01  0.986E-01
 -25.256  0.100E+00  0.100E+00
 -25.246  0.101E+00  0.101E+00
 -25.236  0.103E+00  0.103E+00
 -25.226  0.104E+00  0.104E+00
 -25.216  0.105E+00  0.105E+00
 -25.206  0.106E+00  0.106E+00
 -25.196  0.107E+00  0.107E+00
 -25.186  0.108E+00  0.108E+00
 -25.176  0.109E+00  0.109E+00
 -25.166  0.109E+00  0.109E+00
 -25.156  0.110E+00  0.110E+00
 -25.146  0.111E+00  0.111E+00
 -25.136  0.111E+00  0.111E+00
 -25.126  0.112E+00  0.112E+00
 -25.116  0.112E+00  0.112E+00
 -25.106  0.112E+00  0.112E+00
 -25.096  0.112E+00  0.112E+00
 -25.086  0.113E+00  0.113E+00
 -25.076  0.113E+00  0.113E+00
 -25.066  0.113E+00  0.113E+00
 -25.056  0.112E+00  0.112E+00
 -25.046  0.112E+00  0.112E+00
 -25.036  0.112E+00  0.112E+00
 -25.026  0.112E+00  0.112E+00
 -25.016  0.111E+00  0.111E+00
 -25.006  0.111E+00  0.111E+00
 -24.996  0.110E+00  0.110E+00
 -24.986  0.109E+00  0.109E+00
 -24.976  0.109E+00  0.109E+00
 -24.966  0.108E+00  0.108E+00
 -24.956  0.107E+00  0.107E+00
 -24.946  0.106E+00  0.106E+00
 -24.936  0.105E+00  0.105E+00
 -24.926  0.104E+00  0.104E+00
 -24.916  0.103E+00  0.103E+00
 -24.906  0.102E+00  0.102E+00
 -24.896  0.100E+00  0.100E+00
 -24.886  0.989E-01  0.989E-01
 -24.876  0.975E-01  0.975E-01
 -24.866  0.960E-01  0.960E-01
 -24.856  0.945E-01  0.945E-01
 -24.846  0.930E-01  0.930E-01
 -24.836  0.913E-01  0.913E-01
 -24.826  0.897E-01  0.897E-01
 -24.816  0.880E-01  0.880E-01
 -24.806  0.863E-01  0.863E-01
 -24.796  0.845E-01  0.845E-01
 -24.786  0.827E-01  0.827E-01
 -24.776  0.809E-01  0.809E-01
 -24.766  0.790E-01  0.790E-01
 -24.756  0.771E-01  0.771E-01
 -24.746  0.752E-01  0.752E-01
 -24.736  0.733E-01  0.733E-01
 -24.726  0.714E-01  0.714E-01
 -24.716  0.694E-01  0.694E-01
 -24.706  0.674E-01  0.674E-01
 -24.696  0.655E-01  0.655E-01
 -24.686  0.635E-01  0.635E-01
 -24.676  0.615E-01  0.615E-01
 -24.666  0.595E-01  0.595E-01
 -24.656  0.576E-01  0.576E-01
 -24.646  0.556E-01  0.556E-01
 -24.636  0.536E-01  0.536E-01
 -24.626  0.517E-01  0.517E-01
 -24.616  0.497E-01  0.497E-01
 -24.606  0.478E-01  0.478E-01
 -24.596  0.459E-01  0.459E-01
 -24.586  0.440E-01  0.440E-01
 -24.576  0.422E-01  0.422E-01
 -24.566  0.403E-01  0.403E-01
 -24.556  0.385E-01  0.385E-01
 -24.546  0.367E-01  0.367E-01
 -24.536  0.349E-01  0.349E-01
 -24.526  0.332E-01  0.332E-01
 -24.516  0.315E-01  0.315E-01
 -24.506  0.298E-01  0.298E-01
 -24.496  0.282E-01  0.282E-01
 -24.486  0.266E-01  0.266E-01
 -24.476  0.250E-01  0.250E-01
 -24.466  0.235E-01  0.235E-01
 -24.456  0.220E-01  0.220E-01
 -24.446  0.206E-01  0.206E-01
 -24.436  0.192E-01  0.192E-01
 -24.426  0.178E-01  0.178E-01
 -24.416  0.165E-01  0.165E-01
 -24.406  0.152E-01  0.152E-01
 -24.396  0.140E-01  0.140E-01
 -24.386  0.127E-01  0.127E-01
 -24.376  0.116E-01  0.116E-01
 -24.366  0.105E-01  0.105E-01
 -24.356  0.939E-02  0.939E-02
 -24.346  0.836E-02  0.836E-02
 -24.336  0.737E-02  0.737E-02
 -24.326  0.642E-02  0.642E-02
 -24.316  0.551E-02  0.551E-02
 -24.306  0.464E-02  0.464E-02
 -24.296  0.381E-02  0.381E-02
 -24.286  0.302E-02  0.302E-02
 -24.276  0.227E-02  0.227E-02
 -24.266  0.156E-02  0.156E-02
 -24.256  0.882E-03  0.882E-03
 -24.246  0.246E-03  0.246E-03
 -24.236 -0.354E-03 -0.354E-03
 -24.226 -0.918E-03 -0.918E-03
 -24.216 -0.145E-02 -0.145E-02
 -24.206 -0.194E-02 -0.194E-02
 -24.196 -0.240E-02 -0.240E-02
 -24.186 -0.283E-02 -0.283E-02
 -24.176 -0.323E-02 -0.323E-02
 -24.166 -0.360E-02 -0.360E-02
 -24.156 -0.394E-02 -0.394E-02
 -24.146 -0.425E-02 -0.425E-02
 -24.136 -0.453E-02 -0.453E-02
 -24.126 -0.479E-02 -0.479E-02
 -24.116 -0.502E-02 -0.502E-02
 -24.106 -0.522E-02 -0.522E-02
 -24.096 -0.541E-02 -0.541E-02
 -24.086 -0.557E-02 -0.557E-02
 -24.076 -0.571E-02 -0.571E-02
 -24.066 -0.583E-02 -0.583E-02
 -24.056 -0.592E-02 -0.592E-02
 -24.046 -0.601E-02 -0.601E-02
 -24.036 -0.607E-02 -0.607E-02
 -24.026 -0.611E-02 -0.611E-02
 -24.016 -0.615E-02 -0.615E-02
 -24.006 -0.616E-02 -0.616E-02
 -23.996 -0.616E-02 -0.616E-02
 -23.986 -0.615E-02 -0.615E-02
 -23.976 -0.613E-02 -0.613E-02
 -23.966 -0.609E-02 -0.609E-02
 -23.956 -0.605E-02 -0.605E-02
 -23.946 -0.599E-02 -0.599E-02
 -23.936 -0.593E-02 -0.593E-02
 -23.926 -0.586E-02 -0.586E-02
 -23.916 -0.578E-02 -0.578E-02
 -23.906 -0.569E-02 -0.569E-02
 -23.896 -0.560E-02 -0.560E-02
 -23.886 -0.550E-02 -0.550E-02
 -23.876 -0.540E-02 -0.540E-02
 -23.866 -0.529E-02 -0.529E-02
 -23.856 -0.518E-02 -0.518E-02
 -23.846 -0.506E-02 -0.506E-02
 -23.836 -0.495E-02 -0.495E-02
 -23.826 -0.483E-02 -0.483E-02
 -23.816 -0.470E-02 -0.470E-02
 -23.806 -0.458E-02 -0.458E-02
 -23.796 -0.445E-02 -0.445E-02
 -23.786 -0.433E-02 -0.433E-02
 -23.776 -0.420E-02 -0.420E-02
 -23.766 -0.408E-02 -0.408E-02
 -23.756 -0.395E-02 -0.395E-02
 -23.746 -0.383E-02 -0.383E-02
 -23.736 -0.370E-02 -0.370E-02
 -23.726 -0.358E-02 -0.358E-02
 -23.716 -0.346E-02 -0.346E-02
 -23.706 -0.333E-02 -0.333E-02
 -23.696 -0.322E-02 -0.322E-02
 -23.686 -0.310E-02 -0.310E-02
 -23.676 -0.298E-02 -0.298E-02
 -23.666 -0.287E-02 -0.287E-02
 -23.656 -0.276E-02 -0.276E-02
 -23.646 -0.265E-02 -0.265E-02
 -23.636 -0.254E-02 -0.254E-02
 -23.626 -0.244E-02 -0.244E-02
 -23.616 -0.234E-02 -0.234E-02
 -23.606 -0.224E-02 -0.224E-02
 -23.596 -0.214E-02 -0.214E-02
 -23.586 -0.205E-02 -0.205E-02
 -23.576 -0.196E-02 -0.196E-02
 -23.566 -0.187E-02 -0.187E-02
 -23.556 -0.179E-02 -0.179E-02
 -23.546 -0.171E-02 -0.171E-02
 -23.536 -0.163E-02 -0.163E-02
 -23.526 -0.155E-02 -0.155E-02
 -23.516 -0.147E-02 -0.147E-02
 -23.506 -0.140E-02 -0.140E-02
 -23.496 -0.133E-02 -0.133E-02
 -23.486 -0.127E-02 -0.127E-02
 -23.476 -0.120E-02 -0.120E-02
 -23.466 -0.114E-02 -0.114E-02
 -23.456 -0.108E-02 -0.108E-02
 -23.446 -0.103E-02 -0.103E-02
 -23.436 -0.973E-03 -0.973E-03
 -23.426 -0.922E-03 -0.922E-03
 -23.416 -0.872E-03 -0.872E-03
 -23.406 -0.825E-03 -0.825E-03
 -23.396 -0.779E-03 -0.779E-03
 -23.386 -0.736E-03 -0.736E-03
 -23.376 -0.695E-03 -0.695E-03
 -23.366 -0.656E-03 -0.656E-03
 -23.356 -0.618E-03 -0.618E-03
 -23.346 -0.582E-03 -0.582E-03
 -23.336 -0.549E-03 -0.549E-03
 -23.326 -0.516E-03 -0.516E-03
 -23.316 -0.486E-03 -0.486E-03
 -23.306 -0.457E-03 -0.457E-03
 -23.296 -0.429E-03 -0.429E-03
 -23.286 -0.403E-03 -0.403E-03
 -23.276 -0.378E-03 -0.378E-03
 -23.266 -0.355E-03 -0.355E-03
 -23.256 -0.333E-03 -0.333E-03
 -23.246 -0.312E-03 -0.312E-03
 -23.236 -0.292E-03 -0.292E-03
 -23.226 -0.273E-03 -0.273E-03
 -23.216 -0.256E-03 -0.256E-03
 -23.206 -0.239E-03 -0.239E-03
 -23.196 -0.224E-03 -0.224E-03
 -23.186 -0.209E-03 -0.209E-03
 -23.176 -0.195E-03 -0.195E-03
 -23.166 -0.182E-03 -0.182E-03
 -23.156 -0.170E-03 -0.170E-03
 -23.146 -0.158E-03 -0.158E-03
 -23.136 -0.147E-03 -0.147E-03
 -23.126 -0.137E-03 -0.137E-03
 -23.116 -0.128E-03 -0.128E-03
 -23.106 -0.119E-03 -0.119E-03
 -23.096 -0.110E-03 -0.110E-03
 -23.086 -0.103E-03 -0.103E-03
 -23.076 -0.952E-04 -0.952E-04
 -23.066 -0.884E-04 -0.884E-04
 -23.056 -0.820E-04 -0.820E-04
 -23.046 -0.761E-04 -0.761E-04
 -23.036 -0.705E-04 -0.705E-04
 -23.026 -0.653E-04 -0.653E-04
 -23.016 -0.605E-04 -0.605E-04
 -23.006 -0.560E-04 -0.560E-04
 -22.996 -0.518E-04 -0.518E-04
 -22.986 -0.480E-04 -0.480E-04
 -22.976 -0.443E-04 -0.443E-04
 -22.966 -0.410E-04 -0.410E-04
 -22.956 -0.379E-04 -0.379E-04
 -22.946 -0.350E-04 -0.350E-04
 -22.936 -0.323E-04 -0.323E-04
 -22.926 -0.298E-04 -0.298E-04
 -22.916 -0.276E-04 -0.276E-04
 -22.906 -0.254E-04 -0.254E-04
 -22.896 -0.235E-04 -0.235E-04
 -22.886 -0.217E-04 -0.217E-04
 -22.876 -0.201E-04 -0.201E-04
 -22.866 -0.185E-04 -0.185E-04
 -22.856 -0.172E-04 -0.172E-04
 -22.846 -0.159E-04 -0.159E-04
 -22.836 -0.147E-04 -0.147E-04
 -22.826 -0.137E-04 -0.137E-04
 -22.816 -0.127E-04 -0.127E-04
 -22.806 -0.119E-04 -0.119E-04
 -22.796 -0.111E-04 -0.111E-04
 -22.786 -0.104E-04 -0.104E-04
 -22.776 -0.981E-05 -0.981E-05
 -22.766 -0.929E-05 -0.929E-05
 -22.756 -0.883E-05 -0.883E-05
 -22.746 -0.845E-05 -0.845E-05
 -22.736 -0.813E-05 -0.813E-05
 -22.726 -0.788E-05 -0.788E-05
 -22.716 -0.770E-05 -0.770E-05
 -22.706 -0.757E-05 -0.757E-05
 -22.696 -0.752E-05 -0.752E-05
 -22.686 -0.752E-05 -0.752E-05
 -22.676 -0.759E-05 -0.759E-05
 -22.666 -0.772E-05 -0.772E-05
 -22.656 -0.791E-05 -0.791E-05
 -22.646 -0.817E-05 -0.817E-05
 -22.636 -0.850E-05 -0.850E-05
 -22.626 -0.889E-05 -0.889E-05
 -22.616 -0.936E-05 -0.936E-05
 -22.606 -0.991E-05 -0.991E-05
 -22.596 -0.105E-04 -0.105E-04
 -22.586 -0.112E-04 -0.112E-04
 -22.576 -0.120E-04 -0.120E-04
 -22.566 -0.129E-04 -0.129E-04
 -22.556 -0.139E-04 -0.139E-04
 -22.546 -0.150E-04 -0.150E-04
 -22.536 -0.161E-04 -0.161E-04
 -22.526 -0.175E-04 -0.175E-04
 -22.516 -0.189E-04 -0.189E-04
 -22.506 -0.204E-04 -0.204E-04
 -22.496 -0.221E-04 -0.221E-04
 -22.486 -0.240E-04 -0.240E-04
 -22.476 -0.260E-04 -0.260E-04
 -22.466 -0.282E-04 -0.282E-04
 -22.456 -0.306E-04 -0.306E-04
 -22.446 -0.331E-04 -0.331E-04
 -22.436 -0.359E-04 -0.359E-04
 -22.426 -0.389E-04 -0.389E-04
 -22.416 -0.421E-04 -0.421E-04
 -22.406 -0.456E-04 -0.456E-04
 -22.396 -0.494E-04 -0.494E-04
 -22.386 -0.535E-04 -0.535E-04
 -22.376 -0.578E-04 -0.578E-04
 -22.366 -0.625E-04 -0.625E-04
 -22.356 -0.676E-04 -0.676E-04
 -22.346 -0.730E-04 -0.730E-04
 -22.336 -0.788E-04 -0.788E-04
 -22.326 -0.851E-04 -0.851E-04
 -22.316 -0.918E-04 -0.918E-04
 -22.306 -0.990E-04 -0.990E-04
 -22.296 -0.107E-03 -0.107E-03
 -22.286 -0.115E-03 -0.115E-03
 -22.276 -0.124E-03 -0.124E-03
 -22.266 -0.133E-03 -0.133E-03
 -22.256 -0.143E-03 -0.143E-03
 -22.246 -0.154E-03 -0.154E-03
 -22.236 -0.165E-03 -0.165E-03
 -22.226 -0.178E-03 -0.178E-03
 -22.216 -0.191E-03 -0.191E-03
 -22.206 -0.205E-03 -0.205E-03
 -22.196 -0.219E-03 -0.219E-03
 -22.186 -0.235E-03 -0.235E-03
 -22.176 -0.252E-03 -0.252E-03
 -22.166 -0.269E-03 -0.269E-03
 -22.156 -0.288E-03 -0.288E-03
 -22.146 -0.308E-03 -0.308E-03
 -22.136 -0.330E-03 -0.330E-03
 -22.126 -0.352E-03 -0.352E-03
 -22.116 -0.376E-03 -0.376E-03
 -22.106 -0.401E-03 -0.401E-03
 -22.096 -0.428E-03 -0.428E-03
 -22.086 -0.456E-03 -0.456E-03
 -22.076 -0.486E-03 -0.486E-03
 -22.066 -0.517E-03 -0.517E-03
 -22.056 -0.550E-03 -0.550E-03
 -22.046 -0.585E-03 -0.585E-03
 -22.036 -0.622E-03 -0.622E-03
 -22.026 -0.661E-03 -0.661E-03
 -22.016 -0.702E-03 -0.702E-03
 -22.006 -0.744E-03 -0.744E-03
 -21.996 -0.789E-03 -0.789E-03
 -21.986 -0.837E-03 -0.837E-03
 -21.976 -0.886E-03 -0.886E-03
 -21.966 -0.938E-03 -0.938E-03
 -21.956 -0.993E-03 -0.993E-03
 -21.946 -0.105E-02 -0.105E-02
 -21.936 -0.111E-02 -0.111E-02
 -21.926 -0.117E-02 -0.117E-02
 -21.916 -0.124E-02 -0.124E-02
 -21.906 -0.130E-02 -0.130E-02
 -21.896 -0.138E-02 -0.138E-02
 -21.886 -0.145E-02 -0.145E-02
 -21.876 -0.153E-02 -0.153E-02
 -21.866 -0.161E-02 -0.161E-02
 -21.856 -0.169E-02 -0.169E-02
 -21.846 -0.177E-02 -0.177E-02
 -21.836 -0.186E-02 -0.186E-02
 -21.826 -0.196E-02 -0.196E-02
 -21.816 -0.205E-02 -0.205E-02
 -21.806 -0.215E-02 -0.215E-02
 -21.796 -0.225E-02 -0.225E-02
 -21.786 -0.236E-02 -0.236E-02
 -21.776 -0.247E-02 -0.247E-02
 -21.766 -0.258E-02 -0.258E-02
 -21.756 -0.269E-02 -0.269E-02
 -21.746 -0.281E-02 -0.281E-02
 -21.736 -0.293E-02 -0.293E-02
 -21.726 -0.306E-02 -0.306E-02
 -21.716 -0.319E-02 -0.319E-02
 -21.706 -0.332E-02 -0.332E-02
 -21.696 -0.345E-02 -0.345E-02
 -21.686 -0.358E-02 -0.358E-02
 -21.676 -0.372E-02 -0.372E-02
 -21.666 -0.386E-02 -0.386E-02
 -21.656 -0.401E-02 -0.401E-02
 -21.646 -0.415E-02 -0.415E-02
 -21.636 -0.430E-02 -0.430E-02
 -21.626 -0.445E-02 -0.445E-02
 -21.616 -0.459E-02 -0.459E-02
 -21.606 -0.474E-02 -0.474E-02
 -21.596 -0.489E-02 -0.489E-02
 -21.586 -0.505E-02 -0.505E-02
 -21.576 -0.520E-02 -0.520E-02
 -21.566 -0.535E-02 -0.535E-02
 -21.556 -0.550E-02 -0.550E-02
 -21.546 -0.564E-02 -0.564E-02
 -21.536 -0.579E-02 -0.579E-02
 -21.526 -0.593E-02 -0.593E-02
 -21.516 -0.607E-02 -0.607E-02
 -21.506 -0.621E-02 -0.621E-02
 -21.496 -0.635E-02 -0.635E-02
 -21.486 -0.647E-02 -0.647E-02
 -21.476 -0.660E-02 -0.660E-02
 -21.466 -0.671E-02 -0.671E-02
 -21.456 -0.683E-02 -0.683E-02
 -21.446 -0.693E-02 -0.693E-02
 -21.436 -0.702E-02 -0.702E-02
 -21.426 -0.711E-02 -0.711E-02
 -21.416 -0.718E-02 -0.718E-02
 -21.406 -0.725E-02 -0.725E-02
 -21.396 -0.730E-02 -0.730E-02
 -21.386 -0.734E-02 -0.734E-02
 -21.376 -0.737E-02 -0.737E-02
 -21.366 -0.738E-02 -0.738E-02
 -21.356 -0.738E-02 -0.738E-02
 -21.346 -0.736E-02 -0.736E-02
 -21.336 -0.732E-02 -0.732E-02
 -21.326 -0.727E-02 -0.727E-02
 -21.316 -0.719E-02 -0.719E-02
 -21.306 -0.709E-02 -0.709E-02
 -21.296 -0.697E-02 -0.697E-02
 -21.286 -0.683E-02 -0.683E-02
 -21.276 -0.666E-02 -0.666E-02
 -21.266 -0.647E-02 -0.647E-02
 -21.256 -0.625E-02 -0.625E-02
 -21.246 -0.601E-02 -0.601E-02
 -21.236 -0.573E-02 -0.573E-02
 -21.226 -0.542E-02 -0.542E-02
 -21.216 -0.509E-02 -0.509E-02
 -21.206 -0.471E-02 -0.471E-02
 -21.196 -0.431E-02 -0.431E-02
 -21.186 -0.387E-02 -0.387E-02
 -21.176 -0.339E-02 -0.339E-02
 -21.166 -0.288E-02 -0.288E-02
 -21.156 -0.233E-02 -0.233E-02
 -21.146 -0.174E-02 -0.174E-02
 -21.136 -0.111E-02 -0.111E-02
 -21.126 -0.438E-03 -0.438E-03
 -21.116  0.276E-03  0.276E-03
 -21.106  0.103E-02  0.103E-02
 -21.096  0.183E-02  0.183E-02
 -21.086  0.268E-02  0.268E-02
 -21.076  0.357E-02  0.357E-02
 -21.066  0.451E-02  0.451E-02
 -21.056  0.549E-02  0.549E-02
 -21.046  0.653E-02  0.653E-02
 -21.036  0.761E-02  0.761E-02
 -21.026  0.873E-02  0.873E-02
 -21.016  0.991E-02  0.991E-02
 -21.006  0.111E-01  0.111E-01
 -20.996  0.124E-01  0.124E-01
 -20.986  0.137E-01  0.137E-01
 -20.976  0.151E-01  0.151E-01
 -20.966  0.165E-01  0.165E-01
 -20.956  0.180E-01  0.180E-01
 -20.946  0.195E-01  0.195E-01
 -20.936  0.211E-01  0.211E-01
 -20.926  0.227E-01  0.227E-01
 -20.916  0.243E-01  0.243E-01
 -20.906  0.260E-01  0.260E-01
 -20.896  0.278E-01  0.278E-01
 -20.886  0.296E-01  0.296E-01
 -20.876  0.314E-01  0.314E-01
 -20.866  0.333E-01  0.333E-01
 -20.856  0.352E-01  0.352E-01
 -20.846  0.371E-01  0.371E-01
 -20.836  0.391E-01  0.391E-01
 -20.826  0.411E-01  0.411E-01
 -20.816  0.432E-01  0.432E-01
 -20.806  0.453E-01  0.453E-01
 -20.796  0.474E-01  0.474E-01
 -20.786  0.495E-01  0.495E-01
 -20.776  0.517E-01  0.517E-01
 -20.766  0.539E-01  0.539E-01
 -20.756  0.561E-01  0.561E-01
 -20.746  0.583E-01  0.583E-01
 -20.736  0.605E-01  0.605E-01
 -20.726  0.628E-01  0.628E-01
 -20.716  0.650E-01  0.650E-01
 -20.706  0.673E-01  0.673E-01
 -20.696  0.695E-01  0.695E-01
 -20.686  0.718E-01  0.718E-01
 -20.676  0.740E-01  0.740E-01
 -20.666  0.763E-01  0.763E-01
 -20.656  0.785E-01  0.785E-01
 -20.646  0.807E-01  0.807E-01
 -20.636  0.829E-01  0.829E-01
 -20.626  0.850E-01  0.850E-01
 -20.616  0.872E-01  0.872E-01
 -20.606  0.893E-01  0.893E-01
 -20.596  0.914E-01  0.914E-01
 -20.586  0.934E-01  0.934E-01
 -20.576  0.954E-01  0.954E-01
 -20.566  0.974E-01  0.974E-01
 -20.556  0.993E-01  0.993E-01
 -20.546  0.101E+00  0.101E+00
 -20.536  0.103E+00  0.103E+00
 -20.526  0.105E+00  0.105E+00
 -20.516  0.106E+00  0.106E+00
 -20.506  0.108E+00  0.108E+00
 -20.496  0.110E+00  0.110E+00
 -20.486  0.111E+00  0.111E+00
 -20.476  0.112E+00  0.112E+00
 -20.466  0.114E+00  0.114E+00
 -20.456  0.115E+00  0.115E+00
 -20.446  0.116E+00  0.116E+00
 -20.436  0.117E+00  0.117E+00
 -20.426  0.118E+00  0.118E+00
 -20.416  0.119E+00  0.119E+00
 -20.406  0.120E+00  0.120E+00
 -20.396  0.121E+00  0.121E+00
 -20.386  0.122E+00  0.122E+00
 -20.376  0.122E+00  0.122E+00
 -20.366  0.123E+00  0.123E+00
 -20.356  0.123E+00  0.123E+00
 -20.346  0.123E+00  0.123E+00
 -20.336  0.123E+00  0.123E+00
 -20.326  0.123E+00  0.123E+00
 -20.316  0.123E+00  0.123E+00
 -20.306  0.123E+00  0.123E+00
 -20.296  0.123E+00  0.123E+00
 -20.286  0.123E+00  0.123E+00
 -20.276  0.122E+00  0.122E+00
 -20.266  0.122E+00  0.122E+00
 -20.256  0.121E+00  0.121E+00
 -20.246  0.121E+00  0.121E+00
 -20.236  0.120E+00  0.120E+00
 -20.226  0.119E+00  0.119E+00
 -20.216  0.118E+00  0.118E+00
 -20.206  0.117E+00  0.117E+00
 -20.196  0.116E+00  0.116E+00
 -20.186  0.115E+00  0.115E+00
 -20.176  0.113E+00  0.113E+00
 -20.166  0.112E+00  0.112E+00
 -20.156  0.111E+00  0.111E+00
 -20.146  0.109E+00  0.109E+00
 -20.136  0.108E+00  0.108E+00
 -20.126  0.106E+00  0.106E+00
 -20.116  0.105E+00  0.105E+00
 -20.106  0.103E+00  0.103E+00
 -20.096  0.101E+00  0.101E+00
 -20.086  0.995E-01  0.995E-01
 -20.076  0.977E-01  0.977E-01
 -20.066  0.960E-01  0.960E-01
 -20.056  0.941E-01  0.941E-01
 -20.046  0.923E-01  0.923E-01
 -20.036  0.905E-01  0.905E-01
 -20.026  0.887E-01  0.887E-01
 -20.016  0.868E-01  0.868E-01
 -20.006  0.850E-01  0.850E-01
 -19.996  0.832E-01  0.832E-01
 -19.986  0.814E-01  0.814E-01
 -19.976  0.797E-01  0.797E-01
 -19.966  0.780E-01  0.780E-01
 -19.956  0.763E-01  0.763E-01
 -19.946  0.746E-01  0.746E-01
 -19.936  0.731E-01  0.731E-01
 -19.926  0.715E-01  0.715E-01
 -19.916  0.701E-01  0.701E-01
 -19.906  0.687E-01  0.687E-01
 -19.896  0.674E-01  0.674E-01
 -19.886  0.662E-01  0.662E-01
 -19.876  0.650E-01  0.650E-01
 -19.866  0.640E-01  0.640E-01
 -19.856  0.630E-01  0.630E-01
 -19.846  0.622E-01  0.622E-01
 -19.836  0.614E-01  0.614E-01
 -19.826  0.608E-01  0.608E-01
 -19.816  0.603E-01  0.603E-01
 -19.806  0.599E-01  0.599E-01
 -19.796  0.597E-01  0.597E-01
 -19.786  0.595E-01  0.595E-01
 -19.776  0.595E-01  0.595E-01
 -19.766  0.597E-01  0.597E-01
 -19.756  0.600E-01  0.600E-01
 -19.746  0.604E-01  0.604E-01
 -19.736  0.610E-01  0.610E-01
 -19.726  0.617E-01  0.617E-01
 -19.716  0.626E-01  0.626E-01
 -19.706  0.637E-01  0.637E-01
 -19.696  0.649E-01  0.649E-01
 -19.686  0.662E-01  0.662E-01
 -19.676  0.677E-01  0.677E-01
 -19.666  0.694E-01  0.694E-01
 -19.656  0.712E-01  0.712E-01
 -19.646  0.732E-01  0.732E-01
 -19.636  0.753E-01  0.753E-01
 -19.626  0.776E-01  0.776E-01
 -19.616  0.801E-01  0.801E-01
 -19.606  0.827E-01  0.827E-01
 -19.596  0.854E-01  0.854E-01
 -19.586  0.883E-01  0.883E-01
 -19.576  0.914E-01  0.914E-01
 -19.566  0.946E-01  0.946E-01
 -19.556  0.979E-01  0.979E-01
 -19.546  0.101E+00  0.101E+00
 -19.536  0.105E+00  0.105E+00
 -19.526  0.109E+00  0.109E+00
 -19.516  0.113E+00  0.113E+00
 -19.506  0.117E+00  0.117E+00
 -19.496  0.121E+00  0.121E+00
 -19.486  0.125E+00  0.125E+00
 -19.476  0.129E+00  0.129E+00
 -19.466  0.133E+00  0.133E+00
 -19.456  0.138E+00  0.138E+00
 -19.446  0.142E+00  0.142E+00
 -19.436  0.147E+00  0.147E+00
 -19.426  0.152E+00  0.152E+00
 -19.416  0.156E+00  0.156E+00
 -19.406  0.161E+00  0.161E+00
 -19.396  0.166E+00  0.166E+00
 -19.386  0.171E+00  0.171E+00
 -19.376  0.176E+00  0.176E+00
 -19.366  0.181E+00  0.181E+00
 -19.356  0.185E+00  0.185E+00
 -19.346  0.190E+00  0.190E+00
 -19.336  0.195E+00  0.195E+00
 -19.326  0.200E+00  0.200E+00
 -19.316  0.205E+00  0.205E+00
 -19.306  0.210E+00  0.210E+00
 -19.296  0.215E+00  0.215E+00
 -19.286  0.219E+00  0.219E+00
 -19.276  0.224E+00  0.224E+00
 -19.266  0.228E+00  0.228E+00
 -19.256  0.233E+00  0.233E+00
 -19.246  0.237E+00  0.237E+00
 -19.236  0.242E+00  0.242E+00
 -19.226  0.246E+00  0.246E+00
 -19.216  0.250E+00  0.250E+00
 -19.206  0.254E+00  0.254E+00
 -19.196  0.258E+00  0.258E+00
 -19.186  0.261E+00  0.261E+00
 -19.176  0.265E+00  0.265E+00
 -19.166  0.268E+00  0.268E+00
 -19.156  0.271E+00  0.271E+00
 -19.146  0.275E+00  0.275E+00
 -19.136  0.277E+00  0.277E+00
 -19.126  0.280E+00  0.280E+00
 -19.116  0.283E+00  0.283E+00
 -19.106  0.285E+00  0.285E+00
 -19.096  0.287E+00  0.287E+00
 -19.086  0.289E+00  0.289E+00
 -19.076  0.291E+00  0.291E+00
 -19.066  0.293E+00  0.293E+00
 -19.056  0.294E+00  0.294E+00
 -19.046  0.295E+00  0.295E+00
 -19.036  0.296E+00  0.296E+00
 -19.026  0.297E+00  0.297E+00
 -19.016  0.297E+00  0.297E+00
 -19.006  0.297E+00  0.297E+00
 -18.996  0.297E+00  0.297E+00
 -18.986  0.297E+00  0.297E+00
 -18.976  0.297E+00  0.297E+00
 -18.966  0.296E+00  0.296E+00
 -18.956  0.296E+00  0.296E+00
 -18.946  0.295E+00  0.295E+00
 -18.936  0.293E+00  0.293E+00
 -18.926  0.292E+00  0.292E+00
 -18.916  0.290E+00  0.290E+00
 -18.906  0.288E+00  0.288E+00
 -18.896  0.286E+00  0.286E+00
 -18.886  0.284E+00  0.284E+00
 -18.876  0.282E+00  0.282E+00
 -18.866  0.279E+00  0.279E+00
 -18.856  0.276E+00  0.276E+00
 -18.846  0.273E+00  0.273E+00
 -18.836  0.270E+00  0.270E+00
 -18.826  0.267E+00  0.267E+00
 -18.816  0.263E+00  0.263E+00
 -18.806  0.259E+00  0.259E+00
 -18.796  0.256E+00  0.256E+00
 -18.786  0.252E+00  0.252E+00
 -18.776  0.248E+00  0.248E+00
 -18.766  0.243E+00  0.243E+00
 -18.756  0.239E+00  0.239E+00
 -18.746  0.235E+00  0.235E+00
 -18.736  0.230E+00  0.230E+00
 -18.726  0.225E+00  0.225E+00
 -18.716  0.221E+00  0.221E+00
 -18.706  0.216E+00  0.216E+00
 -18.696  0.211E+00  0.211E+00
 -18.686  0.206E+00  0.206E+00
 -18.676  0.201E+00  0.201E+00
 -18.666  0.196E+00  0.196E+00
 -18.656  0.190E+00  0.190E+00
 -18.646  0.185E+00  0.185E+00
 -18.636  0.180E+00  0.180E+00
 -18.626  0.175E+00  0.175E+00
 -18.616  0.169E+00  0.169E+00
 -18.606  0.164E+00  0.164E+00
 -18.596  0.159E+00  0.159E+00
 -18.586  0.153E+00  0.153E+00
 -18.576  0.148E+00  0.148E+00
 -18.566  0.143E+00  0.143E+00
 -18.556  0.138E+00  0.138E+00
 -18.546  0.132E+00  0.132E+00
 -18.536  0.127E+00  0.127E+00
 -18.526  0.122E+00  0.122E+00
 -18.516  0.117E+00  0.117E+00
 -18.506  0.112E+00  0.112E+00
 -18.496  0.107E+00  0.107E+00
 -18.486  0.102E+00  0.102E+00
 -18.476  0.971E-01  0.971E-01
 -18.466  0.923E-01  0.923E-01
 -18.456  0.876E-01  0.876E-01
 -18.446  0.830E-01  0.830E-01
 -18.436  0.784E-01  0.784E-01
 -18.426  0.740E-01  0.740E-01
 -18.416  0.696E-01  0.696E-01
 -18.406  0.653E-01  0.653E-01
 -18.396  0.612E-01  0.612E-01
 -18.386  0.571E-01  0.571E-01
 -18.376  0.531E-01  0.531E-01
 -18.366  0.492E-01  0.492E-01
 -18.356  0.455E-01  0.455E-01
 -18.346  0.418E-01  0.418E-01
 -18.336  0.382E-01  0.382E-01
 -18.326  0.348E-01  0.348E-01
 -18.316  0.315E-01  0.315E-01
 -18.306  0.282E-01  0.282E-01
 -18.296  0.251E-01  0.251E-01
 -18.286  0.221E-01  0.221E-01
 -18.276  0.192E-01  0.192E-01
 -18.266  0.164E-01  0.164E-01
 -18.256  0.137E-01  0.137E-01
 -18.246  0.111E-01  0.111E-01
 -18.236  0.866E-02  0.866E-02
 -18.226  0.629E-02  0.629E-02
 -18.216  0.403E-02  0.403E-02
 -18.206  0.188E-02  0.188E-02
 -18.196 -0.179E-03 -0.179E-03
 -18.186 -0.213E-02 -0.213E-02
 -18.176 -0.399E-02 -0.399E-02
 -18.166 -0.574E-02 -0.574E-02
 -18.156 -0.740E-02 -0.740E-02
 -18.146 -0.897E-02 -0.897E-02
 -18.136 -0.104E-01 -0.104E-01
 -18.126 -0.118E-01 -0.118E-01
 -18.116 -0.131E-01 -0.131E-01
 -18.106 -0.143E-01 -0.143E-01
 -18.096 -0.155E-01 -0.155E-01
 -18.086 -0.165E-01 -0.165E-01
 -18.076 -0.175E-01 -0.175E-01
 -18.066 -0.183E-01 -0.183E-01
 -18.056 -0.192E-01 -0.192E-01
 -18.046 -0.199E-01 -0.199E-01
 -18.036 -0.206E-01 -0.206E-01
 -18.026 -0.211E-01 -0.211E-01
 -18.016 -0.217E-01 -0.217E-01
 -18.006 -0.221E-01 -0.221E-01
 -17.996 -0.225E-01 -0.225E-01
 -17.986 -0.229E-01 -0.229E-01
 -17.976 -0.231E-01 -0.231E-01
 -17.966 -0.233E-01 -0.233E-01
 -17.956 -0.235E-01 -0.235E-01
 -17.946 -0.236E-01 -0.236E-01
 -17.936 -0.236E-01 -0.236E-01
 -17.926 -0.236E-01 -0.236E-01
 -17.916 -0.236E-01 -0.236E-01
 -17.906 -0.235E-01 -0.235E-01
 -17.896 -0.233E-01 -0.233E-01
 -17.886 -0.231E-01 -0.231E-01
 -17.876 -0.229E-01 -0.229E-01
 -17.866 -0.226E-01 -0.226E-01
 -17.856 -0.222E-01 -0.222E-01
 -17.846 -0.219E-01 -0.219E-01
 -17.836 -0.214E-01 -0.214E-01
 -17.826 -0.210E-01 -0.210E-01
 -17.816 -0.205E-01 -0.205E-01
 -17.806 -0.199E-01 -0.199E-01
 -17.796 -0.193E-01 -0.193E-01
 -17.786 -0.187E-01 -0.187E-01
 -17.776 -0.180E-01 -0.180E-01
 -17.766 -0.173E-01 -0.173E-01
 -17.756 -0.166E-01 -0.166E-01
 -17.746 -0.158E-01 -0.158E-01
 -17.736 -0.150E-01 -0.150E-01
 -17.726 -0.141E-01 -0.141E-01
 -17.716 -0.132E-01 -0.132E-01
 -17.706 -0.123E-01 -0.123E-01
 -17.696 -0.113E-01 -0.113E-01
 -17.686 -0.103E-01 -0.103E-01
 -17.676 -0.921E-02 -0.921E-02
 -17.666 -0.812E-02 -0.812E-02
 -17.656 -0.699E-02 -0.699E-02
 -17.646 -0.582E-02 -0.582E-02
 -17.636 -0.461E-02 -0.461E-02
 -17.626 -0.337E-02 -0.337E-02
 -17.616 -0.209E-02 -0.209E-02
 -17.606 -0.768E-03 -0.768E-03
 -17.596  0.591E-03  0.591E-03
 -17.586  0.199E-02  0.199E-02
 -17.576  0.342E-02  0.342E-02
 -17.566  0.489E-02  0.489E-02
 -17.556  0.640E-02  0.640E-02
 -17.546  0.795E-02  0.795E-02
 -17.536  0.953E-02  0.953E-02
 -17.526  0.111E-01  0.111E-01
 -17.516  0.128E-01  0.128E-01
 -17.506  0.145E-01  0.145E-01
 -17.496  0.162E-01  0.162E-01
 -17.486  0.180E-01  0.180E-01
 -17.476  0.198E-01  0.198E-01
 -17.466  0.216E-01  0.216E-01
 -17.456  0.234E-01  0.234E-01
 -17.446  0.253E-01  0.253E-01
 -17.436  0.273E-01  0.273E-01
 -17.426  0.292E-01  0.292E-01
 -17.416  0.312E-01  0.312E-01
 -17.406  0.332E-01  0.332E-01
 -17.396  0.352E-01  0.352E-01
 -17.386  0.373E-01  0.373E-01
 -17.376  0.393E-01  0.393E-01
 -17.366  0.414E-01  0.414E-01
 -17.356  0.435E-01  0.435E-01
 -17.346  0.457E-01  0.457E-01
 -17.336  0.478E-01  0.478E-01
 -17.326  0.500E-01  0.500E-01
 -17.316  0.521E-01  0.521E-01
 -17.306  0.543E-01  0.543E-01
 -17.296  0.565E-01  0.565E-01
 -17.286  0.587E-01  0.587E-01
 -17.276  0.609E-01  0.609E-01
 -17.266  0.631E-01  0.631E-01
 -17.256  0.653E-01  0.653E-01
 -17.246  0.675E-01  0.675E-01
 -17.236  0.697E-01  0.697E-01
 -17.226  0.719E-01  0.719E-01
 -17.216  0.741E-01  0.741E-01
 -17.206  0.762E-01  0.762E-01
 -17.196  0.784E-01  0.784E-01
 -17.186  0.805E-01  0.805E-01
 -17.176  0.826E-01  0.826E-01
 -17.166  0.847E-01  0.847E-01
 -17.156  0.868E-01  0.868E-01
 -17.146  0.888E-01  0.888E-01
 -17.136  0.909E-01  0.909E-01
 -17.126  0.929E-01  0.929E-01
 -17.116  0.948E-01  0.948E-01
 -17.106  0.967E-01  0.967E-01
 -17.096  0.986E-01  0.986E-01
 -17.086  0.100E+00  0.100E+00
 -17.076  0.102E+00  0.102E+00
 -17.066  0.104E+00  0.104E+00
 -17.056  0.106E+00  0.106E+00
 -17.046  0.108E+00  0.108E+00
 -17.036  0.109E+00  0.109E+00
 -17.026  0.111E+00  0.111E+00
 -17.016  0.112E+00  0.112E+00
 -17.006  0.114E+00  0.114E+00
 -16.996  0.115E+00  0.115E+00
 -16.986  0.117E+00  0.117E+00
 -16.976  0.118E+00  0.118E+00
 -16.966  0.119E+00  0.119E+00
 -16.956  0.121E+00  0.121E+00
 -16.946  0.122E+00  0.122E+00
 -16.936  0.123E+00  0.123E+00
 -16.926  0.124E+00  0.124E+00
 -16.916  0.125E+00  0.125E+00
 -16.906  0.126E+00  0.126E+00
 -16.896  0.127E+00  0.127E+00
 -16.886  0.128E+00  0.128E+00
 -16.876  0.129E+00  0.129E+00
 -16.866  0.129E+00  0.129E+00
 -16.856  0.130E+00  0.130E+00
 -16.846  0.131E+00  0.131E+00
 -16.836  0.131E+00  0.131E+00
 -16.826  0.132E+00  0.132E+00
 -16.816  0.132E+00  0.132E+00
 -16.806  0.133E+00  0.133E+00
 -16.796  0.133E+00  0.133E+00
 -16.786  0.133E+00  0.133E+00
 -16.776  0.134E+00  0.134E+00
 -16.766  0.134E+00  0.134E+00
 -16.756  0.134E+00  0.134E+00
 -16.746  0.134E+00  0.134E+00
 -16.736  0.134E+00  0.134E+00
 -16.726  0.135E+00  0.135E+00
 -16.716  0.135E+00  0.135E+00
 -16.706  0.135E+00  0.135E+00
 -16.696  0.135E+00  0.135E+00
 -16.686  0.135E+00  0.135E+00
 -16.676  0.134E+00  0.134E+00
 -16.666  0.134E+00  0.134E+00
 -16.656  0.134E+00  0.134E+00
 -16.646  0.134E+00  0.134E+00
 -16.636  0.134E+00  0.134E+00
 -16.626  0.134E+00  0.134E+00
 -16.616  0.133E+00  0.133E+00
 -16.606  0.133E+00  0.133E+00
 -16.596  0.133E+00  0.133E+00
 -16.586  0.133E+00  0.133E+00
 -16.576  0.132E+00  0.132E+00
 -16.566  0.132E+00  0.132E+00
 -16.556  0.132E+00  0.132E+00
 -16.546  0.131E+00  0.131E+00
 -16.536  0.131E+00  0.131E+00
 -16.526  0.131E+00  0.131E+00
 -16.516  0.130E+00  0.130E+00
 -16.506  0.130E+00  0.130E+00
 -16.496  0.129E+00  0.129E+00
 -16.486  0.129E+00  0.129E+00
 -16.476  0.129E+00  0.129E+00
 -16.466  0.128E+00  0.128E+00
 -16.456  0.128E+00  0.128E+00
 -16.446  0.127E+00  0.127E+00
 -16.436  0.127E+00  0.127E+00
 -16.426  0.126E+00  0.126E+00
 -16.416  0.126E+00  0.126E+00
 -16.406  0.126E+00  0.126E+00
 -16.396  0.125E+00  0.125E+00
 -16.386  0.125E+00  0.125E+00
 -16.376  0.124E+00  0.124E+00
 -16.366  0.124E+00  0.124E+00
 -16.356  0.123E+00  0.123E+00
 -16.346  0.123E+00  0.123E+00
 -16.336  0.122E+00  0.122E+00
 -16.326  0.122E+00  0.122E+00
 -16.316  0.121E+00  0.121E+00
 -16.306  0.121E+00  0.121E+00
 -16.296  0.120E+00  0.120E+00
 -16.286  0.120E+00  0.120E+00
 -16.276  0.119E+00  0.119E+00
 -16.266  0.119E+00  0.119E+00
 -16.256  0.118E+00  0.118E+00
 -16.246  0.117E+00  0.117E+00
 -16.236  0.117E+00  0.117E+00
 -16.226  0.116E+00  0.116E+00
 -16.216  0.116E+00  0.116E+00
 -16.206  0.115E+00  0.115E+00
 -16.196  0.114E+00  0.114E+00
 -16.186  0.113E+00  0.113E+00
 -16.176  0.113E+00  0.113E+00
 -16.166  0.112E+00  0.112E+00
 -16.156  0.111E+00  0.111E+00
 -16.146  0.110E+00  0.110E+00
 -16.136  0.110E+00  0.110E+00
 -16.126  0.109E+00  0.109E+00
 -16.116  0.108E+00  0.108E+00
 -16.106  0.107E+00  0.107E+00
 -16.096  0.106E+00  0.106E+00
 -16.086  0.105E+00  0.105E+00
 -16.076  0.104E+00  0.104E+00
 -16.066  0.103E+00  0.103E+00
 -16.056  0.102E+00  0.102E+00
 -16.046  0.101E+00  0.101E+00
 -16.036  0.997E-01  0.997E-01
 -16.026  0.985E-01  0.985E-01
 -16.016  0.973E-01  0.973E-01
 -16.006  0.961E-01  0.961E-01
 -15.996  0.949E-01  0.949E-01
 -15.986  0.936E-01  0.936E-01
 -15.976  0.923E-01  0.923E-01
 -15.966  0.910E-01  0.910E-01
 -15.956  0.896E-01  0.896E-01
 -15.946  0.882E-01  0.882E-01
 -15.936  0.868E-01  0.868E-01
 -15.926  0.853E-01  0.853E-01
 -15.916  0.839E-01  0.839E-01
 -15.906  0.824E-01  0.824E-01
 -15.896  0.809E-01  0.809E-01
 -15.886  0.793E-01  0.793E-01
 -15.876  0.777E-01  0.777E-01
 -15.866  0.762E-01  0.762E-01
 -15.856  0.746E-01  0.746E-01
 -15.846  0.729E-01  0.729E-01
 -15.836  0.713E-01  0.713E-01
 -15.826  0.697E-01  0.697E-01
 -15.816  0.680E-01  0.680E-01
 -15.806  0.663E-01  0.663E-01
 -15.796  0.646E-01  0.646E-01
 -15.786  0.629E-01  0.629E-01
 -15.776  0.612E-01  0.612E-01
 -15.766  0.595E-01  0.595E-01
 -15.756  0.578E-01  0.578E-01
 -15.746  0.561E-01  0.561E-01
 -15.736  0.544E-01  0.544E-01
 -15.726  0.527E-01  0.527E-01
 -15.716  0.510E-01  0.510E-01
 -15.706  0.493E-01  0.493E-01
 -15.696  0.476E-01  0.476E-01
 -15.686  0.459E-01  0.459E-01
 -15.676  0.443E-01  0.443E-01
 -15.666  0.426E-01  0.426E-01
 -15.656  0.409E-01  0.409E-01
 -15.646  0.393E-01  0.393E-01
 -15.636  0.377E-01  0.377E-01
 -15.626  0.361E-01  0.361E-01
 -15.616  0.345E-01  0.345E-01
 -15.606  0.329E-01  0.329E-01
 -15.596  0.314E-01  0.314E-01
 -15.586  0.299E-01  0.299E-01
 -15.576  0.284E-01  0.284E-01
 -15.566  0.269E-01  0.269E-01
 -15.556  0.255E-01  0.255E-01
 -15.546  0.240E-01  0.240E-01
 -15.536  0.227E-01  0.227E-01
 -15.526  0.213E-01  0.213E-01
 -15.516  0.200E-01  0.200E-01
 -15.506  0.187E-01  0.187E-01
 -15.496  0.174E-01  0.174E-01
 -15.486  0.161E-01  0.161E-01
 -15.476  0.149E-01  0.149E-01
 -15.466  0.138E-01  0.138E-01
 -15.456  0.126E-01  0.126E-01
 -15.446  0.115E-01  0.115E-01
 -15.436  0.104E-01  0.104E-01
 -15.426  0.938E-02  0.938E-02
 -15.416  0.836E-02  0.836E-02
 -15.406  0.739E-02  0.739E-02
 -15.396  0.644E-02  0.644E-02
 -15.386  0.553E-02  0.553E-02
 -15.376  0.465E-02  0.465E-02
 -15.366  0.381E-02  0.381E-02
 -15.356  0.299E-02  0.299E-02
 -15.346  0.221E-02  0.221E-02
 -15.336  0.146E-02  0.146E-02
 -15.326  0.747E-03  0.747E-03
 -15.316  0.608E-04  0.608E-04
 -15.306 -0.595E-03 -0.595E-03
 -15.296 -0.122E-02 -0.122E-02
 -15.286 -0.182E-02 -0.182E-02
 -15.276 -0.238E-02 -0.238E-02
 -15.266 -0.292E-02 -0.292E-02
 -15.256 -0.343E-02 -0.343E-02
 -15.246 -0.392E-02 -0.392E-02
 -15.236 -0.438E-02 -0.438E-02
 -15.226 -0.481E-02 -0.481E-02
 -15.216 -0.522E-02 -0.522E-02
 -15.206 -0.560E-02 -0.560E-02
 -15.196 -0.596E-02 -0.596E-02
 -15.186 -0.630E-02 -0.630E-02
 -15.176 -0.661E-02 -0.661E-02
 -15.166 -0.691E-02 -0.691E-02
 -15.156 -0.719E-02 -0.719E-02
 -15.146 -0.744E-02 -0.744E-02
 -15.136 -0.768E-02 -0.768E-02
 -15.126 -0.790E-02 -0.790E-02
 -15.116 -0.810E-02 -0.810E-02
 -15.106 -0.829E-02 -0.829E-02
 -15.096 -0.846E-02 -0.846E-02
 -15.086 -0.861E-02 -0.861E-02
 -15.076 -0.875E-02 -0.875E-02
 -15.066 -0.888E-02 -0.888E-02
 -15.056 -0.900E-02 -0.900E-02
 -15.046 -0.910E-02 -0.910E-02
 -15.036 -0.919E-02 -0.919E-02
 -15.026 -0.926E-02 -0.926E-02
 -15.016 -0.933E-02 -0.933E-02
 -15.006 -0.939E-02 -0.939E-02
 -14.996 -0.944E-02 -0.944E-02
 -14.986 -0.947E-02 -0.947E-02
 -14.976 -0.950E-02 -0.950E-02
 -14.966 -0.952E-02 -0.952E-02
 -14.956 -0.953E-02 -0.953E-02
 -14.946 -0.953E-02 -0.953E-02
 -14.936 -0.953E-02 -0.953E-02
 -14.926 -0.951E-02 -0.951E-02
 -14.916 -0.949E-02 -0.949E-02
 -14.906 -0.946E-02 -0.946E-02
 -14.896 -0.942E-02 -0.942E-02
 -14.886 -0.938E-02 -0.938E-02
 -14.876 -0.933E-02 -0.933E-02
 -14.866 -0.927E-02 -0.927E-02
 -14.856 -0.920E-02 -0.920E-02
 -14.846 -0.912E-02 -0.912E-02
 -14.836 -0.904E-02 -0.904E-02
 -14.826 -0.894E-02 -0.894E-02
 -14.816 -0.884E-02 -0.884E-02
 -14.806 -0.873E-02 -0.873E-02
 -14.796 -0.861E-02 -0.861E-02
 -14.786 -0.848E-02 -0.848E-02
 -14.776 -0.834E-02 -0.834E-02
 -14.766 -0.819E-02 -0.819E-02
 -14.756 -0.803E-02 -0.803E-02
 -14.746 -0.786E-02 -0.786E-02
 -14.736 -0.768E-02 -0.768E-02
 -14.726 -0.748E-02 -0.748E-02
 -14.716 -0.727E-02 -0.727E-02
 -14.706 -0.705E-02 -0.705E-02
 -14.696 -0.682E-02 -0.682E-02
 -14.686 -0.657E-02 -0.657E-02
 -14.676 -0.630E-02 -0.630E-02
 -14.666 -0.602E-02 -0.602E-02
 -14.656 -0.572E-02 -0.572E-02
 -14.646 -0.541E-02 -0.541E-02
 -14.636 -0.508E-02 -0.508E-02
 -14.626 -0.472E-02 -0.472E-02
 -14.616 -0.436E-02 -0.436E-02
 -14.606 -0.397E-02 -0.397E-02
 -14.596 -0.356E-02 -0.356E-02
 -14.586 -0.313E-02 -0.313E-02
 -14.576 -0.267E-02 -0.267E-02
 -14.566 -0.220E-02 -0.220E-02
 -14.556 -0.170E-02 -0.170E-02
 -14.546 -0.118E-02 -0.118E-02
 -14.536 -0.640E-03 -0.640E-03
 -14.526 -0.716E-04 -0.716E-04
 -14.516  0.522E-03  0.522E-03
 -14.506  0.114E-02  0.114E-02
 -14.496  0.179E-02  0.179E-02
 -14.486  0.246E-02  0.246E-02
 -14.476  0.316E-02  0.316E-02
 -14.466  0.388E-02  0.388E-02
 -14.456  0.464E-02  0.464E-02
 -14.446  0.542E-02  0.542E-02
 -14.436  0.623E-02  0.623E-02
 -14.426  0.707E-02  0.707E-02
 -14.416  0.793E-02  0.793E-02
 -14.406  0.883E-02  0.883E-02
 -14.396  0.976E-02  0.976E-02
 -14.386  0.107E-01  0.107E-01
 -14.376  0.117E-01  0.117E-01
 -14.366  0.127E-01  0.127E-01
 -14.356  0.138E-01  0.138E-01
 -14.346  0.148E-01  0.148E-01
 -14.336  0.159E-01  0.159E-01
 -14.326  0.171E-01  0.171E-01
 -14.316  0.182E-01  0.182E-01
 -14.306  0.194E-01  0.194E-01
 -14.296  0.206E-01  0.206E-01
 -14.286  0.218E-01  0.218E-01
 -14.276  0.231E-01  0.231E-01
 -14.266  0.244E-01  0.244E-01
 -14.256  0.257E-01  0.257E-01
 -14.246  0.271E-01  0.271E-01
 -14.236  0.284E-01  0.284E-01
 -14.226  0.298E-01  0.298E-01
 -14.216  0.312E-01  0.312E-01
 -14.206  0.327E-01  0.327E-01
 -14.196  0.341E-01  0.341E-01
 -14.186  0.356E-01  0.356E-01
 -14.176  0.371E-01  0.371E-01
 -14.166  0.386E-01  0.386E-01
 -14.156  0.401E-01  0.401E-01
 -14.146  0.417E-01  0.417E-01
 -14.136  0.432E-01  0.432E-01
 -14.126  0.448E-01  0.448E-01
 -14.116  0.464E-01  0.464E-01
 -14.106  0.480E-01  0.480E-01
 -14.096  0.496E-01  0.496E-01
 -14.086  0.512E-01  0.512E-01
 -14.076  0.528E-01  0.528E-01
 -14.066  0.544E-01  0.544E-01
 -14.056  0.560E-01  0.560E-01
 -14.046  0.577E-01  0.577E-01
 -14.036  0.593E-01  0.593E-01
 -14.026  0.609E-01  0.609E-01
 -14.016  0.625E-01  0.625E-01
 -14.006  0.642E-01  0.642E-01
 -13.996  0.658E-01  0.658E-01
 -13.986  0.674E-01  0.674E-01
 -13.976  0.690E-01  0.690E-01
 -13.966  0.706E-01  0.706E-01
 -13.956  0.721E-01  0.721E-01
 -13.946  0.737E-01  0.737E-01
 -13.936  0.752E-01  0.752E-01
 -13.926  0.767E-01  0.767E-01
 -13.916  0.783E-01  0.783E-01
 -13.906  0.797E-01  0.797E-01
 -13.896  0.812E-01  0.812E-01
 -13.886  0.827E-01  0.827E-01
 -13.876  0.841E-01  0.841E-01
 -13.866  0.855E-01  0.855E-01
 -13.856  0.868E-01  0.868E-01
 -13.846  0.882E-01  0.882E-01
 -13.836  0.895E-01  0.895E-01
 -13.826  0.908E-01  0.908E-01
 -13.816  0.920E-01  0.920E-01
 -13.806  0.932E-01  0.932E-01
 -13.796  0.944E-01  0.944E-01
 -13.786  0.956E-01  0.956E-01
 -13.776  0.967E-01  0.967E-01
 -13.766  0.977E-01  0.977E-01
 -13.756  0.988E-01  0.988E-01
 -13.746  0.998E-01  0.998E-01
 -13.736  0.101E+00  0.101E+00
 -13.726  0.102E+00  0.102E+00
 -13.716  0.103E+00  0.103E+00
 -13.706  0.103E+00  0.103E+00
 -13.696  0.104E+00  0.104E+00
 -13.686  0.105E+00  0.105E+00
 -13.676  0.106E+00  0.106E+00
 -13.666  0.106E+00  0.106E+00
 -13.656  0.107E+00  0.107E+00
 -13.646  0.107E+00  0.107E+00
 -13.636  0.108E+00  0.108E+00
 -13.626  0.108E+00  0.108E+00
 -13.616  0.109E+00  0.109E+00
 -13.606  0.109E+00  0.109E+00
 -13.596  0.110E+00  0.110E+00
 -13.586  0.110E+00  0.110E+00
 -13.576  0.110E+00  0.110E+00
 -13.566  0.110E+00  0.110E+00
 -13.556  0.111E+00  0.111E+00
 -13.546  0.111E+00  0.111E+00
 -13.536  0.111E+00  0.111E+00
 -13.526  0.111E+00  0.111E+00
 -13.516  0.111E+00  0.111E+00
 -13.506  0.111E+00  0.111E+00
 -13.496  0.111E+00  0.111E+00
 -13.486  0.110E+00  0.110E+00
 -13.476  0.110E+00  0.110E+00
 -13.466  0.110E+00  0.110E+00
 -13.456  0.110E+00  0.110E+00
 -13.446  0.110E+00  0.110E+00
 -13.436  0.109E+00  0.109E+00
 -13.426  0.109E+00  0.109E+00
 -13.416  0.108E+00  0.108E+00
 -13.406  0.108E+00  0.108E+00
 -13.396  0.107E+00  0.107E+00
 -13.386  0.107E+00  0.107E+00
 -13.376  0.106E+00  0.106E+00
 -13.366  0.106E+00  0.106E+00
 -13.356  0.105E+00  0.105E+00
 -13.346  0.104E+00  0.104E+00
 -13.336  0.104E+00  0.104E+00
 -13.326  0.103E+00  0.103E+00
 -13.316  0.102E+00  0.102E+00
 -13.306  0.101E+00  0.101E+00
 -13.296  0.101E+00  0.101E+00
 -13.286  0.998E-01  0.998E-01
 -13.276  0.989E-01  0.989E-01
 -13.266  0.980E-01  0.980E-01
 -13.256  0.971E-01  0.971E-01
 -13.246  0.962E-01  0.962E-01
 -13.236  0.952E-01  0.952E-01
 -13.226  0.942E-01  0.942E-01
 -13.216  0.932E-01  0.932E-01
 -13.206  0.922E-01  0.922E-01
 -13.196  0.912E-01  0.912E-01
 -13.186  0.901E-01  0.901E-01
 -13.176  0.890E-01  0.890E-01
 -13.166  0.879E-01  0.879E-01
 -13.156  0.868E-01  0.868E-01
 -13.146  0.857E-01  0.857E-01
 -13.136  0.845E-01  0.845E-01
 -13.126  0.834E-01  0.834E-01
 -13.116  0.822E-01  0.822E-01
 -13.106  0.810E-01  0.810E-01
 -13.096  0.798E-01  0.798E-01
 -13.086  0.786E-01  0.786E-01
 -13.076  0.774E-01  0.774E-01
 -13.066  0.762E-01  0.762E-01
 -13.056  0.749E-01  0.749E-01
 -13.046  0.737E-01  0.737E-01
 -13.036  0.725E-01  0.725E-01
 -13.026  0.712E-01  0.712E-01
 -13.016  0.699E-01  0.699E-01
 -13.006  0.687E-01  0.687E-01
 -12.996  0.674E-01  0.674E-01
 -12.986  0.662E-01  0.662E-01
 -12.976  0.649E-01  0.649E-01
 -12.966  0.636E-01  0.636E-01
 -12.956  0.623E-01  0.623E-01
 -12.946  0.611E-01  0.611E-01
 -12.936  0.598E-01  0.598E-01
 -12.926  0.585E-01  0.585E-01
 -12.916  0.573E-01  0.573E-01
 -12.906  0.560E-01  0.560E-01
 -12.896  0.547E-01  0.547E-01
 -12.886  0.535E-01  0.535E-01
 -12.876  0.522E-01  0.522E-01
 -12.866  0.510E-01  0.510E-01
 -12.856  0.497E-01  0.497E-01
 -12.846  0.485E-01  0.485E-01
 -12.836  0.472E-01  0.472E-01
 -12.826  0.460E-01  0.460E-01
 -12.816  0.448E-01  0.448E-01
 -12.806  0.436E-01  0.436E-01
 -12.796  0.423E-01  0.423E-01
 -12.786  0.411E-01  0.411E-01
 -12.776  0.400E-01  0.400E-01
 -12.766  0.388E-01  0.388E-01
 -12.756  0.376E-01  0.376E-01
 -12.746  0.364E-01  0.364E-01
 -12.736  0.353E-01  0.353E-01
 -12.726  0.341E-01  0.341E-01
 -12.716  0.330E-01  0.330E-01
 -12.706  0.319E-01  0.319E-01
 -12.696  0.308E-01  0.308E-01
 -12.686  0.297E-01  0.297E-01
 -12.676  0.286E-01  0.286E-01
 -12.666  0.276E-01  0.276E-01
 -12.656  0.265E-01  0.265E-01
 -12.646  0.255E-01  0.255E-01
 -12.636  0.245E-01  0.245E-01
 -12.626  0.235E-01  0.235E-01
 -12.616  0.225E-01  0.225E-01
 -12.606  0.215E-01  0.215E-01
 -12.596  0.206E-01  0.206E-01
 -12.586  0.196E-01  0.196E-01
 -12.576  0.187E-01  0.187E-01
 -12.566  0.178E-01  0.178E-01
 -12.556  0.169E-01  0.169E-01
 -12.546  0.160E-01  0.160E-01
 -12.536  0.152E-01  0.152E-01
 -12.526  0.144E-01  0.144E-01
 -12.516  0.135E-01  0.135E-01
 -12.506  0.127E-01  0.127E-01
 -12.496  0.120E-01  0.120E-01
 -12.486  0.112E-01  0.112E-01
 -12.476  0.105E-01  0.105E-01
 -12.466  0.973E-02  0.973E-02
 -12.456  0.903E-02  0.903E-02
 -12.446  0.834E-02  0.834E-02
 -12.436  0.767E-02  0.767E-02
 -12.426  0.703E-02  0.703E-02
 -12.416  0.640E-02  0.640E-02
 -12.406  0.579E-02  0.579E-02
 -12.396  0.520E-02  0.520E-02
 -12.386  0.463E-02  0.463E-02
 -12.376  0.408E-02  0.408E-02
 -12.366  0.354E-02  0.354E-02
 -12.356  0.303E-02  0.303E-02
 -12.346  0.254E-02  0.254E-02
 -12.336  0.207E-02  0.207E-02
 -12.326  0.161E-02  0.161E-02
 -12.316  0.118E-02  0.118E-02
 -12.306  0.760E-03  0.760E-03
 -12.296  0.363E-03  0.363E-03
 -12.286 -0.155E-04 -0.155E-04
 -12.276 -0.375E-03 -0.375E-03
 -12.266 -0.715E-03 -0.715E-03
 -12.256 -0.104E-02 -0.104E-02
 -12.246 -0.134E-02 -0.134E-02
 -12.236 -0.162E-02 -0.162E-02
 -12.226 -0.189E-02 -0.189E-02
 -12.216 -0.214E-02 -0.214E-02
 -12.206 -0.237E-02 -0.237E-02
 -12.196 -0.258E-02 -0.258E-02
 -12.186 -0.277E-02 -0.277E-02
 -12.176 -0.295E-02 -0.295E-02
 -12.166 -0.310E-02 -0.310E-02
 -12.156 -0.324E-02 -0.324E-02
 -12.146 -0.337E-02 -0.337E-02
 -12.136 -0.347E-02 -0.347E-02
 -12.126 -0.356E-02 -0.356E-02
 -12.116 -0.363E-02 -0.363E-02
 -12.106 -0.369E-02 -0.369E-02
 -12.096 -0.373E-02 -0.373E-02
 -12.086 -0.375E-02 -0.375E-02
 -12.076 -0.375E-02 -0.375E-02
 -12.066 -0.374E-02 -0.374E-02
 -12.056 -0.371E-02 -0.371E-02
 -12.046 -0.367E-02 -0.367E-02
 -12.036 -0.361E-02 -0.361E-02
 -12.026 -0.353E-02 -0.353E-02
 -12.016 -0.344E-02 -0.344E-02
 -12.006 -0.334E-02 -0.334E-02
 -11.996 -0.321E-02 -0.321E-02
 -11.986 -0.308E-02 -0.308E-02
 -11.976 -0.293E-02 -0.293E-02
 -11.966 -0.276E-02 -0.276E-02
 -11.956 -0.258E-02 -0.258E-02
 -11.946 -0.238E-02 -0.238E-02
 -11.936 -0.218E-02 -0.218E-02
 -11.926 -0.195E-02 -0.195E-02
 -11.916 -0.171E-02 -0.171E-02
 -11.906 -0.146E-02 -0.146E-02
 -11.896 -0.120E-02 -0.120E-02
 -11.886 -0.922E-03 -0.922E-03
 -11.876 -0.631E-03 -0.631E-03
 -11.866 -0.328E-03 -0.328E-03
 -11.856 -0.121E-04 -0.121E-04
 -11.846  0.316E-03  0.316E-03
 -11.836  0.656E-03  0.656E-03
 -11.826  0.101E-02  0.101E-02
 -11.816  0.137E-02  0.137E-02
 -11.806  0.175E-02  0.175E-02
 -11.796  0.213E-02  0.213E-02
 -11.786  0.253E-02  0.253E-02
 -11.776  0.293E-02  0.293E-02
 -11.766  0.335E-02  0.335E-02
 -11.756  0.378E-02  0.378E-02
 -11.746  0.421E-02  0.421E-02
 -11.736  0.466E-02  0.466E-02
 -11.726  0.511E-02  0.511E-02
 -11.716  0.557E-02  0.557E-02
 -11.706  0.604E-02  0.604E-02
 -11.696  0.651E-02  0.651E-02
 -11.686  0.699E-02  0.699E-02
 -11.676  0.748E-02  0.748E-02
 -11.666  0.797E-02  0.797E-02
 -11.656  0.847E-02  0.847E-02
 -11.646  0.897E-02  0.897E-02
 -11.636  0.948E-02  0.948E-02
 -11.626  0.999E-02  0.999E-02
 -11.616  0.105E-01  0.105E-01
 -11.606  0.110E-01  0.110E-01
 -11.596  0.115E-01  0.115E-01
 -11.586  0.121E-01  0.121E-01
 -11.576  0.126E-01  0.126E-01
 -11.566  0.131E-01  0.131E-01
 -11.556  0.136E-01  0.136E-01
 -11.546  0.141E-01  0.141E-01
 -11.536  0.147E-01  0.147E-01
 -11.526  0.152E-01  0.152E-01
 -11.516  0.157E-01  0.157E-01
 -11.506  0.162E-01  0.162E-01
 -11.496  0.167E-01  0.167E-01
 -11.486  0.172E-01  0.172E-01
 -11.476  0.177E-01  0.177E-01
 -11.466  0.182E-01  0.182E-01
 -11.456  0.186E-01  0.186E-01
 -11.446  0.191E-01  0.191E-01
 -11.436  0.196E-01  0.196E-01
 -11.426  0.200E-01  0.200E-01
 -11.416  0.205E-01  0.205E-01
 -11.406  0.209E-01  0.209E-01
 -11.396  0.213E-01  0.213E-01
 -11.386  0.217E-01  0.217E-01
 -11.376  0.221E-01  0.221E-01
 -11.366  0.225E-01  0.225E-01
 -11.356  0.229E-01  0.229E-01
 -11.346  0.232E-01  0.232E-01
 -11.336  0.236E-01  0.236E-01
 -11.326  0.239E-01  0.239E-01
 -11.316  0.242E-01  0.242E-01
 -11.306  0.245E-01  0.245E-01
 -11.296  0.248E-01  0.248E-01
 -11.286  0.250E-01  0.250E-01
 -11.276  0.253E-01  0.253E-01
 -11.266  0.255E-01  0.255E-01
 -11.256  0.257E-01  0.257E-01
 -11.246  0.259E-01  0.259E-01
 -11.236  0.261E-01  0.261E-01
 -11.226  0.262E-01  0.262E-01
 -11.216  0.263E-01  0.263E-01
 -11.206  0.265E-01  0.265E-01
 -11.196  0.266E-01  0.266E-01
 -11.186  0.266E-01  0.266E-01
 -11.176  0.267E-01  0.267E-01
 -11.166  0.267E-01  0.267E-01
 -11.156  0.267E-01  0.267E-01
 -11.146  0.267E-01  0.267E-01
 -11.136  0.267E-01  0.267E-01
 -11.126  0.267E-01  0.267E-01
 -11.116  0.266E-01  0.266E-01
 -11.106  0.265E-01  0.265E-01
 -11.096  0.264E-01  0.264E-01
 -11.086  0.263E-01  0.263E-01
 -11.076  0.262E-01  0.262E-01
 -11.066  0.260E-01  0.260E-01
 -11.056  0.258E-01  0.258E-01
 -11.046  0.256E-01  0.256E-01
 -11.036  0.254E-01  0.254E-01
 -11.026  0.252E-01  0.252E-01
 -11.016  0.250E-01  0.250E-01
 -11.006  0.247E-01  0.247E-01
 -10.996  0.244E-01  0.244E-01
 -10.986  0.241E-01  0.241E-01
 -10.976  0.238E-01  0.238E-01
 -10.966  0.235E-01  0.235E-01
 -10.956  0.232E-01  0.232E-01
 -10.946  0.228E-01  0.228E-01
 -10.936  0.225E-01  0.225E-01
 -10.926  0.221E-01  0.221E-01
 -10.916  0.217E-01  0.217E-01
 -10.906  0.213E-01  0.213E-01
 -10.896  0.209E-01  0.209E-01
 -10.886  0.205E-01  0.205E-01
 -10.876  0.200E-01  0.200E-01
 -10.866  0.196E-01  0.196E-01
 -10.856  0.192E-01  0.192E-01
 -10.846  0.187E-01  0.187E-01
 -10.836  0.183E-01  0.183E-01
 -10.826  0.178E-01  0.178E-01
 -10.816  0.173E-01  0.173E-01
 -10.806  0.169E-01  0.169E-01
 -10.796  0.164E-01  0.164E-01
 -10.786  0.159E-01  0.159E-01
 -10.776  0.154E-01  0.154E-01
 -10.766  0.149E-01  0.149E-01
 -10.756  0.144E-01  0.144E-01
 -10.746  0.139E-01  0.139E-01
 -10.736  0.134E-01  0.134E-01
 -10.726  0.129E-01  0.129E-01
 -10.716  0.125E-01  0.125E-01
 -10.706  0.120E-01  0.120E-01
 -10.696  0.115E-01  0.115E-01
 -10.686  0.110E-01  0.110E-01
 -10.676  0.105E-01  0.105E-01
 -10.666  0.100E-01  0.100E-01
 -10.656  0.954E-02  0.954E-02
 -10.646  0.907E-02  0.907E-02
 -10.636  0.860E-02  0.860E-02
 -10.626  0.813E-02  0.813E-02
 -10.616  0.767E-02  0.767E-02
 -10.606  0.722E-02  0.722E-02
 -10.596  0.677E-02  0.677E-02
 -10.586  0.633E-02  0.633E-02
 -10.576  0.589E-02  0.589E-02
 -10.566  0.547E-02  0.547E-02
 -10.556  0.505E-02  0.505E-02
 -10.546  0.464E-02  0.464E-02
 -10.536  0.423E-02  0.423E-02
 -10.526  0.384E-02  0.384E-02
 -10.516  0.345E-02  0.345E-02
 -10.506  0.308E-02  0.308E-02
 -10.496  0.271E-02  0.271E-02
 -10.486  0.235E-02  0.235E-02
 -10.476  0.201E-02  0.201E-02
 -10.466  0.167E-02  0.167E-02
 -10.456  0.135E-02  0.135E-02
 -10.446  0.103E-02  0.103E-02
 -10.436  0.728E-03  0.728E-03
 -10.426  0.437E-03  0.437E-03
 -10.416  0.157E-03  0.157E-03
 -10.406 -0.110E-03 -0.110E-03
 -10.396 -0.365E-03 -0.365E-03
 -10.386 -0.608E-03 -0.608E-03
 -10.376 -0.837E-03 -0.837E-03
 -10.366 -0.105E-02 -0.105E-02
 -10.356 -0.126E-02 -0.126E-02
 -10.346 -0.145E-02 -0.145E-02
 -10.336 -0.162E-02 -0.162E-02
 -10.326 -0.178E-02 -0.178E-02
 -10.316 -0.193E-02 -0.193E-02
 -10.306 -0.206E-02 -0.206E-02
 -10.296 -0.218E-02 -0.218E-02
 -10.286 -0.228E-02 -0.228E-02
 -10.276 -0.236E-02 -0.236E-02
 -10.266 -0.243E-02 -0.243E-02
 -10.256 -0.249E-02 -0.249E-02
 -10.246 -0.252E-02 -0.252E-02
 -10.236 -0.254E-02 -0.254E-02
 -10.226 -0.254E-02 -0.254E-02
 -10.216 -0.253E-02 -0.253E-02
 -10.206 -0.250E-02 -0.250E-02
 -10.196 -0.245E-02 -0.245E-02
 -10.186 -0.238E-02 -0.238E-02
 -10.176 -0.229E-02 -0.229E-02
 -10.166 -0.218E-02 -0.218E-02
 -10.156 -0.205E-02 -0.205E-02
 -10.146 -0.191E-02 -0.191E-02
 -10.136 -0.174E-02 -0.174E-02
 -10.126 -0.156E-02 -0.156E-02
 -10.116 -0.135E-02 -0.135E-02
 -10.106 -0.112E-02 -0.112E-02
 -10.096 -0.872E-03 -0.872E-03
 -10.086 -0.602E-03 -0.602E-03
 -10.076 -0.310E-03 -0.310E-03
 -10.066  0.370E-05  0.370E-05
 -10.056  0.339E-03  0.339E-03
 -10.046  0.697E-03  0.697E-03
 -10.036  0.108E-02  0.108E-02
 -10.026  0.148E-02  0.148E-02
 -10.016  0.191E-02  0.191E-02
 -10.006  0.235E-02  0.235E-02
  -9.996  0.282E-02  0.282E-02
  -9.986  0.332E-02  0.332E-02
  -9.976  0.383E-02  0.383E-02
  -9.966  0.437E-02  0.437E-02
  -9.956  0.494E-02  0.494E-02
  -9.946  0.552E-02  0.552E-02
  -9.936  0.613E-02  0.613E-02
  -9.926  0.676E-02  0.676E-02
  -9.916  0.741E-02  0.741E-02
  -9.906  0.808E-02  0.808E-02
  -9.896  0.878E-02  0.878E-02
  -9.886  0.950E-02  0.950E-02
  -9.876  0.102E-01  0.102E-01
  -9.866  0.110E-01  0.110E-01
  -9.856  0.118E-01  0.118E-01
  -9.846  0.126E-01  0.126E-01
  -9.836  0.134E-01  0.134E-01
  -9.826  0.142E-01  0.142E-01
  -9.816  0.151E-01  0.151E-01
  -9.806  0.160E-01  0.160E-01
  -9.796  0.169E-01  0.169E-01
  -9.786  0.178E-01  0.178E-01
  -9.776  0.187E-01  0.187E-01
  -9.766  0.196E-01  0.196E-01
  -9.756  0.206E-01  0.206E-01
  -9.746  0.215E-01  0.215E-01
  -9.736  0.225E-01  0.225E-01
  -9.726  0.235E-01  0.235E-01
  -9.716  0.245E-01  0.245E-01
  -9.706  0.255E-01  0.255E-01
  -9.696  0.265E-01  0.265E-01
  -9.686  0.275E-01  0.275E-01
  -9.676  0.285E-01  0.285E-01
  -9.666  0.295E-01  0.295E-01
  -9.656  0.306E-01  0.306E-01
  -9.646  0.316E-01  0.316E-01
  -9.636  0.326E-01  0.326E-01
  -9.626  0.336E-01  0.336E-01
  -9.616  0.347E-01  0.347E-01
  -9.606  0.357E-01  0.357E-01
  -9.596  0.367E-01  0.367E-01
  -9.586  0.377E-01  0.377E-01
  -9.576  0.387E-01  0.387E-01
  -9.566  0.397E-01  0.397E-01
  -9.556  0.407E-01  0.407E-01
  -9.546  0.416E-01  0.416E-01
  -9.536  0.426E-01  0.426E-01
  -9.526  0.435E-01  0.435E-01
  -9.516  0.444E-01  0.444E-01
  -9.506  0.453E-01  0.453E-01
  -9.496  0.462E-01  0.462E-01
  -9.486  0.471E-01  0.471E-01
  -9.476  0.479E-01  0.479E-01
  -9.466  0.487E-01  0.487E-01
  -9.456  0.495E-01  0.495E-01
  -9.446  0.503E-01  0.503E-01
  -9.436  0.510E-01  0.510E-01
  -9.426  0.517E-01  0.517E-01
  -9.416  0.524E-01  0.524E-01
  -9.406  0.531E-01  0.531E-01
  -9.396  0.537E-01  0.537E-01
  -9.386  0.543E-01  0.543E-01
  -9.376  0.549E-01  0.549E-01
  -9.366  0.554E-01  0.554E-01
  -9.356  0.559E-01  0.559E-01
  -9.346  0.564E-01  0.564E-01
  -9.336  0.568E-01  0.568E-01
  -9.326  0.572E-01  0.572E-01
  -9.316  0.576E-01  0.576E-01
  -9.306  0.579E-01  0.579E-01
  -9.296  0.582E-01  0.582E-01
  -9.286  0.585E-01  0.585E-01
  -9.276  0.587E-01  0.587E-01
  -9.266  0.589E-01  0.589E-01
  -9.256  0.590E-01  0.590E-01
  -9.246  0.592E-01  0.592E-01
  -9.236  0.592E-01  0.592E-01
  -9.226  0.593E-01  0.593E-01
  -9.216  0.593E-01  0.593E-01
  -9.206  0.593E-01  0.593E-01
  -9.196  0.593E-01  0.593E-01
  -9.186  0.592E-01  0.592E-01
  -9.176  0.591E-01  0.591E-01
  -9.166  0.589E-01  0.589E-01
  -9.156  0.588E-01  0.588E-01
  -9.146  0.586E-01  0.586E-01
  -9.136  0.584E-01  0.584E-01
  -9.126  0.581E-01  0.581E-01
  -9.116  0.578E-01  0.578E-01
  -9.106  0.575E-01  0.575E-01
  -9.096  0.572E-01  0.572E-01
  -9.086  0.569E-01  0.569E-01
  -9.076  0.565E-01  0.565E-01
  -9.066  0.561E-01  0.561E-01
  -9.056  0.558E-01  0.558E-01
  -9.046  0.553E-01  0.553E-01
  -9.036  0.549E-01  0.549E-01
  -9.026  0.545E-01  0.545E-01
  -9.016  0.540E-01  0.540E-01
  -9.006  0.536E-01  0.536E-01
  -8.996  0.531E-01  0.531E-01
  -8.986  0.526E-01  0.526E-01
  -8.976  0.521E-01  0.521E-01
  -8.966  0.517E-01  0.517E-01
  -8.956  0.512E-01  0.512E-01
  -8.946  0.507E-01  0.507E-01
  -8.936  0.502E-01  0.502E-01
  -8.926  0.497E-01  0.497E-01
  -8.916  0.492E-01  0.492E-01
  -8.906  0.487E-01  0.487E-01
  -8.896  0.483E-01  0.483E-01
  -8.886  0.478E-01  0.478E-01
  -8.876  0.473E-01  0.473E-01
  -8.866  0.469E-01  0.469E-01
  -8.856  0.465E-01  0.465E-01
  -8.846  0.460E-01  0.460E-01
  -8.836  0.456E-01  0.456E-01
  -8.826  0.452E-01  0.452E-01
  -8.816  0.448E-01  0.448E-01
  -8.806  0.445E-01  0.445E-01
  -8.796  0.441E-01  0.441E-01
  -8.786  0.438E-01  0.438E-01
  -8.776  0.434E-01  0.434E-01
  -8.766  0.431E-01  0.431E-01
  -8.756  0.429E-01  0.429E-01
  -8.746  0.426E-01  0.426E-01
  -8.736  0.423E-01  0.423E-01
  -8.726  0.421E-01  0.421E-01
  -8.716  0.419E-01  0.419E-01
  -8.706  0.417E-01  0.417E-01
  -8.696  0.415E-01  0.415E-01
  -8.686  0.414E-01  0.414E-01
  -8.676  0.413E-01  0.413E-01
  -8.666  0.411E-01  0.411E-01
  -8.656  0.410E-01  0.410E-01
  -8.646  0.410E-01  0.410E-01
  -8.636  0.409E-01  0.409E-01
  -8.626  0.409E-01  0.409E-01
  -8.616  0.408E-01  0.408E-01
  -8.606  0.408E-01  0.408E-01
  -8.596  0.408E-01  0.408E-01
  -8.586  0.408E-01  0.408E-01
  -8.576  0.409E-01  0.409E-01
  -8.566  0.409E-01  0.409E-01
  -8.556  0.410E-01  0.410E-01
  -8.546  0.410E-01  0.410E-01
  -8.536  0.411E-01  0.411E-01
  -8.526  0.412E-01  0.412E-01
  -8.516  0.413E-01  0.413E-01
  -8.506  0.414E-01  0.414E-01
  -8.496  0.415E-01  0.415E-01
  -8.486  0.416E-01  0.416E-01
  -8.476  0.417E-01  0.417E-01
  -8.466  0.418E-01  0.418E-01
  -8.456  0.419E-01  0.419E-01
  -8.446  0.420E-01  0.420E-01
  -8.436  0.421E-01  0.421E-01
  -8.426  0.422E-01  0.422E-01
  -8.416  0.423E-01  0.423E-01
  -8.406  0.424E-01  0.424E-01
  -8.396  0.425E-01  0.425E-01
  -8.386  0.426E-01  0.426E-01
  -8.376  0.426E-01  0.426E-01
  -8.366  0.427E-01  0.427E-01
  -8.356  0.428E-01  0.428E-01
  -8.346  0.428E-01  0.428E-01
  -8.336  0.428E-01  0.428E-01
  -8.326  0.428E-01  0.428E-01
  -8.316  0.428E-01  0.428E-01
  -8.306  0.428E-01  0.428E-01
  -8.296  0.428E-01  0.428E-01
  -8.286  0.427E-01  0.427E-01
  -8.276  0.426E-01  0.426E-01
  -8.266  0.425E-01  0.425E-01
  -8.256  0.424E-01  0.424E-01
  -8.246  0.423E-01  0.423E-01
  -8.236  0.421E-01  0.421E-01
  -8.226  0.420E-01  0.420E-01
  -8.216  0.418E-01  0.418E-01
  -8.206  0.416E-01  0.416E-01
  -8.196  0.413E-01  0.413E-01
  -8.186  0.411E-01  0.411E-01
  -8.176  0.408E-01  0.408E-01
  -8.166  0.405E-01  0.405E-01
  -8.156  0.401E-01  0.401E-01
  -8.146  0.398E-01  0.398E-01
  -8.136  0.394E-01  0.394E-01
  -8.126  0.390E-01  0.390E-01
  -8.116  0.386E-01  0.386E-01
  -8.106  0.382E-01  0.382E-01
  -8.096  0.377E-01  0.377E-01
  -8.086  0.373E-01  0.373E-01
  -8.076  0.368E-01  0.368E-01
  -8.066  0.362E-01  0.362E-01
  -8.056  0.357E-01  0.357E-01
  -8.046  0.352E-01  0.352E-01
  -8.036  0.346E-01  0.346E-01
  -8.026  0.340E-01  0.340E-01
  -8.016  0.334E-01  0.334E-01
  -8.006  0.328E-01  0.328E-01
  -7.996  0.322E-01  0.322E-01
  -7.986  0.315E-01  0.315E-01
  -7.976  0.309E-01  0.309E-01
  -7.966  0.302E-01  0.302E-01
  -7.956  0.295E-01  0.295E-01
  -7.946  0.288E-01  0.288E-01
  -7.936  0.281E-01  0.281E-01
  -7.926  0.274E-01  0.274E-01
  -7.916  0.267E-01  0.267E-01
  -7.906  0.260E-01  0.260E-01
  -7.896  0.252E-01  0.252E-01
  -7.886  0.245E-01  0.245E-01
  -7.876  0.238E-01  0.238E-01
  -7.866  0.230E-01  0.230E-01
  -7.856  0.223E-01  0.223E-01
  -7.846  0.216E-01  0.216E-01
  -7.836  0.208E-01  0.208E-01
  -7.826  0.201E-01  0.201E-01
  -7.816  0.193E-01  0.193E-01
  -7.806  0.186E-01  0.186E-01
  -7.796  0.179E-01  0.179E-01
  -7.786  0.172E-01  0.172E-01
  -7.776  0.164E-01  0.164E-01
  -7.766  0.157E-01  0.157E-01
  -7.756  0.150E-01  0.150E-01
  -7.746  0.143E-01  0.143E-01
  -7.736  0.137E-01  0.137E-01
  -7.726  0.130E-01  0.130E-01
  -7.716  0.123E-01  0.123E-01
  -7.706  0.117E-01  0.117E-01
  -7.696  0.110E-01  0.110E-01
  -7.686  0.104E-01  0.104E-01
  -7.676  0.979E-02  0.979E-02
  -7.666  0.919E-02  0.919E-02
  -7.656  0.861E-02  0.861E-02
  -7.646  0.804E-02  0.804E-02
  -7.636  0.749E-02  0.749E-02
  -7.626  0.695E-02  0.695E-02
  -7.616  0.643E-02  0.643E-02
  -7.606  0.592E-02  0.592E-02
  -7.596  0.543E-02  0.543E-02
  -7.586  0.496E-02  0.496E-02
  -7.576  0.451E-02  0.451E-02
  -7.566  0.407E-02  0.407E-02
  -7.556  0.365E-02  0.365E-02
  -7.546  0.325E-02  0.325E-02
  -7.536  0.287E-02  0.287E-02
  -7.526  0.251E-02  0.251E-02
  -7.516  0.216E-02  0.216E-02
  -7.506  0.184E-02  0.184E-02
  -7.496  0.153E-02  0.153E-02
  -7.486  0.124E-02  0.124E-02
  -7.476  0.974E-03  0.974E-03
  -7.466  0.724E-03  0.724E-03
  -7.456  0.492E-03  0.492E-03
  -7.446  0.279E-03  0.279E-03
  -7.436  0.841E-04  0.841E-04
  -7.426 -0.920E-04 -0.920E-04
  -7.416 -0.250E-03 -0.250E-03
  -7.406 -0.389E-03 -0.389E-03
  -7.396 -0.511E-03 -0.511E-03
  -7.386 -0.614E-03 -0.614E-03
  -7.376 -0.700E-03 -0.700E-03
  -7.366 -0.768E-03 -0.768E-03
  -7.356 -0.819E-03 -0.819E-03
  -7.346 -0.853E-03 -0.853E-03
  -7.336 -0.870E-03 -0.870E-03
  -7.326 -0.870E-03 -0.870E-03
  -7.316 -0.854E-03 -0.854E-03
  -7.306 -0.822E-03 -0.822E-03
  -7.296 -0.774E-03 -0.774E-03
  -7.286 -0.711E-03 -0.711E-03
  -7.276 -0.632E-03 -0.632E-03
  -7.266 -0.538E-03 -0.538E-03
  -7.256 -0.430E-03 -0.430E-03
  -7.246 -0.308E-03 -0.308E-03
  -7.236 -0.171E-03 -0.171E-03
  -7.226 -0.208E-04 -0.208E-04
  -7.216  0.143E-03  0.143E-03
  -7.206  0.319E-03  0.319E-03
  -7.196  0.508E-03  0.508E-03
  -7.186  0.710E-03  0.710E-03
  -7.176  0.923E-03  0.923E-03
  -7.166  0.115E-02  0.115E-02
  -7.156  0.138E-02  0.138E-02
  -7.146  0.163E-02  0.163E-02
  -7.136  0.189E-02  0.189E-02
  -7.126  0.216E-02  0.216E-02
  -7.116  0.243E-02  0.243E-02
  -7.106  0.272E-02  0.272E-02
  -7.096  0.301E-02  0.301E-02
  -7.086  0.332E-02  0.332E-02
  -7.076  0.363E-02  0.363E-02
  -7.066  0.395E-02  0.395E-02
  -7.056  0.427E-02  0.427E-02
  -7.046  0.460E-02  0.460E-02
  -7.036  0.494E-02  0.494E-02
  -7.026  0.529E-02  0.529E-02
  -7.016  0.564E-02  0.564E-02
  -7.006  0.599E-02  0.599E-02
  -6.996  0.635E-02  0.635E-02
  -6.986  0.671E-02  0.671E-02
  -6.976  0.708E-02  0.708E-02
  -6.966  0.745E-02  0.745E-02
  -6.956  0.782E-02  0.782E-02
  -6.946  0.820E-02  0.820E-02
  -6.936  0.857E-02  0.857E-02
  -6.926  0.895E-02  0.895E-02
  -6.916  0.933E-02  0.933E-02
  -6.906  0.970E-02  0.970E-02
  -6.896  0.101E-01  0.101E-01
  -6.886  0.105E-01  0.105E-01
  -6.876  0.108E-01  0.108E-01
  -6.866  0.112E-01  0.112E-01
  -6.856  0.116E-01  0.116E-01
  -6.846  0.119E-01  0.119E-01
  -6.836  0.123E-01  0.123E-01
  -6.826  0.127E-01  0.127E-01
  -6.816  0.130E-01  0.130E-01
  -6.806  0.134E-01  0.134E-01
  -6.796  0.137E-01  0.137E-01
  -6.786  0.141E-01  0.141E-01
  -6.776  0.144E-01  0.144E-01
  -6.766  0.147E-01  0.147E-01
  -6.756  0.150E-01  0.150E-01
  -6.746  0.153E-01  0.153E-01
  -6.736  0.156E-01  0.156E-01
  -6.726  0.159E-01  0.159E-01
  -6.716  0.162E-01  0.162E-01
  -6.706  0.165E-01  0.165E-01
  -6.696  0.168E-01  0.168E-01
  -6.686  0.170E-01  0.170E-01
  -6.676  0.173E-01  0.173E-01
  -6.666  0.175E-01  0.175E-01
  -6.656  0.177E-01  0.177E-01
  -6.646  0.179E-01  0.179E-01
  -6.636  0.181E-01  0.181E-01
  -6.626  0.183E-01  0.183E-01
  -6.616  0.185E-01  0.185E-01
  -6.606  0.187E-01  0.187E-01
  -6.596  0.188E-01  0.188E-01
  -6.586  0.189E-01  0.189E-01
  -6.576  0.191E-01  0.191E-01
  -6.566  0.192E-01  0.192E-01
  -6.556  0.193E-01  0.193E-01
  -6.546  0.193E-01  0.193E-01
  -6.536  0.194E-01  0.194E-01
  -6.526  0.194E-01  0.194E-01
  -6.516  0.195E-01  0.195E-01
  -6.506  0.195E-01  0.195E-01
  -6.496  0.195E-01  0.195E-01
  -6.486  0.195E-01  0.195E-01
  -6.476  0.195E-01  0.195E-01
  -6.466  0.195E-01  0.195E-01
  -6.456  0.194E-01  0.194E-01
  -6.446  0.193E-01  0.193E-01
  -6.436  0.193E-01  0.193E-01
  -6.426  0.192E-01  0.192E-01
  -6.416  0.191E-01  0.191E-01
  -6.406  0.190E-01  0.190E-01
  -6.396  0.188E-01  0.188E-01
  -6.386  0.187E-01  0.187E-01
  -6.376  0.185E-01  0.185E-01
  -6.366  0.184E-01  0.184E-01
  -6.356  0.182E-01  0.182E-01
  -6.346  0.180E-01  0.180E-01
  -6.336  0.178E-01  0.178E-01
  -6.326  0.176E-01  0.176E-01
  -6.316  0.174E-01  0.174E-01
  -6.306  0.171E-01  0.171E-01
  -6.296  0.169E-01  0.169E-01
  -6.286  0.166E-01  0.166E-01
  -6.276  0.164E-01  0.164E-01
  -6.266  0.161E-01  0.161E-01
  -6.256  0.158E-01  0.158E-01
  -6.246  0.155E-01  0.155E-01
  -6.236  0.153E-01  0.153E-01
  -6.226  0.150E-01  0.150E-01
  -6.216  0.146E-01  0.146E-01
  -6.206  0.143E-01  0.143E-01
  -6.196  0.140E-01  0.140E-01
  -6.186  0.137E-01  0.137E-01
  -6.176  0.134E-01  0.134E-01
  -6.166  0.131E-01  0.131E-01
  -6.156  0.127E-01  0.127E-01
  -6.146  0.124E-01  0.124E-01
  -6.136  0.121E-01  0.121E-01
  -6.126  0.117E-01  0.117E-01
  -6.116  0.114E-01  0.114E-01
  -6.106  0.110E-01  0.110E-01
  -6.096  0.107E-01  0.107E-01
  -6.086  0.104E-01  0.104E-01
  -6.076  0.100E-01  0.100E-01
  -6.066  0.968E-02  0.968E-02
  -6.056  0.934E-02  0.934E-02
  -6.046  0.901E-02  0.901E-02
  -6.036  0.867E-02  0.867E-02
  -6.026  0.834E-02  0.834E-02
  -6.016  0.802E-02  0.802E-02
  -6.006  0.769E-02  0.769E-02
  -5.996  0.737E-02  0.737E-02
  -5.986  0.706E-02  0.706E-02
  -5.976  0.675E-02  0.675E-02
  -5.966  0.644E-02  0.644E-02
  -5.956  0.614E-02  0.614E-02
  -5.946  0.584E-02  0.584E-02
  -5.936  0.555E-02  0.555E-02
  -5.926  0.526E-02  0.526E-02
  -5.916  0.499E-02  0.499E-02
  -5.906  0.471E-02  0.471E-02
  -5.896  0.445E-02  0.445E-02
  -5.886  0.419E-02  0.419E-02
  -5.876  0.393E-02  0.393E-02
  -5.866  0.368E-02  0.368E-02
  -5.856  0.344E-02  0.344E-02
  -5.846  0.321E-02  0.321E-02
  -5.836  0.299E-02  0.299E-02
  -5.826  0.277E-02  0.277E-02
  -5.816  0.256E-02  0.256E-02
  -5.806  0.235E-02  0.235E-02
  -5.796  0.216E-02  0.216E-02
  -5.786  0.197E-02  0.197E-02
  -5.776  0.178E-02  0.178E-02
  -5.766  0.161E-02  0.161E-02
  -5.756  0.144E-02  0.144E-02
  -5.746  0.128E-02  0.128E-02
  -5.736  0.113E-02  0.113E-02
  -5.726  0.986E-03  0.986E-03
  -5.716  0.848E-03  0.848E-03
  -5.706  0.717E-03  0.717E-03
  -5.696  0.593E-03  0.593E-03
  -5.686  0.476E-03  0.476E-03
  -5.676  0.366E-03  0.366E-03
  -5.666  0.263E-03  0.263E-03
  -5.656  0.166E-03  0.166E-03
  -5.646  0.766E-04  0.766E-04
  -5.636 -0.674E-05 -0.674E-05
  -5.626 -0.837E-04 -0.837E-04
  -5.616 -0.154E-03 -0.154E-03
  -5.606 -0.219E-03 -0.219E-03
  -5.596 -0.277E-03 -0.277E-03
  -5.586 -0.330E-03 -0.330E-03
  -5.576 -0.377E-03 -0.377E-03
  -5.566 -0.417E-03 -0.417E-03
  -5.556 -0.453E-03 -0.453E-03
  -5.546 -0.483E-03 -0.483E-03
  -5.536 -0.507E-03 -0.507E-03
  -5.526 -0.526E-03 -0.526E-03
  -5.516 -0.540E-03 -0.540E-03
  -5.506 -0.549E-03 -0.549E-03
  -5.496 -0.553E-03 -0.553E-03
  -5.486 -0.551E-03 -0.551E-03
  -5.476 -0.545E-03 -0.545E-03
  -5.466 -0.535E-03 -0.535E-03
  -5.456 -0.519E-03 -0.519E-03
  -5.446 -0.499E-03 -0.499E-03
  -5.436 -0.475E-03 -0.475E-03
  -5.426 -0.445E-03 -0.445E-03
  -5.416 -0.412E-03 -0.412E-03
  -5.406 -0.374E-03 -0.374E-03
  -5.396 -0.331E-03 -0.331E-03
  -5.386 -0.284E-03 -0.284E-03
  -5.376 -0.233E-03 -0.233E-03
  -5.366 -0.178E-03 -0.178E-03
  -5.356 -0.118E-03 -0.118E-03
  -5.346 -0.538E-04 -0.538E-04
  -5.336  0.146E-04  0.146E-04
  -5.326  0.873E-04  0.873E-04
  -5.316  0.164E-03  0.164E-03
  -5.306  0.246E-03  0.246E-03
  -5.296  0.331E-03  0.331E-03
  -5.286  0.421E-03  0.421E-03
  -5.276  0.516E-03  0.516E-03
  -5.266  0.615E-03  0.615E-03
  -5.256  0.718E-03  0.718E-03
  -5.246  0.826E-03  0.826E-03
  -5.236  0.938E-03  0.938E-03
  -5.226  0.106E-02  0.106E-02
  -5.216  0.118E-02  0.118E-02
  -5.206  0.130E-02  0.130E-02
  -5.196  0.143E-02  0.143E-02
  -5.186  0.157E-02  0.157E-02
  -5.176  0.171E-02  0.171E-02
  -5.166  0.185E-02  0.185E-02
  -5.156  0.200E-02  0.200E-02
  -5.146  0.216E-02  0.216E-02
  -5.136  0.232E-02  0.232E-02
  -5.126  0.248E-02  0.248E-02
  -5.116  0.265E-02  0.265E-02
  -5.106  0.283E-02  0.283E-02
  -5.096  0.300E-02  0.300E-02
  -5.086  0.319E-02  0.319E-02
  -5.076  0.338E-02  0.338E-02
  -5.066  0.357E-02  0.357E-02
  -5.056  0.377E-02  0.377E-02
  -5.046  0.397E-02  0.397E-02
  -5.036  0.418E-02  0.418E-02
  -5.026  0.439E-02  0.439E-02
  -5.016  0.461E-02  0.461E-02
  -5.006  0.483E-02  0.483E-02
  -4.996  0.506E-02  0.506E-02
  -4.986  0.529E-02  0.529E-02
  -4.976  0.552E-02  0.552E-02
  -4.966  0.576E-02  0.576E-02
  -4.956  0.600E-02  0.600E-02
  -4.946  0.625E-02  0.625E-02
  -4.936  0.650E-02  0.650E-02
  -4.926  0.675E-02  0.675E-02
  -4.916  0.700E-02  0.700E-02
  -4.906  0.726E-02  0.726E-02
  -4.896  0.752E-02  0.752E-02
  -4.886  0.779E-02  0.779E-02
  -4.876  0.806E-02  0.806E-02
  -4.866  0.832E-02  0.832E-02
  -4.856  0.859E-02  0.859E-02
  -4.846  0.887E-02  0.887E-02
  -4.836  0.914E-02  0.914E-02
  -4.826  0.941E-02  0.941E-02
  -4.816  0.969E-02  0.969E-02
  -4.806  0.996E-02  0.996E-02
  -4.796  0.102E-01  0.102E-01
  -4.786  0.105E-01  0.105E-01
  -4.776  0.108E-01  0.108E-01
  -4.766  0.111E-01  0.111E-01
  -4.756  0.113E-01  0.113E-01
  -4.746  0.116E-01  0.116E-01
  -4.736  0.119E-01  0.119E-01
  -4.726  0.121E-01  0.121E-01
  -4.716  0.124E-01  0.124E-01
  -4.706  0.127E-01  0.127E-01
  -4.696  0.129E-01  0.129E-01
  -4.686  0.132E-01  0.132E-01
  -4.676  0.134E-01  0.134E-01
  -4.666  0.136E-01  0.136E-01
  -4.656  0.139E-01  0.139E-01
  -4.646  0.141E-01  0.141E-01
  -4.636  0.143E-01  0.143E-01
  -4.626  0.146E-01  0.146E-01
  -4.616  0.148E-01  0.148E-01
  -4.606  0.150E-01  0.150E-01
  -4.596  0.152E-01  0.152E-01
  -4.586  0.154E-01  0.154E-01
  -4.576  0.155E-01  0.155E-01
  -4.566  0.157E-01  0.157E-01
  -4.556  0.159E-01  0.159E-01
  -4.546  0.160E-01  0.160E-01
  -4.536  0.162E-01  0.162E-01
  -4.526  0.163E-01  0.163E-01
  -4.516  0.164E-01  0.164E-01
  -4.506  0.166E-01  0.166E-01
  -4.496  0.167E-01  0.167E-01
  -4.486  0.168E-01  0.168E-01
  -4.476  0.168E-01  0.168E-01
  -4.466  0.169E-01  0.169E-01
  -4.456  0.170E-01  0.170E-01
  -4.446  0.170E-01  0.170E-01
  -4.436  0.171E-01  0.171E-01
  -4.426  0.171E-01  0.171E-01
  -4.416  0.171E-01  0.171E-01
  -4.406  0.171E-01  0.171E-01
  -4.396  0.171E-01  0.171E-01
  -4.386  0.171E-01  0.171E-01
  -4.376  0.171E-01  0.171E-01
  -4.366  0.171E-01  0.171E-01
  -4.356  0.170E-01  0.170E-01
  -4.346  0.169E-01  0.169E-01
  -4.336  0.169E-01  0.169E-01
  -4.326  0.168E-01  0.168E-01
  -4.316  0.167E-01  0.167E-01
  -4.306  0.166E-01  0.166E-01
  -4.296  0.165E-01  0.165E-01
  -4.286  0.164E-01  0.164E-01
  -4.276  0.162E-01  0.162E-01
  -4.266  0.161E-01  0.161E-01
  -4.256  0.159E-01  0.159E-01
  -4.246  0.158E-01  0.158E-01
  -4.236  0.156E-01  0.156E-01
  -4.226  0.154E-01  0.154E-01
  -4.216  0.152E-01  0.152E-01
  -4.206  0.150E-01  0.150E-01
  -4.196  0.148E-01  0.148E-01
  -4.186  0.146E-01  0.146E-01
  -4.176  0.144E-01  0.144E-01
  -4.166  0.141E-01  0.141E-01
  -4.156  0.139E-01  0.139E-01
  -4.146  0.136E-01  0.136E-01
  -4.136  0.134E-01  0.134E-01
  -4.126  0.131E-01  0.131E-01
  -4.116  0.129E-01  0.129E-01
  -4.106  0.126E-01  0.126E-01
  -4.096  0.124E-01  0.124E-01
  -4.086  0.121E-01  0.121E-01
  -4.076  0.118E-01  0.118E-01
  -4.066  0.115E-01  0.115E-01
  -4.056  0.112E-01  0.112E-01
  -4.046  0.110E-01  0.110E-01
  -4.036  0.107E-01  0.107E-01
  -4.026  0.104E-01  0.104E-01
  -4.016  0.101E-01  0.101E-01
  -4.006  0.981E-02  0.981E-02
  -3.996  0.952E-02  0.952E-02
  -3.986  0.923E-02  0.923E-02
  -3.976  0.894E-02  0.894E-02
  -3.966  0.866E-02  0.866E-02
  -3.956  0.837E-02  0.837E-02
  -3.946  0.809E-02  0.809E-02
  -3.936  0.780E-02  0.780E-02
  -3.926  0.752E-02  0.752E-02
  -3.916  0.724E-02  0.724E-02
  -3.906  0.697E-02  0.697E-02
  -3.896  0.669E-02  0.669E-02
  -3.886  0.643E-02  0.643E-02
  -3.876  0.616E-02  0.616E-02
  -3.866  0.590E-02  0.590E-02
  -3.856  0.564E-02  0.564E-02
  -3.846  0.539E-02  0.539E-02
  -3.836  0.514E-02  0.514E-02
  -3.826  0.489E-02  0.489E-02
  -3.816  0.465E-02  0.465E-02
  -3.806  0.442E-02  0.442E-02
  -3.796  0.419E-02  0.419E-02
  -3.786  0.397E-02  0.397E-02
  -3.776  0.375E-02  0.375E-02
  -3.766  0.353E-02  0.353E-02
  -3.756  0.333E-02  0.333E-02
  -3.746  0.313E-02  0.313E-02
  -3.736  0.293E-02  0.293E-02
  -3.726  0.274E-02  0.274E-02
  -3.716  0.256E-02  0.256E-02
  -3.706  0.238E-02  0.238E-02
  -3.696  0.221E-02  0.221E-02
  -3.686  0.204E-02  0.204E-02
  -3.676  0.188E-02  0.188E-02
  -3.666  0.173E-02  0.173E-02
  -3.656  0.158E-02  0.158E-02
  -3.646  0.144E-02  0.144E-02
  -3.636  0.130E-02  0.130E-02
  -3.626  0.117E-02  0.117E-02
  -3.616  0.105E-02  0.105E-02
  -3.606  0.931E-03  0.931E-03
  -3.596  0.819E-03  0.819E-03
  -3.586  0.711E-03  0.711E-03
  -3.576  0.609E-03  0.609E-03
  -3.566  0.513E-03  0.513E-03
  -3.556  0.422E-03  0.422E-03
  -3.546  0.336E-03  0.336E-03
  -3.536  0.255E-03  0.255E-03
  -3.526  0.179E-03  0.179E-03
  -3.516  0.107E-03  0.107E-03
  -3.506  0.407E-04  0.407E-04
  -3.496 -0.214E-04 -0.214E-04
  -3.486 -0.791E-04 -0.791E-04
  -3.476 -0.133E-03 -0.133E-03
  -3.466 -0.182E-03 -0.182E-03
  -3.456 -0.227E-03 -0.227E-03
  -3.446 -0.269E-03 -0.269E-03
  -3.436 -0.306E-03 -0.306E-03
  -3.426 -0.341E-03 -0.341E-03
  -3.416 -0.372E-03 -0.372E-03
  -3.406 -0.399E-03 -0.399E-03
  -3.396 -0.423E-03 -0.423E-03
  -3.386 -0.445E-03 -0.445E-03
  -3.376 -0.463E-03 -0.463E-03
  -3.366 -0.479E-03 -0.479E-03
  -3.356 -0.493E-03 -0.493E-03
  -3.346 -0.503E-03 -0.503E-03
  -3.336 -0.512E-03 -0.512E-03
  -3.326 -0.518E-03 -0.518E-03
  -3.316 -0.522E-03 -0.522E-03
  -3.306 -0.525E-03 -0.525E-03
  -3.296 -0.525E-03 -0.525E-03
  -3.286 -0.524E-03 -0.524E-03
  -3.276 -0.521E-03 -0.521E-03
  -3.266 -0.517E-03 -0.517E-03
  -3.256 -0.511E-03 -0.511E-03
  -3.246 -0.504E-03 -0.504E-03
  -3.236 -0.496E-03 -0.496E-03
  -3.226 -0.487E-03 -0.487E-03
  -3.216 -0.477E-03 -0.477E-03
  -3.206 -0.466E-03 -0.466E-03
  -3.196 -0.454E-03 -0.454E-03
  -3.186 -0.442E-03 -0.442E-03
  -3.176 -0.429E-03 -0.429E-03
  -3.166 -0.415E-03 -0.415E-03
  -3.156 -0.401E-03 -0.401E-03
  -3.146 -0.386E-03 -0.386E-03
  -3.136 -0.372E-03 -0.372E-03
  -3.126 -0.356E-03 -0.356E-03
  -3.116 -0.341E-03 -0.341E-03
  -3.106 -0.326E-03 -0.326E-03
  -3.096 -0.310E-03 -0.310E-03
  -3.086 -0.294E-03 -0.294E-03
  -3.076 -0.279E-03 -0.279E-03
  -3.066 -0.263E-03 -0.263E-03
  -3.056 -0.247E-03 -0.247E-03
  -3.046 -0.232E-03 -0.232E-03
  -3.036 -0.216E-03 -0.216E-03
  -3.026 -0.201E-03 -0.201E-03
  -3.016 -0.186E-03 -0.186E-03
  -3.006 -0.171E-03 -0.171E-03
  -2.996 -0.157E-03 -0.157E-03
  -2.986 -0.142E-03 -0.142E-03
  -2.976 -0.128E-03 -0.128E-03
  -2.966 -0.114E-03 -0.114E-03
  -2.956 -0.101E-03 -0.101E-03
  -2.946 -0.878E-04 -0.878E-04
  -2.936 -0.751E-04 -0.751E-04
  -2.926 -0.626E-04 -0.626E-04
  -2.916 -0.505E-04 -0.505E-04
  -2.906 -0.388E-04 -0.388E-04
  -2.896 -0.275E-04 -0.275E-04
  -2.886 -0.165E-04 -0.165E-04
  -2.876 -0.585E-05 -0.585E-05
  -2.866  0.441E-05  0.441E-05
  -2.856  0.143E-04  0.143E-04
  -2.846  0.238E-04  0.238E-04
  -2.836  0.330E-04  0.330E-04
  -2.826  0.418E-04  0.418E-04
  -2.816  0.503E-04  0.503E-04
  -2.806  0.584E-04  0.584E-04
  -2.796  0.662E-04  0.662E-04
  -2.786  0.736E-04  0.736E-04
  -2.776  0.808E-04  0.808E-04
  -2.766  0.876E-04  0.876E-04
  -2.756  0.941E-04  0.941E-04
  -2.746  0.100E-03  0.100E-03
  -2.736  0.106E-03  0.106E-03
  -2.726  0.112E-03  0.112E-03
  -2.716  0.117E-03  0.117E-03
  -2.706  0.122E-03  0.122E-03
  -2.696  0.127E-03  0.127E-03
  -2.686  0.132E-03  0.132E-03
  -2.676  0.137E-03  0.137E-03
  -2.666  0.141E-03  0.141E-03
  -2.656  0.145E-03  0.145E-03
  -2.646  0.149E-03  0.149E-03
  -2.636  0.153E-03  0.153E-03
  -2.626  0.156E-03  0.156E-03
  -2.616  0.160E-03  0.160E-03
  -2.606  0.163E-03  0.163E-03
  -2.596  0.166E-03  0.166E-03
  -2.586  0.169E-03  0.169E-03
  -2.576  0.172E-03  0.172E-03
  -2.566  0.175E-03  0.175E-03
  -2.556  0.178E-03  0.178E-03
  -2.546  0.181E-03  0.181E-03
  -2.536  0.184E-03  0.184E-03
  -2.526  0.187E-03  0.187E-03
  -2.516  0.189E-03  0.189E-03
  -2.506  0.192E-03  0.192E-03
  -2.496  0.195E-03  0.195E-03
  -2.486  0.198E-03  0.198E-03
  -2.476  0.200E-03  0.200E-03
  -2.466  0.203E-03  0.203E-03
  -2.456  0.206E-03  0.206E-03
  -2.446  0.209E-03  0.209E-03
  -2.436  0.212E-03  0.212E-03
  -2.426  0.215E-03  0.215E-03
  -2.416  0.218E-03  0.218E-03
  -2.406  0.221E-03  0.221E-03
  -2.396  0.225E-03  0.225E-03
  -2.386  0.228E-03  0.228E-03
  -2.376  0.232E-03  0.232E-03
  -2.366  0.235E-03  0.235E-03
  -2.356  0.239E-03  0.239E-03
  -2.346  0.243E-03  0.243E-03
  -2.336  0.247E-03  0.247E-03
  -2.326  0.251E-03  0.251E-03
  -2.316  0.256E-03  0.256E-03
  -2.306  0.260E-03  0.260E-03
  -2.296  0.265E-03  0.265E-03
  -2.286  0.269E-03  0.269E-03
  -2.276  0.274E-03  0.274E-03
  -2.266  0.279E-03  0.279E-03
  -2.256  0.284E-03  0.284E-03
  -2.246  0.290E-03  0.290E-03
  -2.236  0.295E-03  0.295E-03
  -2.226  0.301E-03  0.301E-03
  -2.216  0.306E-03  0.306E-03
  -2.206  0.312E-03  0.312E-03
  -2.196  0.318E-03  0.318E-03
  -2.186  0.324E-03  0.324E-03
  -2.176  0.330E-03  0.330E-03
  -2.166  0.337E-03  0.337E-03
  -2.156  0.343E-03  0.343E-03
  -2.146  0.350E-03  0.350E-03
  -2.136  0.357E-03  0.357E-03
  -2.126  0.363E-03  0.363E-03
  -2.116  0.370E-03  0.370E-03
  -2.106  0.377E-03  0.377E-03
  -2.096  0.384E-03  0.384E-03
  -2.086  0.391E-03  0.391E-03
  -2.076  0.399E-03  0.399E-03
  -2.066  0.406E-03  0.406E-03
  -2.056  0.413E-03  0.413E-03
  -2.046  0.421E-03  0.421E-03
  -2.036  0.428E-03  0.428E-03
  -2.026  0.435E-03  0.435E-03
  -2.016  0.443E-03  0.443E-03
  -2.006  0.450E-03  0.450E-03
  -1.996  0.458E-03  0.458E-03
  -1.986  0.465E-03  0.465E-03
  -1.976  0.472E-03  0.472E-03
  -1.966  0.480E-03  0.480E-03
  -1.956  0.487E-03  0.487E-03
  -1.946  0.494E-03  0.494E-03
  -1.936  0.502E-03  0.502E-03
  -1.926  0.509E-03  0.509E-03
  -1.916  0.516E-03  0.516E-03
  -1.906  0.523E-03  0.523E-03
  -1.896  0.530E-03  0.530E-03
  -1.886  0.536E-03  0.536E-03
  -1.876  0.543E-03  0.543E-03
  -1.866  0.550E-03  0.550E-03
  -1.856  0.556E-03  0.556E-03
  -1.846  0.562E-03  0.562E-03
  -1.836  0.569E-03  0.569E-03
  -1.826  0.575E-03  0.575E-03
  -1.816  0.580E-03  0.580E-03
  -1.806  0.586E-03  0.586E-03
  -1.796  0.592E-03  0.592E-03
  -1.786  0.597E-03  0.597E-03
  -1.776  0.602E-03  0.602E-03
  -1.766  0.607E-03  0.607E-03
  -1.756  0.612E-03  0.612E-03
  -1.746  0.616E-03  0.616E-03
  -1.736  0.621E-03  0.621E-03
  -1.726  0.625E-03  0.625E-03
  -1.716  0.629E-03  0.629E-03
  -1.706  0.632E-03  0.632E-03
  -1.696  0.636E-03  0.636E-03
  -1.686  0.639E-03  0.639E-03
  -1.676  0.642E-03  0.642E-03
  -1.666  0.645E-03  0.645E-03
  -1.656  0.647E-03  0.647E-03
  -1.646  0.650E-03  0.650E-03
  -1.636  0.652E-03  0.652E-03
  -1.626  0.654E-03  0.654E-03
  -1.616  0.656E-03  0.656E-03
  -1.606  0.657E-03  0.657E-03
  -1.596  0.658E-03  0.658E-03
  -1.586  0.659E-03  0.659E-03
  -1.576  0.660E-03  0.660E-03
  -1.566  0.661E-03  0.661E-03
  -1.556  0.661E-03  0.661E-03
  -1.546  0.662E-03  0.662E-03
  -1.536  0.662E-03  0.662E-03
  -1.526  0.661E-03  0.661E-03
  -1.516  0.661E-03  0.661E-03
  -1.506  0.660E-03  0.660E-03
  -1.496  0.660E-03  0.660E-03
  -1.486  0.659E-03  0.659E-03
  -1.476  0.658E-03  0.658E-03
  -1.466  0.656E-03  0.656E-03
  -1.456  0.655E-03  0.655E-03
  -1.446  0.653E-03  0.653E-03
  -1.436  0.651E-03  0.651E-03
  -1.426  0.650E-03  0.650E-03
  -1.416  0.647E-03  0.647E-03
  -1.406  0.645E-03  0.645E-03
  -1.396  0.643E-03  0.643E-03
  -1.386  0.640E-03  0.640E-03
  -1.376  0.638E-03  0.638E-03
  -1.366  0.635E-03  0.635E-03
  -1.356  0.632E-03  0.632E-03
  -1.346  0.630E-03  0.630E-03
  -1.336  0.627E-03  0.627E-03
  -1.326  0.624E-03  0.624E-03
  -1.316  0.620E-03  0.620E-03
  -1.306  0.617E-03  0.617E-03
  -1.296  0.614E-03  0.614E-03
  -1.286  0.610E-03  0.610E-03
  -1.276  0.607E-03  0.607E-03
  -1.266  0.603E-03  0.603E-03
  -1.256  0.600E-03  0.600E-03
  -1.246  0.596E-03  0.596E-03
  -1.236  0.593E-03  0.593E-03
  -1.226  0.589E-03  0.589E-03
  -1.216  0.585E-03  0.585E-03
  -1.206  0.581E-03  0.581E-03
  -1.196  0.578E-03  0.578E-03
  -1.186  0.574E-03  0.574E-03
  -1.176  0.570E-03  0.570E-03
  -1.166  0.566E-03  0.566E-03
  -1.156  0.562E-03  0.562E-03
  -1.146  0.558E-03  0.558E-03
  -1.136  0.554E-03  0.554E-03
  -1.126  0.550E-03  0.550E-03
  -1.116  0.546E-03  0.546E-03
  -1.106  0.542E-03  0.542E-03
  -1.096  0.538E-03  0.538E-03
  -1.086  0.534E-03  0.534E-03
  -1.076  0.530E-03  0.530E-03
  -1.066  0.525E-03  0.525E-03
  -1.056  0.521E-03  0.521E-03
  -1.046  0.517E-03  0.517E-03
  -1.036  0.513E-03  0.513E-03
  -1.026  0.509E-03  0.509E-03
  -1.016  0.504E-03  0.504E-03
  -1.006  0.500E-03  0.500E-03
  -0.996  0.496E-03  0.496E-03
  -0.986  0.491E-03  0.491E-03
  -0.976  0.487E-03  0.487E-03
  -0.966  0.483E-03  0.483E-03
  -0.956  0.478E-03  0.478E-03
  -0.946  0.474E-03  0.474E-03
  -0.936  0.469E-03  0.469E-03
  -0.926  0.465E-03  0.465E-03
  -0.916  0.460E-03  0.460E-03
  -0.906  0.456E-03  0.456E-03
  -0.896  0.451E-03  0.451E-03
  -0.886  0.447E-03  0.447E-03
  -0.876  0.442E-03  0.442E-03
  -0.866  0.437E-03  0.437E-03
  -0.856  0.432E-03  0.432E-03
  -0.846  0.428E-03  0.428E-03
  -0.836  0.423E-03  0.423E-03
  -0.826  0.418E-03  0.418E-03
  -0.816  0.413E-03  0.413E-03
  -0.806  0.408E-03  0.408E-03
  -0.796  0.403E-03  0.403E-03
  -0.786  0.398E-03  0.398E-03
  -0.776  0.393E-03  0.393E-03
  -0.766  0.388E-03  0.388E-03
  -0.756  0.382E-03  0.382E-03
  -0.746  0.377E-03  0.377E-03
  -0.736  0.372E-03  0.372E-03
  -0.726  0.367E-03  0.367E-03
  -0.716  0.362E-03  0.362E-03
  -0.706  0.356E-03  0.356E-03
  -0.696  0.351E-03  0.351E-03
  -0.686  0.346E-03  0.346E-03
  -0.676  0.340E-03  0.340E-03
  -0.666  0.335E-03  0.335E-03
  -0.656  0.329E-03  0.329E-03
  -0.646  0.324E-03  0.324E-03
  -0.636  0.319E-03  0.319E-03
  -0.626  0.313E-03  0.313E-03
  -0.616  0.308E-03  0.308E-03
  -0.606  0.303E-03  0.303E-03
  -0.596  0.297E-03  0.297E-03
  -0.586  0.292E-03  0.292E-03
  -0.576  0.287E-03  0.287E-03
  -0.566  0.281E-03  0.281E-03
  -0.556  0.276E-03  0.276E-03
  -0.546  0.271E-03  0.271E-03
  -0.536  0.266E-03  0.266E-03
  -0.526  0.261E-03  0.261E-03
  -0.516  0.255E-03  0.255E-03
  -0.506  0.250E-03  0.250E-03
  -0.496  0.246E-03  0.246E-03
  -0.486  0.241E-03  0.241E-03
  -0.476  0.236E-03  0.236E-03
  -0.466  0.231E-03  0.231E-03
  -0.456  0.227E-03  0.227E-03
  -0.446  0.222E-03  0.222E-03
  -0.436  0.218E-03  0.218E-03
  -0.426  0.213E-03  0.213E-03
  -0.416  0.209E-03  0.209E-03
  -0.406  0.205E-03  0.205E-03
  -0.396  0.201E-03  0.201E-03
  -0.386  0.197E-03  0.197E-03
  -0.376  0.194E-03  0.194E-03
  -0.366  0.190E-03  0.190E-03
  -0.356  0.187E-03  0.187E-03
  -0.346  0.183E-03  0.183E-03
  -0.336  0.180E-03  0.180E-03
  -0.326  0.177E-03  0.177E-03
  -0.316  0.174E-03  0.174E-03
  -0.306  0.171E-03  0.171E-03
  -0.296  0.169E-03  0.169E-03
  -0.286  0.166E-03  0.166E-03
  -0.276  0.164E-03  0.164E-03
  -0.266  0.162E-03  0.162E-03
  -0.256  0.160E-03  0.160E-03
  -0.246  0.158E-03  0.158E-03
  -0.236  0.156E-03  0.156E-03
  -0.226  0.155E-03  0.155E-03
  -0.216  0.154E-03  0.154E-03
  -0.206  0.152E-03  0.152E-03
  -0.196  0.151E-03  0.151E-03
  -0.186  0.150E-03  0.150E-03
  -0.176  0.150E-03  0.150E-03
  -0.166  0.149E-03  0.149E-03
  -0.156  0.148E-03  0.148E-03
  -0.146  0.148E-03  0.148E-03
  -0.136  0.148E-03  0.148E-03
  -0.126  0.148E-03  0.148E-03
  -0.116  0.148E-03  0.148E-03
  -0.106  0.148E-03  0.148E-03
  -0.096  0.148E-03  0.148E-03
  -0.086  0.149E-03  0.149E-03
  -0.076  0.149E-03  0.149E-03
  -0.066  0.150E-03  0.150E-03
  -0.056  0.151E-03  0.151E-03
  -0.046  0.151E-03  0.151E-03
  -0.036  0.152E-03  0.152E-03
  -0.026  0.153E-03  0.153E-03
  -0.016  0.155E-03  0.155E-03
  -0.006  0.156E-03  0.156E-03
   0.004  0.157E-03  0.157E-03
   0.014  0.158E-03  0.158E-03
   0.024  0.160E-03  0.160E-03
   0.034  0.161E-03  0.161E-03
   0.044  0.163E-03  0.163E-03
   0.054  0.164E-03  0.164E-03
   0.064  0.166E-03  0.166E-03
   0.074  0.168E-03  0.168E-03
   0.084  0.169E-03  0.169E-03
   0.094  0.171E-03  0.171E-03
   0.104  0.173E-03  0.173E-03
   0.114  0.175E-03  0.175E-03
   0.124  0.176E-03  0.176E-03
   0.134  0.178E-03  0.178E-03
   0.144  0.180E-03  0.180E-03
   0.154  0.182E-03  0.182E-03
   0.164  0.184E-03  0.184E-03
   0.174  0.186E-03  0.186E-03
   0.184  0.187E-03  0.187E-03
   0.194  0.189E-03  0.189E-03
   0.204  0.191E-03  0.191E-03
   0.214  0.193E-03  0.193E-03
   0.224  0.194E-03  0.194E-03
   0.234  0.196E-03  0.196E-03
   0.244  0.198E-03  0.198E-03
   0.254  0.200E-03  0.200E-03
   0.264  0.201E-03  0.201E-03
   0.274  0.203E-03  0.203E-03
   0.284  0.205E-03  0.205E-03
   0.294  0.206E-03  0.206E-03
   0.304  0.208E-03  0.208E-03
   0.314  0.209E-03  0.209E-03
   0.324  0.211E-03  0.211E-03
   0.334  0.212E-03  0.212E-03
   0.344  0.214E-03  0.214E-03
   0.354  0.216E-03  0.216E-03
   0.364  0.217E-03  0.217E-03
   0.374  0.218E-03  0.218E-03
   0.384  0.220E-03  0.220E-03
   0.394  0.221E-03  0.221E-03
   0.404  0.223E-03  0.223E-03
   0.414  0.224E-03  0.224E-03
   0.424  0.226E-03  0.226E-03
   0.434  0.227E-03  0.227E-03
   0.444  0.229E-03  0.229E-03
   0.454  0.231E-03  0.231E-03
   0.464  0.232E-03  0.232E-03
   0.474  0.234E-03  0.234E-03
   0.484  0.235E-03  0.235E-03
   0.494  0.237E-03  0.237E-03
   0.504  0.239E-03  0.239E-03
   0.514  0.241E-03  0.241E-03
   0.524  0.243E-03  0.243E-03
   0.534  0.245E-03  0.245E-03
   0.544  0.247E-03  0.247E-03
   0.554  0.249E-03  0.249E-03
   0.564  0.251E-03  0.251E-03
   0.574  0.253E-03  0.253E-03
   0.584  0.256E-03  0.256E-03
   0.594  0.258E-03  0.258E-03
   0.604  0.261E-03  0.261E-03
   0.614  0.264E-03  0.264E-03
   0.624  0.267E-03  0.267E-03
   0.634  0.270E-03  0.270E-03
   0.644  0.273E-03  0.273E-03
   0.654  0.277E-03  0.277E-03
   0.664  0.280E-03  0.280E-03
   0.674  0.284E-03  0.284E-03
   0.684  0.288E-03  0.288E-03
   0.694  0.292E-03  0.292E-03
   0.704  0.296E-03  0.296E-03
   0.714  0.300E-03  0.300E-03
   0.724  0.305E-03  0.305E-03
   0.734  0.310E-03  0.310E-03
   0.744  0.315E-03  0.315E-03
   0.754  0.320E-03  0.320E-03
   0.764  0.325E-03  0.325E-03
   0.774  0.331E-03  0.331E-03
   0.784  0.336E-03  0.336E-03
   0.794  0.342E-03  0.342E-03
   0.804  0.349E-03  0.349E-03
   0.814  0.355E-03  0.355E-03
   0.824  0.362E-03  0.362E-03
   0.834  0.368E-03  0.368E-03
   0.844  0.375E-03  0.375E-03
   0.854  0.383E-03  0.383E-03
   0.864  0.390E-03  0.390E-03
   0.874  0.397E-03  0.397E-03
   0.884  0.405E-03  0.405E-03
   0.894  0.413E-03  0.413E-03
   0.904  0.421E-03  0.421E-03
   0.914  0.430E-03  0.430E-03
   0.924  0.438E-03  0.438E-03
   0.934  0.447E-03  0.447E-03
   0.944  0.456E-03  0.456E-03
   0.954  0.465E-03  0.465E-03
   0.964  0.474E-03  0.474E-03
   0.974  0.483E-03  0.483E-03
   0.984  0.493E-03  0.493E-03
   0.994  0.503E-03  0.503E-03
   1.004  0.512E-03  0.512E-03
   1.014  0.522E-03  0.522E-03
   1.024  0.532E-03  0.532E-03
   1.034  0.542E-03  0.542E-03
   1.044  0.553E-03  0.553E-03
   1.054  0.563E-03  0.563E-03
   1.064  0.573E-03  0.573E-03
   1.074  0.584E-03  0.584E-03
   1.084  0.594E-03  0.594E-03
   1.094  0.605E-03  0.605E-03
   1.104  0.616E-03  0.616E-03
   1.114  0.626E-03  0.626E-03
   1.124  0.637E-03  0.637E-03
   1.134  0.648E-03  0.648E-03
   1.144  0.659E-03  0.659E-03
   1.154  0.670E-03  0.670E-03
   1.164  0.681E-03  0.681E-03
   1.174  0.692E-03  0.692E-03
   1.184  0.702E-03  0.702E-03
   1.194  0.713E-03  0.713E-03
   1.204  0.724E-03  0.724E-03
   1.214  0.735E-03  0.735E-03
   1.224  0.746E-03  0.746E-03
   1.234  0.757E-03  0.757E-03
   1.244  0.768E-03  0.768E-03
   1.254  0.779E-03  0.779E-03
   1.264  0.790E-03  0.790E-03
   1.274  0.801E-03  0.801E-03
   1.284  0.812E-03  0.812E-03
   1.294  0.823E-03  0.823E-03
   1.304  0.834E-03  0.834E-03
   1.314  0.845E-03  0.845E-03
   1.324  0.856E-03  0.856E-03
   1.334  0.867E-03  0.867E-03
   1.344  0.878E-03  0.878E-03
   1.354  0.889E-03  0.889E-03
   1.364  0.900E-03  0.900E-03
   1.374  0.912E-03  0.912E-03
   1.384  0.923E-03  0.923E-03
   1.394  0.935E-03  0.935E-03
   1.404  0.947E-03  0.947E-03
   1.414  0.959E-03  0.959E-03
   1.424  0.971E-03  0.971E-03
   1.434  0.983E-03  0.983E-03
   1.444  0.995E-03  0.995E-03
   1.454  0.101E-02  0.101E-02
   1.464  0.102E-02  0.102E-02
   1.474  0.103E-02  0.103E-02
   1.484  0.105E-02  0.105E-02
   1.494  0.106E-02  0.106E-02
   1.504  0.108E-02  0.108E-02
   1.514  0.109E-02  0.109E-02
   1.524  0.111E-02  0.111E-02
   1.534  0.112E-02  0.112E-02
   1.544  0.114E-02  0.114E-02
   1.554  0.115E-02  0.115E-02
   1.564  0.117E-02  0.117E-02
   1.574  0.119E-02  0.119E-02
   1.584  0.121E-02  0.121E-02
   1.594  0.123E-02  0.123E-02
   1.604  0.125E-02  0.125E-02
   1.614  0.127E-02  0.127E-02
   1.624  0.129E-02  0.129E-02
   1.634  0.131E-02  0.131E-02
   1.644  0.133E-02  0.133E-02
   1.654  0.136E-02  0.136E-02
   1.664  0.138E-02  0.138E-02
   1.674  0.141E-02  0.141E-02
   1.684  0.143E-02  0.143E-02
   1.694  0.146E-02  0.146E-02
   1.704  0.149E-02  0.149E-02
   1.714  0.152E-02  0.152E-02
   1.724  0.155E-02  0.155E-02
   1.734  0.158E-02  0.158E-02
   1.744  0.161E-02  0.161E-02
   1.754  0.165E-02  0.165E-02
   1.764  0.168E-02  0.168E-02
   1.774  0.172E-02  0.172E-02
   1.784  0.175E-02  0.175E-02
   1.794  0.179E-02  0.179E-02
   1.804  0.183E-02  0.183E-02
   1.814  0.187E-02  0.187E-02
   1.824  0.191E-02  0.191E-02
   1.834  0.196E-02  0.196E-02
   1.844  0.200E-02  0.200E-02
   1.854  0.205E-02  0.205E-02
   1.864  0.209E-02  0.209E-02
   1.874  0.214E-02  0.214E-02
   1.884  0.219E-02  0.219E-02
   1.894  0.224E-02  0.224E-02
   1.904  0.229E-02  0.229E-02
   1.914  0.235E-02  0.235E-02
   1.924  0.240E-02  0.240E-02
   1.934  0.246E-02  0.246E-02
   1.944  0.251E-02  0.251E-02
   1.954  0.257E-02  0.257E-02
   1.964  0.263E-02  0.263E-02
   1.974  0.269E-02  0.269E-02
   1.984  0.275E-02  0.275E-02
   1.994  0.281E-02  0.281E-02
   2.004  0.287E-02  0.287E-02
   2.014  0.293E-02  0.293E-02
   2.024  0.300E-02  0.300E-02
   2.034  0.306E-02  0.306E-02
   2.044  0.313E-02  0.313E-02
   2.054  0.319E-02  0.319E-02
   2.064  0.326E-02  0.326E-02
   2.074  0.333E-02  0.333E-02
   2.084  0.340E-02  0.340E-02
   2.094  0.347E-02  0.347E-02
   2.104  0.353E-02  0.353E-02
   2.114  0.360E-02  0.360E-02
   2.124  0.367E-02  0.367E-02
   2.134  0.374E-02  0.374E-02
   2.144  0.381E-02  0.381E-02
   2.154  0.388E-02  0.388E-02
   2.164  0.395E-02  0.395E-02
   2.174  0.402E-02  0.402E-02
   2.184  0.409E-02  0.409E-02
   2.194  0.416E-02  0.416E-02
   2.204  0.423E-02  0.423E-02
   2.214  0.430E-02  0.430E-02
   2.224  0.437E-02  0.437E-02
   2.234  0.443E-02  0.443E-02
   2.244  0.450E-02  0.450E-02
   2.254  0.457E-02  0.457E-02
   2.264  0.463E-02  0.463E-02
   2.274  0.470E-02  0.470E-02
   2.284  0.476E-02  0.476E-02
   2.294  0.482E-02  0.482E-02
   2.304  0.489E-02  0.489E-02
   2.314  0.495E-02  0.495E-02
   2.324  0.501E-02  0.501E-02
   2.334  0.507E-02  0.507E-02
   2.344  0.512E-02  0.512E-02
   2.354  0.518E-02  0.518E-02
   2.364  0.523E-02  0.523E-02
   2.374  0.529E-02  0.529E-02
   2.384  0.534E-02  0.534E-02
   2.394  0.539E-02  0.539E-02
   2.404  0.544E-02  0.544E-02
   2.414  0.548E-02  0.548E-02
   2.424  0.553E-02  0.553E-02
   2.434  0.557E-02  0.557E-02
   2.444  0.561E-02  0.561E-02
   2.454  0.565E-02  0.565E-02
   2.464  0.569E-02  0.569E-02
   2.474  0.573E-02  0.573E-02
   2.484  0.576E-02  0.576E-02
   2.494  0.580E-02  0.580E-02
   2.504  0.583E-02  0.583E-02
   2.514  0.586E-02  0.586E-02
   2.524  0.588E-02  0.588E-02
   2.534  0.591E-02  0.591E-02
   2.544  0.593E-02  0.593E-02
   2.554  0.595E-02  0.595E-02
   2.564  0.597E-02  0.597E-02
   2.574  0.599E-02  0.599E-02
   2.584  0.600E-02  0.600E-02
   2.594  0.602E-02  0.602E-02
   2.604  0.603E-02  0.603E-02
   2.614  0.604E-02  0.604E-02
   2.624  0.604E-02  0.604E-02
   2.634  0.605E-02  0.605E-02
   2.644  0.605E-02  0.605E-02
   2.654  0.605E-02  0.605E-02
   2.664  0.605E-02  0.605E-02
   2.674  0.605E-02  0.605E-02
   2.684  0.605E-02  0.605E-02
   2.694  0.604E-02  0.604E-02
   2.704  0.603E-02  0.603E-02
   2.714  0.602E-02  0.602E-02
   2.724  0.601E-02  0.601E-02
   2.734  0.600E-02  0.600E-02
   2.744  0.598E-02  0.598E-02
   2.754  0.596E-02  0.596E-02
   2.764  0.595E-02  0.595E-02
   2.774  0.593E-02  0.593E-02
   2.784  0.590E-02  0.590E-02
   2.794  0.588E-02  0.588E-02
   2.804  0.585E-02  0.585E-02
   2.814  0.583E-02  0.583E-02
   2.824  0.580E-02  0.580E-02
   2.834  0.577E-02  0.577E-02
   2.844  0.574E-02  0.574E-02
   2.854  0.571E-02  0.571E-02
   2.864  0.567E-02  0.567E-02
   2.874  0.564E-02  0.564E-02
   2.884  0.560E-02  0.560E-02
   2.894  0.556E-02  0.556E-02
   2.904  0.552E-02  0.552E-02
   2.914  0.548E-02  0.548E-02
   2.924  0.544E-02  0.544E-02
   2.934  0.539E-02  0.539E-02
   2.944  0.535E-02  0.535E-02
   2.954  0.530E-02  0.530E-02
   2.964  0.525E-02  0.525E-02
   2.974  0.521E-02  0.521E-02
   2.984  0.516E-02  0.516E-02
   2.994  0.511E-02  0.511E-02
   3.004  0.506E-02  0.506E-02
   3.014  0.500E-02  0.500E-02
   3.024  0.495E-02  0.495E-02
   3.034  0.489E-02  0.489E-02
   3.044  0.484E-02  0.484E-02
   3.054  0.478E-02  0.478E-02
   3.064  0.473E-02  0.473E-02
   3.074  0.467E-02  0.467E-02
   3.084  0.461E-02  0.461E-02
   3.094  0.455E-02  0.455E-02
   3.104  0.449E-02  0.449E-02
   3.114  0.443E-02  0.443E-02
   3.124  0.436E-02  0.436E-02
   3.134  0.430E-02  0.430E-02
   3.144  0.424E-02  0.424E-02
   3.154  0.417E-02  0.417E-02
   3.164  0.411E-02  0.411E-02
   3.174  0.404E-02  0.404E-02
   3.184  0.398E-02  0.398E-02
   3.194  0.391E-02  0.391E-02
   3.204  0.384E-02  0.384E-02
   3.214  0.378E-02  0.378E-02
   3.224  0.371E-02  0.371E-02
   3.234  0.364E-02  0.364E-02
   3.244  0.357E-02  0.357E-02
   3.254  0.350E-02  0.350E-02
   3.264  0.343E-02  0.343E-02
   3.274  0.336E-02  0.336E-02
   3.284  0.329E-02  0.329E-02
   3.294  0.322E-02  0.322E-02
   3.304  0.315E-02  0.315E-02
   3.314  0.308E-02  0.308E-02
   3.324  0.301E-02  0.301E-02
   3.334  0.294E-02  0.294E-02
   3.344  0.287E-02  0.287E-02
   3.354  0.280E-02  0.280E-02
   3.364  0.273E-02  0.273E-02
   3.374  0.266E-02  0.266E-02
   3.384  0.259E-02  0.259E-02
   3.394  0.252E-02  0.252E-02
   3.404  0.245E-02  0.245E-02
   3.414  0.238E-02  0.238E-02
   3.424  0.232E-02  0.232E-02
   3.434  0.225E-02  0.225E-02
   3.444  0.218E-02  0.218E-02
   3.454  0.211E-02  0.211E-02
   3.464  0.204E-02  0.204E-02
   3.474  0.198E-02  0.198E-02
   3.484  0.191E-02  0.191E-02
   3.494  0.185E-02  0.185E-02
   3.504  0.178E-02  0.178E-02
   3.514  0.172E-02  0.172E-02
   3.524  0.166E-02  0.166E-02
   3.534  0.159E-02  0.159E-02
   3.544  0.153E-02  0.153E-02
   3.554  0.147E-02  0.147E-02
   3.564  0.141E-02  0.141E-02
   3.574  0.135E-02  0.135E-02
   3.584  0.129E-02  0.129E-02
   3.594  0.124E-02  0.124E-02
   3.604  0.118E-02  0.118E-02
   3.614  0.112E-02  0.112E-02
   3.624  0.107E-02  0.107E-02
   3.634  0.102E-02  0.102E-02
   3.644  0.965E-03  0.965E-03
   3.654  0.914E-03  0.914E-03
   3.664  0.864E-03  0.864E-03
   3.674  0.816E-03  0.816E-03
   3.684  0.768E-03  0.768E-03
   3.694  0.722E-03  0.722E-03
   3.704  0.677E-03  0.677E-03
   3.714  0.633E-03  0.633E-03
   3.724  0.590E-03  0.590E-03
   3.734  0.549E-03  0.549E-03
   3.744  0.508E-03  0.508E-03
   3.754  0.469E-03  0.469E-03
   3.764  0.431E-03  0.431E-03
   3.774  0.395E-03  0.395E-03
   3.784  0.359E-03  0.359E-03
   3.794  0.325E-03  0.325E-03
   3.804  0.292E-03  0.292E-03
   3.814  0.261E-03  0.261E-03
   3.824  0.230E-03  0.230E-03
   3.834  0.201E-03  0.201E-03
   3.844  0.173E-03  0.173E-03
   3.854  0.146E-03  0.146E-03
   3.864  0.120E-03  0.120E-03
   3.874  0.955E-04  0.955E-04
   3.884  0.721E-04  0.721E-04
   3.894  0.498E-04  0.498E-04
   3.904  0.285E-04  0.285E-04
   3.914  0.841E-05  0.841E-05
   3.924 -0.106E-04 -0.106E-04
   3.934 -0.287E-04 -0.287E-04
   3.944 -0.457E-04 -0.457E-04
   3.954 -0.616E-04 -0.616E-04
   3.964 -0.766E-04 -0.766E-04
   3.974 -0.907E-04 -0.907E-04
   3.984 -0.104E-03 -0.104E-03
   3.994 -0.116E-03 -0.116E-03
   4.004 -0.127E-03 -0.127E-03
   4.014 -0.138E-03 -0.138E-03
   4.024 -0.147E-03 -0.147E-03
   4.034 -0.156E-03 -0.156E-03
   4.044 -0.164E-03 -0.164E-03
   4.054 -0.171E-03 -0.171E-03
   4.064 -0.178E-03 -0.178E-03
   4.074 -0.184E-03 -0.184E-03
   4.084 -0.189E-03 -0.189E-03
   4.094 -0.194E-03 -0.194E-03
   4.104 -0.198E-03 -0.198E-03
   4.114 -0.201E-03 -0.201E-03
   4.124 -0.204E-03 -0.204E-03
   4.134 -0.206E-03 -0.206E-03
   4.144 -0.208E-03 -0.208E-03
   4.154 -0.209E-03 -0.209E-03
   4.164 -0.210E-03 -0.210E-03
   4.174 -0.210E-03 -0.210E-03
   4.184 -0.210E-03 -0.210E-03
   4.194 -0.209E-03 -0.209E-03
   4.204 -0.209E-03 -0.209E-03
   4.214 -0.207E-03 -0.207E-03
   4.224 -0.206E-03 -0.206E-03
   4.234 -0.204E-03 -0.204E-03
   4.244 -0.202E-03 -0.202E-03
   4.254 -0.200E-03 -0.200E-03
   4.264 -0.197E-03 -0.197E-03
   4.274 -0.194E-03 -0.194E-03
   4.284 -0.191E-03 -0.191E-03
   4.294 -0.188E-03 -0.188E-03
   4.304 -0.185E-03 -0.185E-03
   4.314 -0.182E-03 -0.182E-03
   4.324 -0.178E-03 -0.178E-03
   4.334 -0.174E-03 -0.174E-03
   4.344 -0.170E-03 -0.170E-03
   4.354 -0.167E-03 -0.167E-03
   4.364 -0.163E-03 -0.163E-03
   4.374 -0.159E-03 -0.159E-03
   4.384 -0.155E-03 -0.155E-03
   4.394 -0.151E-03 -0.151E-03
   4.404 -0.147E-03 -0.147E-03
   4.414 -0.142E-03 -0.142E-03
   4.424 -0.138E-03 -0.138E-03
   4.434 -0.134E-03 -0.134E-03
   4.444 -0.130E-03 -0.130E-03
   4.454 -0.126E-03 -0.126E-03
   4.464 -0.122E-03 -0.122E-03
   4.474 -0.118E-03 -0.118E-03
   4.484 -0.114E-03 -0.114E-03
   4.494 -0.110E-03 -0.110E-03
   4.504 -0.106E-03 -0.106E-03
   4.514 -0.103E-03 -0.103E-03
   4.524 -0.989E-04 -0.989E-04
   4.534 -0.952E-04 -0.952E-04
   4.544 -0.917E-04 -0.917E-04
   4.554 -0.882E-04 -0.882E-04
   4.564 -0.847E-04 -0.847E-04
   4.574 -0.814E-04 -0.814E-04
   4.584 -0.781E-04 -0.781E-04
   4.594 -0.749E-04 -0.749E-04
   4.604 -0.718E-04 -0.718E-04
   4.614 -0.688E-04 -0.688E-04
   4.624 -0.658E-04 -0.658E-04
   4.634 -0.630E-04 -0.630E-04
   4.644 -0.602E-04 -0.602E-04
   4.654 -0.575E-04 -0.575E-04
   4.664 -0.549E-04 -0.549E-04
   4.674 -0.524E-04 -0.524E-04
   4.684 -0.500E-04 -0.500E-04
   4.694 -0.476E-04 -0.476E-04
   4.704 -0.454E-04 -0.454E-04
   4.714 -0.432E-04 -0.432E-04
   4.724 -0.411E-04 -0.411E-04
   4.734 -0.391E-04 -0.391E-04
   4.744 -0.371E-04 -0.371E-04
   4.754 -0.353E-04 -0.353E-04
   4.764 -0.335E-04 -0.335E-04
   4.774 -0.318E-04 -0.318E-04
   4.784 -0.301E-04 -0.301E-04
   4.794 -0.285E-04 -0.285E-04
   4.804 -0.270E-04 -0.270E-04
   4.814 -0.256E-04 -0.256E-04
   4.824 -0.242E-04 -0.242E-04
   4.834 -0.229E-04 -0.229E-04
   4.844 -0.216E-04 -0.216E-04
   4.854 -0.204E-04 -0.204E-04
   4.864 -0.192E-04 -0.192E-04
   4.874 -0.182E-04 -0.182E-04
   4.884 -0.171E-04 -0.171E-04
   4.894 -0.161E-04 -0.161E-04
   4.904 -0.152E-04 -0.152E-04
   4.914 -0.143E-04 -0.143E-04
   4.924 -0.134E-04 -0.134E-04
   4.934 -0.126E-04 -0.126E-04
   4.944 -0.119E-04 -0.119E-04
   4.954 -0.112E-04 -0.112E-04
   4.964 -0.105E-04 -0.105E-04
   4.974 -0.983E-05 -0.983E-05
   4.984 -0.922E-05 -0.922E-05
   4.994 -0.864E-05 -0.864E-05
   5.004 -0.809E-05 -0.809E-05
   5.014 -0.758E-05 -0.758E-05
   5.024 -0.709E-05 -0.709E-05
   5.034 -0.663E-05 -0.663E-05
   5.044 -0.620E-05 -0.620E-05
   5.054 -0.579E-05 -0.579E-05
   5.064 -0.541E-05 -0.541E-05
   5.074 -0.505E-05 -0.505E-05
   5.084 -0.471E-05 -0.471E-05
   5.094 -0.439E-05 -0.439E-05
   5.104 -0.409E-05 -0.409E-05
   5.114 -0.381E-05 -0.381E-05
   5.124 -0.355E-05 -0.355E-05
   5.134 -0.330E-05 -0.330E-05
   5.144 -0.307E-05 -0.307E-05
   5.154 -0.285E-05 -0.285E-05
   5.164 -0.265E-05 -0.265E-05
   5.174 -0.246E-05 -0.246E-05
   5.184 -0.228E-05 -0.228E-05
   5.194 -0.212E-05 -0.212E-05
   5.204 -0.197E-05 -0.197E-05
   5.214 -0.182E-05 -0.182E-05
   5.224 -0.169E-05 -0.169E-05
   5.234 -0.156E-05 -0.156E-05
   5.244 -0.145E-05 -0.145E-05
   5.254 -0.134E-05 -0.134E-05
   5.264 -0.124E-05 -0.124E-05
   5.274 -0.114E-05 -0.114E-05
   5.284 -0.105E-05 -0.105E-05
   5.294 -0.974E-06 -0.974E-06
