# E (eV)   ldos(E)   pdos(E)   
 -27.116 -0.325E-07 -0.325E-07
 -27.106 -0.351E-07 -0.351E-07
 -27.096 -0.378E-07 -0.378E-07
 -27.086 -0.408E-07 -0.408E-07
 -27.076 -0.440E-07 -0.440E-07
 -27.066 -0.473E-07 -0.473E-07
 -27.056 -0.510E-07 -0.510E-07
 -27.046 -0.548E-07 -0.548E-07
 -27.036 -0.589E-07 -0.589E-07
 -27.026 -0.633E-07 -0.633E-07
 -27.016 -0.680E-07 -0.680E-07
 -27.006 -0.731E-07 -0.731E-07
 -26.996 -0.784E-07 -0.784E-07
 -26.986 -0.841E-07 -0.841E-07
 -26.976 -0.901E-07 -0.901E-07
 -26.966 -0.965E-07 -0.965E-07
 -26.956 -0.103E-06 -0.103E-06
 -26.946 -0.111E-06 -0.111E-06
 -26.936 -0.118E-06 -0.118E-06
 -26.926 -0.126E-06 -0.126E-06
 -26.916 -0.135E-06 -0.135E-06
 -26.906 -0.144E-06 -0.144E-06
 -26.896 -0.154E-06 -0.154E-06
 -26.886 -0.164E-06 -0.164E-06
 -26.876 -0.175E-06 -0.175E-06
 -26.866 -0.187E-06 -0.187E-06
 -26.856 -0.199E-06 -0.199E-06
 -26.846 -0.211E-06 -0.211E-06
 -26.836 -0.225E-06 -0.225E-06
 -26.826 -0.239E-06 -0.239E-06
 -26.816 -0.254E-06 -0.254E-06
 -26.806 -0.270E-06 -0.270E-06
 -26.796 -0.286E-06 -0.286E-06
 -26.786 -0.304E-06 -0.304E-06
 -26.776 -0.322E-06 -0.322E-06
 -26.766 -0.341E-06 -0.341E-06
 -26.756 -0.361E-06 -0.361E-06
 -26.746 -0.382E-06 -0.382E-06
 -26.736 -0.404E-06 -0.404E-06
 -26.726 -0.427E-06 -0.427E-06
 -26.716 -0.451E-06 -0.451E-06
 -26.706 -0.476E-06 -0.476E-06
 -26.696 -0.502E-06 -0.502E-06
 -26.686 -0.530E-06 -0.530E-06
 -26.676 -0.558E-06 -0.558E-06
 -26.666 -0.588E-06 -0.588E-06
 -26.656 -0.619E-06 -0.619E-06
 -26.646 -0.651E-06 -0.651E-06
 -26.636 -0.684E-06 -0.684E-06
 -26.626 -0.719E-06 -0.719E-06
 -26.616 -0.754E-06 -0.754E-06
 -26.606 -0.791E-06 -0.791E-06
 -26.596 -0.830E-06 -0.830E-06
 -26.586 -0.869E-06 -0.869E-06
 -26.576 -0.910E-06 -0.910E-06
 -26.566 -0.952E-06 -0.952E-06
 -26.556 -0.996E-06 -0.996E-06
 -26.546 -0.104E-05 -0.104E-05
 -26.536 -0.109E-05 -0.109E-05
 -26.526 -0.113E-05 -0.113E-05
 -26.516 -0.118E-05 -0.118E-05
 -26.506 -0.123E-05 -0.123E-05
 -26.496 -0.128E-05 -0.128E-05
 -26.486 -0.133E-05 -0.133E-05
 -26.476 -0.139E-05 -0.139E-05
 -26.466 -0.144E-05 -0.144E-05
 -26.456 -0.150E-05 -0.150E-05
 -26.446 -0.155E-05 -0.155E-05
 -26.436 -0.161E-05 -0.161E-05
 -26.426 -0.166E-05 -0.166E-05
 -26.416 -0.172E-05 -0.172E-05
 -26.406 -0.178E-05 -0.178E-05
 -26.396 -0.184E-05 -0.184E-05
 -26.386 -0.190E-05 -0.190E-05
 -26.376 -0.196E-05 -0.196E-05
 -26.366 -0.202E-05 -0.202E-05
 -26.356 -0.207E-05 -0.207E-05
 -26.346 -0.213E-05 -0.213E-05
 -26.336 -0.219E-05 -0.219E-05
 -26.326 -0.225E-05 -0.225E-05
 -26.316 -0.230E-05 -0.230E-05
 -26.306 -0.236E-05 -0.236E-05
 -26.296 -0.241E-05 -0.241E-05
 -26.286 -0.247E-05 -0.247E-05
 -26.276 -0.252E-05 -0.252E-05
 -26.266 -0.257E-05 -0.257E-05
 -26.256 -0.261E-05 -0.261E-05
 -26.246 -0.266E-05 -0.266E-05
 -26.236 -0.270E-05 -0.270E-05
 -26.226 -0.273E-05 -0.273E-05
 -26.216 -0.277E-05 -0.277E-05
 -26.206 -0.280E-05 -0.280E-05
 -26.196 -0.283E-05 -0.283E-05
 -26.186 -0.285E-05 -0.285E-05
 -26.176 -0.287E-05 -0.287E-05
 -26.166 -0.288E-05 -0.288E-05
 -26.156 -0.288E-05 -0.288E-05
 -26.146 -0.288E-05 -0.288E-05
 -26.136 -0.288E-05 -0.288E-05
 -26.126 -0.286E-05 -0.286E-05
 -26.116 -0.284E-05 -0.284E-05
 -26.106 -0.282E-05 -0.282E-05
 -26.096 -0.278E-05 -0.278E-05
 -26.086 -0.273E-05 -0.273E-05
 -26.076 -0.268E-05 -0.268E-05
 -26.066 -0.262E-05 -0.262E-05
 -26.056 -0.254E-05 -0.254E-05
 -26.046 -0.246E-05 -0.246E-05
 -26.036 -0.237E-05 -0.237E-05
 -26.026 -0.226E-05 -0.226E-05
 -26.016 -0.214E-05 -0.214E-05
 -26.006 -0.201E-05 -0.201E-05
 -25.996 -0.187E-05 -0.187E-05
 -25.986 -0.171E-05 -0.171E-05
 -25.976 -0.154E-05 -0.154E-05
 -25.966 -0.136E-05 -0.136E-05
 -25.956 -0.116E-05 -0.116E-05
 -25.946 -0.947E-06 -0.947E-06
 -25.936 -0.718E-06 -0.718E-06
 -25.926 -0.474E-06 -0.474E-06
 -25.916 -0.213E-06 -0.213E-06
 -25.906  0.651E-07  0.651E-07
 -25.896  0.360E-06  0.360E-06
 -25.886  0.672E-06  0.672E-06
 -25.876  0.100E-05  0.100E-05
 -25.866  0.135E-05  0.135E-05
 -25.856  0.172E-05  0.172E-05
 -25.846  0.210E-05  0.210E-05
 -25.836  0.250E-05  0.250E-05
 -25.826  0.293E-05  0.293E-05
 -25.816  0.337E-05  0.337E-05
 -25.806  0.383E-05  0.383E-05
 -25.796  0.431E-05  0.431E-05
 -25.786  0.481E-05  0.481E-05
 -25.776  0.533E-05  0.533E-05
 -25.766  0.587E-05  0.587E-05
 -25.756  0.643E-05  0.643E-05
 -25.746  0.701E-05  0.701E-05
 -25.736  0.761E-05  0.761E-05
 -25.726  0.822E-05  0.822E-05
 -25.716  0.886E-05  0.886E-05
 -25.706  0.951E-05  0.951E-05
 -25.696  0.102E-04  0.102E-04
 -25.686  0.109E-04  0.109E-04
 -25.676  0.116E-04  0.116E-04
 -25.666  0.123E-04  0.123E-04
 -25.656  0.131E-04  0.131E-04
 -25.646  0.138E-04  0.138E-04
 -25.636  0.146E-04  0.146E-04
 -25.626  0.154E-04  0.154E-04
 -25.616  0.162E-04  0.162E-04
 -25.606  0.170E-04  0.170E-04
 -25.596  0.179E-04  0.179E-04
 -25.586  0.187E-04  0.187E-04
 -25.576  0.196E-04  0.196E-04
 -25.566  0.204E-04  0.204E-04
 -25.556  0.213E-04  0.213E-04
 -25.546  0.222E-04  0.222E-04
 -25.536  0.231E-04  0.231E-04
 -25.526  0.240E-04  0.240E-04
 -25.516  0.249E-04  0.249E-04
 -25.506  0.258E-04  0.258E-04
 -25.496  0.268E-04  0.268E-04
 -25.486  0.277E-04  0.277E-04
 -25.476  0.286E-04  0.286E-04
 -25.466  0.295E-04  0.295E-04
 -25.456  0.305E-04  0.305E-04
 -25.446  0.314E-04  0.314E-04
 -25.436  0.323E-04  0.323E-04
 -25.426  0.332E-04  0.332E-04
 -25.416  0.341E-04  0.341E-04
 -25.406  0.350E-04  0.350E-04
 -25.396  0.359E-04  0.359E-04
 -25.386  0.368E-04  0.368E-04
 -25.376  0.377E-04  0.377E-04
 -25.366  0.385E-04  0.385E-04
 -25.356  0.394E-04  0.394E-04
 -25.346  0.402E-04  0.402E-04
 -25.336  0.410E-04  0.410E-04
 -25.326  0.418E-04  0.418E-04
 -25.316  0.426E-04  0.426E-04
 -25.306  0.434E-04  0.434E-04
 -25.296  0.441E-04  0.441E-04
 -25.286  0.448E-04  0.448E-04
 -25.276  0.455E-04  0.455E-04
 -25.266  0.462E-04  0.462E-04
 -25.256  0.468E-04  0.468E-04
 -25.246  0.474E-04  0.474E-04
 -25.236  0.480E-04  0.480E-04
 -25.226  0.485E-04  0.485E-04
 -25.216  0.490E-04  0.490E-04
 -25.206  0.495E-04  0.495E-04
 -25.196  0.500E-04  0.500E-04
 -25.186  0.504E-04  0.504E-04
 -25.176  0.508E-04  0.508E-04
 -25.166  0.512E-04  0.512E-04
 -25.156  0.515E-04  0.515E-04
 -25.146  0.518E-04  0.518E-04
 -25.136  0.520E-04  0.520E-04
 -25.126  0.522E-04  0.522E-04
 -25.116  0.524E-04  0.524E-04
 -25.106  0.525E-04  0.525E-04
 -25.096  0.526E-04  0.526E-04
 -25.086  0.527E-04  0.527E-04
 -25.076  0.527E-04  0.527E-04
 -25.066  0.527E-04  0.527E-04
 -25.056  0.526E-04  0.526E-04
 -25.046  0.525E-04  0.525E-04
 -25.036  0.524E-04  0.524E-04
 -25.026  0.522E-04  0.522E-04
 -25.016  0.520E-04  0.520E-04
 -25.006  0.518E-04  0.518E-04
 -24.996  0.515E-04  0.515E-04
 -24.986  0.512E-04  0.512E-04
 -24.976  0.509E-04  0.509E-04
 -24.966  0.505E-04  0.505E-04
 -24.956  0.501E-04  0.501E-04
 -24.946  0.496E-04  0.496E-04
 -24.936  0.491E-04  0.491E-04
 -24.926  0.486E-04  0.486E-04
 -24.916  0.481E-04  0.481E-04
 -24.906  0.475E-04  0.475E-04
 -24.896  0.469E-04  0.469E-04
 -24.886  0.463E-04  0.463E-04
 -24.876  0.456E-04  0.456E-04
 -24.866  0.449E-04  0.449E-04
 -24.856  0.442E-04  0.442E-04
 -24.846  0.435E-04  0.435E-04
 -24.836  0.427E-04  0.427E-04
 -24.826  0.420E-04  0.420E-04
 -24.816  0.412E-04  0.412E-04
 -24.806  0.404E-04  0.404E-04
 -24.796  0.395E-04  0.395E-04
 -24.786  0.387E-04  0.387E-04
 -24.776  0.378E-04  0.378E-04
 -24.766  0.370E-04  0.370E-04
 -24.756  0.361E-04  0.361E-04
 -24.746  0.352E-04  0.352E-04
 -24.736  0.343E-04  0.343E-04
 -24.726  0.334E-04  0.334E-04
 -24.716  0.325E-04  0.325E-04
 -24.706  0.316E-04  0.316E-04
 -24.696  0.306E-04  0.306E-04
 -24.686  0.297E-04  0.297E-04
 -24.676  0.288E-04  0.288E-04
 -24.666  0.279E-04  0.279E-04
 -24.656  0.269E-04  0.269E-04
 -24.646  0.260E-04  0.260E-04
 -24.636  0.251E-04  0.251E-04
 -24.626  0.242E-04  0.242E-04
 -24.616  0.233E-04  0.233E-04
 -24.606  0.224E-04  0.224E-04
 -24.596  0.215E-04  0.215E-04
 -24.586  0.206E-04  0.206E-04
 -24.576  0.197E-04  0.197E-04
 -24.566  0.189E-04  0.189E-04
 -24.556  0.180E-04  0.180E-04
 -24.546  0.172E-04  0.172E-04
 -24.536  0.163E-04  0.163E-04
 -24.526  0.155E-04  0.155E-04
 -24.516  0.147E-04  0.147E-04
 -24.506  0.140E-04  0.140E-04
 -24.496  0.132E-04  0.132E-04
 -24.486  0.124E-04  0.124E-04
 -24.476  0.117E-04  0.117E-04
 -24.466  0.110E-04  0.110E-04
 -24.456  0.103E-04  0.103E-04
 -24.446  0.963E-05  0.963E-05
 -24.436  0.897E-05  0.897E-05
 -24.426  0.833E-05  0.833E-05
 -24.416  0.771E-05  0.771E-05
 -24.406  0.711E-05  0.711E-05
 -24.396  0.653E-05  0.653E-05
 -24.386  0.597E-05  0.597E-05
 -24.376  0.542E-05  0.542E-05
 -24.366  0.490E-05  0.490E-05
 -24.356  0.440E-05  0.440E-05
 -24.346  0.391E-05  0.391E-05
 -24.336  0.345E-05  0.345E-05
 -24.326  0.300E-05  0.300E-05
 -24.316  0.258E-05  0.258E-05
 -24.306  0.217E-05  0.217E-05
 -24.296  0.178E-05  0.178E-05
 -24.286  0.141E-05  0.141E-05
 -24.276  0.106E-05  0.106E-05
 -24.266  0.729E-06  0.729E-06
 -24.256  0.414E-06  0.414E-06
 -24.246  0.116E-06  0.116E-06
 -24.236 -0.165E-06 -0.165E-06
 -24.226 -0.429E-06 -0.429E-06
 -24.216 -0.676E-06 -0.676E-06
 -24.206 -0.908E-06 -0.908E-06
 -24.196 -0.112E-05 -0.112E-05
 -24.186 -0.133E-05 -0.133E-05
 -24.176 -0.151E-05 -0.151E-05
 -24.166 -0.168E-05 -0.168E-05
 -24.156 -0.184E-05 -0.184E-05
 -24.146 -0.199E-05 -0.199E-05
 -24.136 -0.212E-05 -0.212E-05
 -24.126 -0.224E-05 -0.224E-05
 -24.116 -0.235E-05 -0.235E-05
 -24.106 -0.244E-05 -0.244E-05
 -24.096 -0.253E-05 -0.253E-05
 -24.086 -0.261E-05 -0.261E-05
 -24.076 -0.267E-05 -0.267E-05
 -24.066 -0.273E-05 -0.273E-05
 -24.056 -0.277E-05 -0.277E-05
 -24.046 -0.281E-05 -0.281E-05
 -24.036 -0.284E-05 -0.284E-05
 -24.026 -0.286E-05 -0.286E-05
 -24.016 -0.288E-05 -0.288E-05
 -24.006 -0.288E-05 -0.288E-05
 -23.996 -0.288E-05 -0.288E-05
 -23.986 -0.288E-05 -0.288E-05
 -23.976 -0.287E-05 -0.287E-05
 -23.966 -0.285E-05 -0.285E-05
 -23.956 -0.283E-05 -0.283E-05
 -23.946 -0.280E-05 -0.280E-05
 -23.936 -0.278E-05 -0.278E-05
 -23.926 -0.274E-05 -0.274E-05
 -23.916 -0.270E-05 -0.270E-05
 -23.906 -0.266E-05 -0.266E-05
 -23.896 -0.262E-05 -0.262E-05
 -23.886 -0.257E-05 -0.257E-05
 -23.876 -0.253E-05 -0.253E-05
 -23.866 -0.248E-05 -0.248E-05
 -23.856 -0.242E-05 -0.242E-05
 -23.846 -0.237E-05 -0.237E-05
 -23.836 -0.231E-05 -0.231E-05
 -23.826 -0.226E-05 -0.226E-05
 -23.816 -0.220E-05 -0.220E-05
 -23.806 -0.214E-05 -0.214E-05
 -23.796 -0.208E-05 -0.208E-05
 -23.786 -0.203E-05 -0.203E-05
 -23.776 -0.197E-05 -0.197E-05
 -23.766 -0.191E-05 -0.191E-05
 -23.756 -0.185E-05 -0.185E-05
 -23.746 -0.179E-05 -0.179E-05
 -23.736 -0.173E-05 -0.173E-05
 -23.726 -0.167E-05 -0.167E-05
 -23.716 -0.162E-05 -0.162E-05
 -23.706 -0.156E-05 -0.156E-05
 -23.696 -0.150E-05 -0.150E-05
 -23.686 -0.145E-05 -0.145E-05
 -23.676 -0.140E-05 -0.140E-05
 -23.666 -0.134E-05 -0.134E-05
 -23.656 -0.129E-05 -0.129E-05
 -23.646 -0.124E-05 -0.124E-05
 -23.636 -0.119E-05 -0.119E-05
 -23.626 -0.114E-05 -0.114E-05
 -23.616 -0.109E-05 -0.109E-05
 -23.606 -0.105E-05 -0.105E-05
 -23.596 -0.100E-05 -0.100E-05
 -23.586 -0.960E-06 -0.960E-06
 -23.576 -0.917E-06 -0.917E-06
 -23.566 -0.876E-06 -0.876E-06
 -23.556 -0.837E-06 -0.837E-06
 -23.546 -0.798E-06 -0.798E-06
 -23.536 -0.761E-06 -0.761E-06
 -23.526 -0.725E-06 -0.725E-06
 -23.516 -0.690E-06 -0.690E-06
 -23.506 -0.657E-06 -0.657E-06
 -23.496 -0.624E-06 -0.624E-06
 -23.486 -0.593E-06 -0.593E-06
 -23.476 -0.563E-06 -0.563E-06
 -23.466 -0.535E-06 -0.535E-06
 -23.456 -0.507E-06 -0.507E-06
 -23.446 -0.481E-06 -0.481E-06
 -23.436 -0.455E-06 -0.455E-06
 -23.426 -0.431E-06 -0.431E-06
 -23.416 -0.408E-06 -0.408E-06
 -23.406 -0.386E-06 -0.386E-06
 -23.396 -0.365E-06 -0.365E-06
 -23.386 -0.344E-06 -0.344E-06
 -23.376 -0.325E-06 -0.325E-06
 -23.366 -0.307E-06 -0.307E-06
 -23.356 -0.289E-06 -0.289E-06
 -23.346 -0.273E-06 -0.273E-06
 -23.336 -0.257E-06 -0.257E-06
 -23.326 -0.242E-06 -0.242E-06
 -23.316 -0.227E-06 -0.227E-06
 -23.306 -0.214E-06 -0.214E-06
 -23.296 -0.201E-06 -0.201E-06
 -23.286 -0.189E-06 -0.189E-06
 -23.276 -0.177E-06 -0.177E-06
 -23.266 -0.166E-06 -0.166E-06
 -23.256 -0.156E-06 -0.156E-06
 -23.246 -0.146E-06 -0.146E-06
 -23.236 -0.137E-06 -0.137E-06
 -23.226 -0.128E-06 -0.128E-06
 -23.216 -0.120E-06 -0.120E-06
 -23.206 -0.112E-06 -0.112E-06
 -23.196 -0.105E-06 -0.105E-06
 -23.186 -0.977E-07 -0.977E-07
 -23.176 -0.912E-07 -0.912E-07
 -23.166 -0.851E-07 -0.851E-07
 -23.156 -0.794E-07 -0.794E-07
 -23.146 -0.740E-07 -0.740E-07
 -23.136 -0.689E-07 -0.689E-07
 -23.126 -0.642E-07 -0.642E-07
 -23.116 -0.597E-07 -0.597E-07
 -23.106 -0.555E-07 -0.555E-07
 -23.096 -0.516E-07 -0.516E-07
 -23.086 -0.480E-07 -0.480E-07
 -23.076 -0.446E-07 -0.446E-07
 -23.066 -0.414E-07 -0.414E-07
 -23.056 -0.384E-07 -0.384E-07
 -23.046 -0.356E-07 -0.356E-07
 -23.036 -0.330E-07 -0.330E-07
 -23.026 -0.306E-07 -0.306E-07
 -23.016 -0.283E-07 -0.283E-07
 -23.006 -0.262E-07 -0.262E-07
 -22.996 -0.242E-07 -0.242E-07
 -22.986 -0.224E-07 -0.224E-07
 -22.976 -0.207E-07 -0.207E-07
 -22.966 -0.191E-07 -0.191E-07
 -22.956 -0.177E-07 -0.177E-07
 -22.946 -0.163E-07 -0.163E-07
 -22.936 -0.151E-07 -0.151E-07
 -22.926 -0.139E-07 -0.139E-07
 -22.916 -0.128E-07 -0.128E-07
 -22.906 -0.118E-07 -0.118E-07
 -22.896 -0.109E-07 -0.109E-07
 -22.886 -0.101E-07 -0.101E-07
 -22.876 -0.930E-08 -0.930E-08
 -22.866 -0.858E-08 -0.858E-08
 -22.856 -0.792E-08 -0.792E-08
 -22.846 -0.732E-08 -0.732E-08
 -22.836 -0.676E-08 -0.676E-08
 -22.826 -0.626E-08 -0.626E-08
 -22.816 -0.580E-08 -0.580E-08
 -22.806 -0.538E-08 -0.538E-08
 -22.796 -0.500E-08 -0.500E-08
 -22.786 -0.466E-08 -0.466E-08
 -22.776 -0.435E-08 -0.435E-08
 -22.766 -0.408E-08 -0.408E-08
 -22.756 -0.384E-08 -0.384E-08
 -22.746 -0.363E-08 -0.363E-08
 -22.736 -0.345E-08 -0.345E-08
 -22.726 -0.330E-08 -0.330E-08
 -22.716 -0.317E-08 -0.317E-08
 -22.706 -0.307E-08 -0.307E-08
 -22.696 -0.300E-08 -0.300E-08
 -22.686 -0.295E-08 -0.295E-08
 -22.676 -0.292E-08 -0.292E-08
 -22.666 -0.292E-08 -0.292E-08
 -22.656 -0.294E-08 -0.294E-08
 -22.646 -0.299E-08 -0.299E-08
 -22.636 -0.307E-08 -0.307E-08
 -22.626 -0.316E-08 -0.316E-08
 -22.616 -0.329E-08 -0.329E-08
 -22.606 -0.344E-08 -0.344E-08
 -22.596 -0.362E-08 -0.362E-08
 -22.586 -0.382E-08 -0.382E-08
 -22.576 -0.406E-08 -0.406E-08
 -22.566 -0.433E-08 -0.433E-08
 -22.556 -0.463E-08 -0.463E-08
 -22.546 -0.496E-08 -0.496E-08
 -22.536 -0.533E-08 -0.533E-08
 -22.526 -0.574E-08 -0.574E-08
 -22.516 -0.619E-08 -0.619E-08
 -22.506 -0.668E-08 -0.668E-08
 -22.496 -0.722E-08 -0.722E-08
 -22.486 -0.781E-08 -0.781E-08
 -22.476 -0.846E-08 -0.846E-08
 -22.466 -0.916E-08 -0.916E-08
 -22.456 -0.991E-08 -0.991E-08
 -22.446 -0.107E-07 -0.107E-07
 -22.436 -0.116E-07 -0.116E-07
 -22.426 -0.126E-07 -0.126E-07
 -22.416 -0.136E-07 -0.136E-07
 -22.406 -0.148E-07 -0.148E-07
 -22.396 -0.160E-07 -0.160E-07
 -22.386 -0.173E-07 -0.173E-07
 -22.376 -0.187E-07 -0.187E-07
 -22.366 -0.202E-07 -0.202E-07
 -22.356 -0.218E-07 -0.218E-07
 -22.346 -0.236E-07 -0.236E-07
 -22.336 -0.254E-07 -0.254E-07
 -22.326 -0.275E-07 -0.275E-07
 -22.316 -0.296E-07 -0.296E-07
 -22.306 -0.319E-07 -0.319E-07
 -22.296 -0.344E-07 -0.344E-07
 -22.286 -0.371E-07 -0.371E-07
 -22.276 -0.399E-07 -0.399E-07
 -22.266 -0.430E-07 -0.430E-07
 -22.256 -0.462E-07 -0.462E-07
 -22.246 -0.497E-07 -0.497E-07
 -22.236 -0.534E-07 -0.534E-07
 -22.226 -0.573E-07 -0.573E-07
 -22.216 -0.615E-07 -0.615E-07
 -22.206 -0.660E-07 -0.660E-07
 -22.196 -0.708E-07 -0.708E-07
 -22.186 -0.758E-07 -0.758E-07
 -22.176 -0.812E-07 -0.812E-07
 -22.166 -0.869E-07 -0.869E-07
 -22.156 -0.930E-07 -0.930E-07
 -22.146 -0.995E-07 -0.995E-07
 -22.136 -0.106E-06 -0.106E-06
 -22.126 -0.114E-06 -0.114E-06
 -22.116 -0.121E-06 -0.121E-06
 -22.106 -0.129E-06 -0.129E-06
 -22.096 -0.138E-06 -0.138E-06
 -22.086 -0.147E-06 -0.147E-06
 -22.076 -0.157E-06 -0.157E-06
 -22.066 -0.167E-06 -0.167E-06
 -22.056 -0.178E-06 -0.178E-06
 -22.046 -0.189E-06 -0.189E-06
 -22.036 -0.201E-06 -0.201E-06
 -22.026 -0.213E-06 -0.213E-06
 -22.016 -0.226E-06 -0.226E-06
 -22.006 -0.240E-06 -0.240E-06
 -21.996 -0.255E-06 -0.255E-06
 -21.986 -0.270E-06 -0.270E-06
 -21.976 -0.286E-06 -0.286E-06
 -21.966 -0.303E-06 -0.303E-06
 -21.956 -0.320E-06 -0.320E-06
 -21.946 -0.339E-06 -0.339E-06
 -21.936 -0.358E-06 -0.358E-06
 -21.926 -0.378E-06 -0.378E-06
 -21.916 -0.399E-06 -0.399E-06
 -21.906 -0.421E-06 -0.421E-06
 -21.896 -0.444E-06 -0.444E-06
 -21.886 -0.467E-06 -0.467E-06
 -21.876 -0.492E-06 -0.492E-06
 -21.866 -0.518E-06 -0.518E-06
 -21.856 -0.545E-06 -0.545E-06
 -21.846 -0.572E-06 -0.572E-06
 -21.836 -0.601E-06 -0.601E-06
 -21.826 -0.631E-06 -0.631E-06
 -21.816 -0.662E-06 -0.662E-06
 -21.806 -0.694E-06 -0.694E-06
 -21.796 -0.727E-06 -0.727E-06
 -21.786 -0.761E-06 -0.761E-06
 -21.776 -0.796E-06 -0.796E-06
 -21.766 -0.832E-06 -0.832E-06
 -21.756 -0.869E-06 -0.869E-06
 -21.746 -0.907E-06 -0.907E-06
 -21.736 -0.946E-06 -0.946E-06
 -21.726 -0.986E-06 -0.986E-06
 -21.716 -0.103E-05 -0.103E-05
 -21.706 -0.107E-05 -0.107E-05
 -21.696 -0.111E-05 -0.111E-05
 -21.686 -0.116E-05 -0.116E-05
 -21.676 -0.120E-05 -0.120E-05
 -21.666 -0.125E-05 -0.125E-05
 -21.656 -0.129E-05 -0.129E-05
 -21.646 -0.134E-05 -0.134E-05
 -21.636 -0.139E-05 -0.139E-05
 -21.626 -0.143E-05 -0.143E-05
 -21.616 -0.148E-05 -0.148E-05
 -21.606 -0.153E-05 -0.153E-05
 -21.596 -0.158E-05 -0.158E-05
 -21.586 -0.163E-05 -0.163E-05
 -21.576 -0.168E-05 -0.168E-05
 -21.566 -0.172E-05 -0.172E-05
 -21.556 -0.177E-05 -0.177E-05
 -21.546 -0.182E-05 -0.182E-05
 -21.536 -0.187E-05 -0.187E-05
 -21.526 -0.191E-05 -0.191E-05
 -21.516 -0.196E-05 -0.196E-05
 -21.506 -0.200E-05 -0.200E-05
 -21.496 -0.205E-05 -0.205E-05
 -21.486 -0.209E-05 -0.209E-05
 -21.476 -0.213E-05 -0.213E-05
 -21.466 -0.217E-05 -0.217E-05
 -21.456 -0.220E-05 -0.220E-05
 -21.446 -0.223E-05 -0.223E-05
 -21.436 -0.226E-05 -0.226E-05
 -21.426 -0.229E-05 -0.229E-05
 -21.416 -0.232E-05 -0.232E-05
 -21.406 -0.234E-05 -0.234E-05
 -21.396 -0.235E-05 -0.235E-05
 -21.386 -0.237E-05 -0.237E-05
 -21.376 -0.237E-05 -0.237E-05
 -21.366 -0.238E-05 -0.238E-05
 -21.356 -0.238E-05 -0.238E-05
 -21.346 -0.237E-05 -0.237E-05
 -21.336 -0.236E-05 -0.236E-05
 -21.326 -0.234E-05 -0.234E-05
 -21.316 -0.231E-05 -0.231E-05
 -21.306 -0.228E-05 -0.228E-05
 -21.296 -0.224E-05 -0.224E-05
 -21.286 -0.220E-05 -0.220E-05
 -21.276 -0.214E-05 -0.214E-05
 -21.266 -0.208E-05 -0.208E-05
 -21.256 -0.201E-05 -0.201E-05
 -21.246 -0.193E-05 -0.193E-05
 -21.236 -0.184E-05 -0.184E-05
 -21.226 -0.174E-05 -0.174E-05
 -21.216 -0.163E-05 -0.163E-05
 -21.206 -0.151E-05 -0.151E-05
 -21.196 -0.137E-05 -0.137E-05
 -21.186 -0.123E-05 -0.123E-05
 -21.176 -0.108E-05 -0.108E-05
 -21.166 -0.910E-06 -0.910E-06
 -21.156 -0.730E-06 -0.730E-06
 -21.146 -0.538E-06 -0.538E-06
 -21.136 -0.332E-06 -0.332E-06
 -21.126 -0.113E-06 -0.113E-06
 -21.116  0.119E-06  0.119E-06
 -21.106  0.366E-06  0.366E-06
 -21.096  0.627E-06  0.627E-06
 -21.086  0.903E-06  0.903E-06
 -21.076  0.119E-05  0.119E-05
 -21.066  0.150E-05  0.150E-05
 -21.056  0.182E-05  0.182E-05
 -21.046  0.216E-05  0.216E-05
 -21.036  0.251E-05  0.251E-05
 -21.026  0.288E-05  0.288E-05
 -21.016  0.326E-05  0.326E-05
 -21.006  0.366E-05  0.366E-05
 -20.996  0.408E-05  0.408E-05
 -20.986  0.451E-05  0.451E-05
 -20.976  0.496E-05  0.496E-05
 -20.966  0.543E-05  0.543E-05
 -20.956  0.591E-05  0.591E-05
 -20.946  0.640E-05  0.640E-05
 -20.936  0.692E-05  0.692E-05
 -20.926  0.744E-05  0.744E-05
 -20.916  0.799E-05  0.799E-05
 -20.906  0.855E-05  0.855E-05
 -20.896  0.912E-05  0.912E-05
 -20.886  0.971E-05  0.971E-05
 -20.876  0.103E-04  0.103E-04
 -20.866  0.109E-04  0.109E-04
 -20.856  0.116E-04  0.116E-04
 -20.846  0.122E-04  0.122E-04
 -20.836  0.129E-04  0.129E-04
 -20.826  0.135E-04  0.135E-04
 -20.816  0.142E-04  0.142E-04
 -20.806  0.149E-04  0.149E-04
 -20.796  0.156E-04  0.156E-04
 -20.786  0.163E-04  0.163E-04
 -20.776  0.170E-04  0.170E-04
 -20.766  0.177E-04  0.177E-04
 -20.756  0.185E-04  0.185E-04
 -20.746  0.192E-04  0.192E-04
 -20.736  0.200E-04  0.200E-04
 -20.726  0.207E-04  0.207E-04
 -20.716  0.215E-04  0.215E-04
 -20.706  0.222E-04  0.222E-04
 -20.696  0.230E-04  0.230E-04
 -20.686  0.237E-04  0.237E-04
 -20.676  0.245E-04  0.245E-04
 -20.666  0.253E-04  0.253E-04
 -20.656  0.260E-04  0.260E-04
 -20.646  0.268E-04  0.268E-04
 -20.636  0.275E-04  0.275E-04
 -20.626  0.283E-04  0.283E-04
 -20.616  0.290E-04  0.290E-04
 -20.606  0.297E-04  0.297E-04
 -20.596  0.304E-04  0.304E-04
 -20.586  0.311E-04  0.311E-04
 -20.576  0.318E-04  0.318E-04
 -20.566  0.325E-04  0.325E-04
 -20.556  0.332E-04  0.332E-04
 -20.546  0.339E-04  0.339E-04
 -20.536  0.345E-04  0.345E-04
 -20.526  0.351E-04  0.351E-04
 -20.516  0.357E-04  0.357E-04
 -20.506  0.363E-04  0.363E-04
 -20.496  0.369E-04  0.369E-04
 -20.486  0.375E-04  0.375E-04
 -20.476  0.380E-04  0.380E-04
 -20.466  0.385E-04  0.385E-04
 -20.456  0.390E-04  0.390E-04
 -20.446  0.394E-04  0.394E-04
 -20.436  0.399E-04  0.399E-04
 -20.426  0.403E-04  0.403E-04
 -20.416  0.407E-04  0.407E-04
 -20.406  0.410E-04  0.410E-04
 -20.396  0.413E-04  0.413E-04
 -20.386  0.416E-04  0.416E-04
 -20.376  0.419E-04  0.419E-04
 -20.366  0.422E-04  0.422E-04
 -20.356  0.424E-04  0.424E-04
 -20.346  0.425E-04  0.425E-04
 -20.336  0.427E-04  0.427E-04
 -20.326  0.428E-04  0.428E-04
 -20.316  0.429E-04  0.429E-04
 -20.306  0.430E-04  0.430E-04
 -20.296  0.430E-04  0.430E-04
 -20.286  0.430E-04  0.430E-04
 -20.276  0.430E-04  0.430E-04
 -20.266  0.429E-04  0.429E-04
 -20.256  0.428E-04  0.428E-04
 -20.246  0.427E-04  0.427E-04
 -20.236  0.425E-04  0.425E-04
 -20.226  0.423E-04  0.423E-04
 -20.216  0.421E-04  0.421E-04
 -20.206  0.418E-04  0.418E-04
 -20.196  0.416E-04  0.416E-04
 -20.186  0.413E-04  0.413E-04
 -20.176  0.409E-04  0.409E-04
 -20.166  0.406E-04  0.406E-04
 -20.156  0.402E-04  0.402E-04
 -20.146  0.398E-04  0.398E-04
 -20.136  0.393E-04  0.393E-04
 -20.126  0.389E-04  0.389E-04
 -20.116  0.384E-04  0.384E-04
 -20.106  0.379E-04  0.379E-04
 -20.096  0.373E-04  0.373E-04
 -20.086  0.368E-04  0.368E-04
 -20.076  0.362E-04  0.362E-04
 -20.066  0.356E-04  0.356E-04
 -20.056  0.350E-04  0.350E-04
 -20.046  0.344E-04  0.344E-04
 -20.036  0.338E-04  0.338E-04
 -20.026  0.331E-04  0.331E-04
 -20.016  0.325E-04  0.325E-04
 -20.006  0.318E-04  0.318E-04
 -19.996  0.311E-04  0.311E-04
 -19.986  0.304E-04  0.304E-04
 -19.976  0.297E-04  0.297E-04
 -19.966  0.290E-04  0.290E-04
 -19.956  0.283E-04  0.283E-04
 -19.946  0.276E-04  0.276E-04
 -19.936  0.269E-04  0.269E-04
 -19.926  0.261E-04  0.261E-04
 -19.916  0.254E-04  0.254E-04
 -19.906  0.247E-04  0.247E-04
 -19.896  0.240E-04  0.240E-04
 -19.886  0.232E-04  0.232E-04
 -19.876  0.225E-04  0.225E-04
 -19.866  0.218E-04  0.218E-04
 -19.856  0.211E-04  0.211E-04
 -19.846  0.204E-04  0.204E-04
 -19.836  0.197E-04  0.197E-04
 -19.826  0.191E-04  0.191E-04
 -19.816  0.184E-04  0.184E-04
 -19.806  0.177E-04  0.177E-04
 -19.796  0.171E-04  0.171E-04
 -19.786  0.164E-04  0.164E-04
 -19.776  0.158E-04  0.158E-04
 -19.766  0.152E-04  0.152E-04
 -19.756  0.146E-04  0.146E-04
 -19.746  0.140E-04  0.140E-04
 -19.736  0.135E-04  0.135E-04
 -19.726  0.129E-04  0.129E-04
 -19.716  0.124E-04  0.124E-04
 -19.706  0.119E-04  0.119E-04
 -19.696  0.114E-04  0.114E-04
 -19.686  0.109E-04  0.109E-04
 -19.676  0.105E-04  0.105E-04
 -19.666  0.101E-04  0.101E-04
 -19.656  0.964E-05  0.964E-05
 -19.646  0.924E-05  0.924E-05
 -19.636  0.887E-05  0.887E-05
 -19.626  0.852E-05  0.852E-05
 -19.616  0.818E-05  0.818E-05
 -19.606  0.787E-05  0.787E-05
 -19.596  0.757E-05  0.757E-05
 -19.586  0.730E-05  0.730E-05
 -19.576  0.704E-05  0.704E-05
 -19.566  0.681E-05  0.681E-05
 -19.556  0.659E-05  0.659E-05
 -19.546  0.640E-05  0.640E-05
 -19.536  0.622E-05  0.622E-05
 -19.526  0.606E-05  0.606E-05
 -19.516  0.593E-05  0.593E-05
 -19.506  0.580E-05  0.580E-05
 -19.496  0.570E-05  0.570E-05
 -19.486  0.562E-05  0.562E-05
 -19.476  0.555E-05  0.555E-05
 -19.466  0.550E-05  0.550E-05
 -19.456  0.546E-05  0.546E-05
 -19.446  0.544E-05  0.544E-05
 -19.436  0.543E-05  0.543E-05
 -19.426  0.544E-05  0.544E-05
 -19.416  0.546E-05  0.546E-05
 -19.406  0.550E-05  0.550E-05
 -19.396  0.555E-05  0.555E-05
 -19.386  0.561E-05  0.561E-05
 -19.376  0.568E-05  0.568E-05
 -19.366  0.576E-05  0.576E-05
 -19.356  0.585E-05  0.585E-05
 -19.346  0.595E-05  0.595E-05
 -19.336  0.606E-05  0.606E-05
 -19.326  0.617E-05  0.617E-05
 -19.316  0.629E-05  0.629E-05
 -19.306  0.642E-05  0.642E-05
 -19.296  0.656E-05  0.656E-05
 -19.286  0.670E-05  0.670E-05
 -19.276  0.684E-05  0.684E-05
 -19.266  0.699E-05  0.699E-05
 -19.256  0.714E-05  0.714E-05
 -19.246  0.730E-05  0.730E-05
 -19.236  0.745E-05  0.745E-05
 -19.226  0.761E-05  0.761E-05
 -19.216  0.777E-05  0.777E-05
 -19.206  0.792E-05  0.792E-05
 -19.196  0.808E-05  0.808E-05
 -19.186  0.823E-05  0.823E-05
 -19.176  0.838E-05  0.838E-05
 -19.166  0.853E-05  0.853E-05
 -19.156  0.868E-05  0.868E-05
 -19.146  0.882E-05  0.882E-05
 -19.136  0.896E-05  0.896E-05
 -19.126  0.910E-05  0.910E-05
 -19.116  0.923E-05  0.923E-05
 -19.106  0.935E-05  0.935E-05
 -19.096  0.947E-05  0.947E-05
 -19.086  0.958E-05  0.958E-05
 -19.076  0.969E-05  0.969E-05
 -19.066  0.979E-05  0.979E-05
 -19.056  0.988E-05  0.988E-05
 -19.046  0.996E-05  0.996E-05
 -19.036  0.100E-04  0.100E-04
 -19.026  0.101E-04  0.101E-04
 -19.016  0.102E-04  0.102E-04
 -19.006  0.102E-04  0.102E-04
 -18.996  0.103E-04  0.103E-04
 -18.986  0.103E-04  0.103E-04
 -18.976  0.103E-04  0.103E-04
 -18.966  0.103E-04  0.103E-04
 -18.956  0.104E-04  0.104E-04
 -18.946  0.104E-04  0.104E-04
 -18.936  0.103E-04  0.103E-04
 -18.926  0.103E-04  0.103E-04
 -18.916  0.103E-04  0.103E-04
 -18.906  0.103E-04  0.103E-04
 -18.896  0.102E-04  0.102E-04
 -18.886  0.102E-04  0.102E-04
 -18.876  0.101E-04  0.101E-04
 -18.866  0.100E-04  0.100E-04
 -18.856  0.997E-05  0.997E-05
 -18.846  0.988E-05  0.988E-05
 -18.836  0.979E-05  0.979E-05
 -18.826  0.968E-05  0.968E-05
 -18.816  0.958E-05  0.958E-05
 -18.806  0.946E-05  0.946E-05
 -18.796  0.934E-05  0.934E-05
 -18.786  0.921E-05  0.921E-05
 -18.776  0.907E-05  0.907E-05
 -18.766  0.892E-05  0.892E-05
 -18.756  0.878E-05  0.878E-05
 -18.746  0.862E-05  0.862E-05
 -18.736  0.846E-05  0.846E-05
 -18.726  0.829E-05  0.829E-05
 -18.716  0.812E-05  0.812E-05
 -18.706  0.795E-05  0.795E-05
 -18.696  0.777E-05  0.777E-05
 -18.686  0.758E-05  0.758E-05
 -18.676  0.739E-05  0.739E-05
 -18.666  0.720E-05  0.720E-05
 -18.656  0.701E-05  0.701E-05
 -18.646  0.681E-05  0.681E-05
 -18.636  0.661E-05  0.661E-05
 -18.626  0.640E-05  0.640E-05
 -18.616  0.620E-05  0.620E-05
 -18.606  0.599E-05  0.599E-05
 -18.596  0.578E-05  0.578E-05
 -18.586  0.558E-05  0.558E-05
 -18.576  0.537E-05  0.537E-05
 -18.566  0.515E-05  0.515E-05
 -18.556  0.494E-05  0.494E-05
 -18.546  0.473E-05  0.473E-05
 -18.536  0.452E-05  0.452E-05
 -18.526  0.431E-05  0.431E-05
 -18.516  0.410E-05  0.410E-05
 -18.506  0.389E-05  0.389E-05
 -18.496  0.368E-05  0.368E-05
 -18.486  0.347E-05  0.347E-05
 -18.476  0.326E-05  0.326E-05
 -18.466  0.306E-05  0.306E-05
 -18.456  0.285E-05  0.285E-05
 -18.446  0.265E-05  0.265E-05
 -18.436  0.245E-05  0.245E-05
 -18.426  0.226E-05  0.226E-05
 -18.416  0.206E-05  0.206E-05
 -18.406  0.187E-05  0.187E-05
 -18.396  0.168E-05  0.168E-05
 -18.386  0.149E-05  0.149E-05
 -18.376  0.130E-05  0.130E-05
 -18.366  0.112E-05  0.112E-05
 -18.356  0.940E-06  0.940E-06
 -18.346  0.763E-06  0.763E-06
 -18.336  0.589E-06  0.589E-06
 -18.326  0.418E-06  0.418E-06
 -18.316  0.250E-06  0.250E-06
 -18.306  0.856E-07  0.856E-07
 -18.296 -0.758E-07 -0.758E-07
 -18.286 -0.234E-06 -0.234E-06
 -18.276 -0.389E-06 -0.389E-06
 -18.266 -0.540E-06 -0.540E-06
 -18.256 -0.689E-06 -0.689E-06
 -18.246 -0.833E-06 -0.833E-06
 -18.236 -0.975E-06 -0.975E-06
 -18.226 -0.111E-05 -0.111E-05
 -18.216 -0.125E-05 -0.125E-05
 -18.206 -0.138E-05 -0.138E-05
 -18.196 -0.150E-05 -0.150E-05
 -18.186 -0.163E-05 -0.163E-05
 -18.176 -0.175E-05 -0.175E-05
 -18.166 -0.186E-05 -0.186E-05
 -18.156 -0.198E-05 -0.198E-05
 -18.146 -0.208E-05 -0.208E-05
 -18.136 -0.219E-05 -0.219E-05
 -18.126 -0.229E-05 -0.229E-05
 -18.116 -0.238E-05 -0.238E-05
 -18.106 -0.248E-05 -0.248E-05
 -18.096 -0.256E-05 -0.256E-05
 -18.086 -0.265E-05 -0.265E-05
 -18.076 -0.273E-05 -0.273E-05
 -18.066 -0.280E-05 -0.280E-05
 -18.056 -0.287E-05 -0.287E-05
 -18.046 -0.293E-05 -0.293E-05
 -18.036 -0.299E-05 -0.299E-05
 -18.026 -0.305E-05 -0.305E-05
 -18.016 -0.309E-05 -0.309E-05
 -18.006 -0.314E-05 -0.314E-05
 -17.996 -0.317E-05 -0.317E-05
 -17.986 -0.321E-05 -0.321E-05
 -17.976 -0.323E-05 -0.323E-05
 -17.966 -0.325E-05 -0.325E-05
 -17.956 -0.326E-05 -0.326E-05
 -17.946 -0.326E-05 -0.326E-05
 -17.936 -0.326E-05 -0.326E-05
 -17.926 -0.325E-05 -0.325E-05
 -17.916 -0.323E-05 -0.323E-05
 -17.906 -0.321E-05 -0.321E-05
 -17.896 -0.317E-05 -0.317E-05
 -17.886 -0.313E-05 -0.313E-05
 -17.876 -0.308E-05 -0.308E-05
 -17.866 -0.302E-05 -0.302E-05
 -17.856 -0.294E-05 -0.294E-05
 -17.846 -0.286E-05 -0.286E-05
 -17.836 -0.277E-05 -0.277E-05
 -17.826 -0.267E-05 -0.267E-05
 -17.816 -0.255E-05 -0.255E-05
 -17.806 -0.243E-05 -0.243E-05
 -17.796 -0.229E-05 -0.229E-05
 -17.786 -0.214E-05 -0.214E-05
 -17.776 -0.198E-05 -0.198E-05
 -17.766 -0.181E-05 -0.181E-05
 -17.756 -0.162E-05 -0.162E-05
 -17.746 -0.142E-05 -0.142E-05
 -17.736 -0.120E-05 -0.120E-05
 -17.726 -0.971E-06 -0.971E-06
 -17.716 -0.727E-06 -0.727E-06
 -17.706 -0.468E-06 -0.468E-06
 -17.696 -0.194E-06 -0.194E-06
 -17.686  0.959E-07  0.959E-07
 -17.676  0.401E-06  0.401E-06
 -17.666  0.723E-06  0.723E-06
 -17.656  0.106E-05  0.106E-05
 -17.646  0.141E-05  0.141E-05
 -17.636  0.178E-05  0.178E-05
 -17.626  0.217E-05  0.217E-05
 -17.616  0.258E-05  0.258E-05
 -17.606  0.300E-05  0.300E-05
 -17.596  0.344E-05  0.344E-05
 -17.586  0.389E-05  0.389E-05
 -17.576  0.436E-05  0.436E-05
 -17.566  0.485E-05  0.485E-05
 -17.556  0.536E-05  0.536E-05
 -17.546  0.589E-05  0.589E-05
 -17.536  0.643E-05  0.643E-05
 -17.526  0.699E-05  0.699E-05
 -17.516  0.756E-05  0.756E-05
 -17.506  0.815E-05  0.815E-05
 -17.496  0.876E-05  0.876E-05
 -17.486  0.939E-05  0.939E-05
 -17.476  0.100E-04  0.100E-04
 -17.466  0.107E-04  0.107E-04
 -17.456  0.114E-04  0.114E-04
 -17.446  0.120E-04  0.120E-04
 -17.436  0.127E-04  0.127E-04
 -17.426  0.134E-04  0.134E-04
 -17.416  0.142E-04  0.142E-04
 -17.406  0.149E-04  0.149E-04
 -17.396  0.157E-04  0.157E-04
 -17.386  0.164E-04  0.164E-04
 -17.376  0.172E-04  0.172E-04
 -17.366  0.180E-04  0.180E-04
 -17.356  0.188E-04  0.188E-04
 -17.346  0.196E-04  0.196E-04
 -17.336  0.204E-04  0.204E-04
 -17.326  0.212E-04  0.212E-04
 -17.316  0.220E-04  0.220E-04
 -17.306  0.228E-04  0.228E-04
 -17.296  0.237E-04  0.237E-04
 -17.286  0.245E-04  0.245E-04
 -17.276  0.253E-04  0.253E-04
 -17.266  0.261E-04  0.261E-04
 -17.256  0.270E-04  0.270E-04
 -17.246  0.278E-04  0.278E-04
 -17.236  0.286E-04  0.286E-04
 -17.226  0.295E-04  0.295E-04
 -17.216  0.303E-04  0.303E-04
 -17.206  0.311E-04  0.311E-04
 -17.196  0.319E-04  0.319E-04
 -17.186  0.327E-04  0.327E-04
 -17.176  0.335E-04  0.335E-04
 -17.166  0.342E-04  0.342E-04
 -17.156  0.350E-04  0.350E-04
 -17.146  0.358E-04  0.358E-04
 -17.136  0.365E-04  0.365E-04
 -17.126  0.372E-04  0.372E-04
 -17.116  0.379E-04  0.379E-04
 -17.106  0.386E-04  0.386E-04
 -17.096  0.393E-04  0.393E-04
 -17.086  0.399E-04  0.399E-04
 -17.076  0.406E-04  0.406E-04
 -17.066  0.412E-04  0.412E-04
 -17.056  0.418E-04  0.418E-04
 -17.046  0.423E-04  0.423E-04
 -17.036  0.429E-04  0.429E-04
 -17.026  0.434E-04  0.434E-04
 -17.016  0.439E-04  0.439E-04
 -17.006  0.443E-04  0.443E-04
 -16.996  0.448E-04  0.448E-04
 -16.986  0.452E-04  0.452E-04
 -16.976  0.456E-04  0.456E-04
 -16.966  0.459E-04  0.459E-04
 -16.956  0.462E-04  0.462E-04
 -16.946  0.465E-04  0.465E-04
 -16.936  0.468E-04  0.468E-04
 -16.926  0.470E-04  0.470E-04
 -16.916  0.472E-04  0.472E-04
 -16.906  0.474E-04  0.474E-04
 -16.896  0.475E-04  0.475E-04
 -16.886  0.476E-04  0.476E-04
 -16.876  0.477E-04  0.477E-04
 -16.866  0.477E-04  0.477E-04
 -16.856  0.477E-04  0.477E-04
 -16.846  0.477E-04  0.477E-04
 -16.836  0.476E-04  0.476E-04
 -16.826  0.475E-04  0.475E-04
 -16.816  0.474E-04  0.474E-04
 -16.806  0.473E-04  0.473E-04
 -16.796  0.471E-04  0.471E-04
 -16.786  0.469E-04  0.469E-04
 -16.776  0.466E-04  0.466E-04
 -16.766  0.464E-04  0.464E-04
 -16.756  0.461E-04  0.461E-04
 -16.746  0.458E-04  0.458E-04
 -16.736  0.454E-04  0.454E-04
 -16.726  0.450E-04  0.450E-04
 -16.716  0.446E-04  0.446E-04
 -16.706  0.442E-04  0.442E-04
 -16.696  0.438E-04  0.438E-04
 -16.686  0.433E-04  0.433E-04
 -16.676  0.428E-04  0.428E-04
 -16.666  0.423E-04  0.423E-04
 -16.656  0.417E-04  0.417E-04
 -16.646  0.412E-04  0.412E-04
 -16.636  0.406E-04  0.406E-04
 -16.626  0.400E-04  0.400E-04
 -16.616  0.394E-04  0.394E-04
 -16.606  0.388E-04  0.388E-04
 -16.596  0.382E-04  0.382E-04
 -16.586  0.375E-04  0.375E-04
 -16.576  0.369E-04  0.369E-04
 -16.566  0.362E-04  0.362E-04
 -16.556  0.355E-04  0.355E-04
 -16.546  0.348E-04  0.348E-04
 -16.536  0.341E-04  0.341E-04
 -16.526  0.334E-04  0.334E-04
 -16.516  0.327E-04  0.327E-04
 -16.506  0.320E-04  0.320E-04
 -16.496  0.313E-04  0.313E-04
 -16.486  0.306E-04  0.306E-04
 -16.476  0.299E-04  0.299E-04
 -16.466  0.292E-04  0.292E-04
 -16.456  0.284E-04  0.284E-04
 -16.446  0.277E-04  0.277E-04
 -16.436  0.270E-04  0.270E-04
 -16.426  0.263E-04  0.263E-04
 -16.416  0.256E-04  0.256E-04
 -16.406  0.249E-04  0.249E-04
 -16.396  0.242E-04  0.242E-04
 -16.386  0.235E-04  0.235E-04
 -16.376  0.228E-04  0.228E-04
 -16.366  0.222E-04  0.222E-04
 -16.356  0.215E-04  0.215E-04
 -16.346  0.208E-04  0.208E-04
 -16.336  0.202E-04  0.202E-04
 -16.326  0.196E-04  0.196E-04
 -16.316  0.189E-04  0.189E-04
 -16.306  0.183E-04  0.183E-04
 -16.296  0.177E-04  0.177E-04
 -16.286  0.171E-04  0.171E-04
 -16.276  0.165E-04  0.165E-04
 -16.266  0.160E-04  0.160E-04
 -16.256  0.154E-04  0.154E-04
 -16.246  0.149E-04  0.149E-04
 -16.236  0.143E-04  0.143E-04
 -16.226  0.138E-04  0.138E-04
 -16.216  0.133E-04  0.133E-04
 -16.206  0.128E-04  0.128E-04
 -16.196  0.123E-04  0.123E-04
 -16.186  0.119E-04  0.119E-04
 -16.176  0.114E-04  0.114E-04
 -16.166  0.110E-04  0.110E-04
 -16.156  0.105E-04  0.105E-04
 -16.146  0.101E-04  0.101E-04
 -16.136  0.973E-05  0.973E-05
 -16.126  0.934E-05  0.934E-05
 -16.116  0.897E-05  0.897E-05
 -16.106  0.861E-05  0.861E-05
 -16.096  0.825E-05  0.825E-05
 -16.086  0.791E-05  0.791E-05
 -16.076  0.759E-05  0.759E-05
 -16.066  0.727E-05  0.727E-05
 -16.056  0.696E-05  0.696E-05
 -16.046  0.667E-05  0.667E-05
 -16.036  0.639E-05  0.639E-05
 -16.026  0.611E-05  0.611E-05
 -16.016  0.585E-05  0.585E-05
 -16.006  0.560E-05  0.560E-05
 -15.996  0.535E-05  0.535E-05
 -15.986  0.512E-05  0.512E-05
 -15.976  0.489E-05  0.489E-05
 -15.966  0.468E-05  0.468E-05
 -15.956  0.447E-05  0.447E-05
 -15.946  0.427E-05  0.427E-05
 -15.936  0.407E-05  0.407E-05
 -15.926  0.389E-05  0.389E-05
 -15.916  0.371E-05  0.371E-05
 -15.906  0.354E-05  0.354E-05
 -15.896  0.337E-05  0.337E-05
 -15.886  0.322E-05  0.322E-05
 -15.876  0.306E-05  0.306E-05
 -15.866  0.292E-05  0.292E-05
 -15.856  0.277E-05  0.277E-05
 -15.846  0.264E-05  0.264E-05
 -15.836  0.251E-05  0.251E-05
 -15.826  0.238E-05  0.238E-05
 -15.816  0.226E-05  0.226E-05
 -15.806  0.214E-05  0.214E-05
 -15.796  0.203E-05  0.203E-05
 -15.786  0.192E-05  0.192E-05
 -15.776  0.181E-05  0.181E-05
 -15.766  0.171E-05  0.171E-05
 -15.756  0.161E-05  0.161E-05
 -15.746  0.151E-05  0.151E-05
 -15.736  0.141E-05  0.141E-05
 -15.726  0.132E-05  0.132E-05
 -15.716  0.123E-05  0.123E-05
 -15.706  0.115E-05  0.115E-05
 -15.696  0.106E-05  0.106E-05
 -15.686  0.981E-06  0.981E-06
 -15.676  0.900E-06  0.900E-06
 -15.666  0.822E-06  0.822E-06
 -15.656  0.745E-06  0.745E-06
 -15.646  0.670E-06  0.670E-06
 -15.636  0.597E-06  0.597E-06
 -15.626  0.525E-06  0.525E-06
 -15.616  0.454E-06  0.454E-06
 -15.606  0.385E-06  0.385E-06
 -15.596  0.316E-06  0.316E-06
 -15.586  0.249E-06  0.249E-06
 -15.576  0.183E-06  0.183E-06
 -15.566  0.118E-06  0.118E-06
 -15.556  0.537E-07  0.537E-07
 -15.546 -0.977E-08 -0.977E-08
 -15.536 -0.725E-07 -0.725E-07
 -15.526 -0.134E-06 -0.134E-06
 -15.516 -0.196E-06 -0.196E-06
 -15.506 -0.257E-06 -0.257E-06
 -15.496 -0.317E-06 -0.317E-06
 -15.486 -0.377E-06 -0.377E-06
 -15.476 -0.436E-06 -0.436E-06
 -15.466 -0.495E-06 -0.495E-06
 -15.456 -0.553E-06 -0.553E-06
 -15.446 -0.612E-06 -0.612E-06
 -15.436 -0.670E-06 -0.670E-06
 -15.426 -0.728E-06 -0.728E-06
 -15.416 -0.786E-06 -0.786E-06
 -15.406 -0.843E-06 -0.843E-06
 -15.396 -0.901E-06 -0.901E-06
 -15.386 -0.959E-06 -0.959E-06
 -15.376 -0.102E-05 -0.102E-05
 -15.366 -0.107E-05 -0.107E-05
 -15.356 -0.113E-05 -0.113E-05
 -15.346 -0.119E-05 -0.119E-05
 -15.336 -0.125E-05 -0.125E-05
 -15.326 -0.131E-05 -0.131E-05
 -15.316 -0.137E-05 -0.137E-05
 -15.306 -0.143E-05 -0.143E-05
 -15.296 -0.149E-05 -0.149E-05
 -15.286 -0.155E-05 -0.155E-05
 -15.276 -0.161E-05 -0.161E-05
 -15.266 -0.167E-05 -0.167E-05
 -15.256 -0.173E-05 -0.173E-05
 -15.246 -0.179E-05 -0.179E-05
 -15.236 -0.185E-05 -0.185E-05
 -15.226 -0.191E-05 -0.191E-05
 -15.216 -0.198E-05 -0.198E-05
 -15.206 -0.204E-05 -0.204E-05
 -15.196 -0.210E-05 -0.210E-05
 -15.186 -0.217E-05 -0.217E-05
 -15.176 -0.223E-05 -0.223E-05
 -15.166 -0.230E-05 -0.230E-05
 -15.156 -0.236E-05 -0.236E-05
 -15.146 -0.243E-05 -0.243E-05
 -15.136 -0.250E-05 -0.250E-05
 -15.126 -0.256E-05 -0.256E-05
 -15.116 -0.263E-05 -0.263E-05
 -15.106 -0.269E-05 -0.269E-05
 -15.096 -0.276E-05 -0.276E-05
 -15.086 -0.283E-05 -0.283E-05
 -15.076 -0.289E-05 -0.289E-05
 -15.066 -0.296E-05 -0.296E-05
 -15.056 -0.302E-05 -0.302E-05
 -15.046 -0.308E-05 -0.308E-05
 -15.036 -0.315E-05 -0.315E-05
 -15.026 -0.321E-05 -0.321E-05
 -15.016 -0.327E-05 -0.327E-05
 -15.006 -0.333E-05 -0.333E-05
 -14.996 -0.338E-05 -0.338E-05
 -14.986 -0.344E-05 -0.344E-05
 -14.976 -0.349E-05 -0.349E-05
 -14.966 -0.354E-05 -0.354E-05
 -14.956 -0.359E-05 -0.359E-05
 -14.946 -0.363E-05 -0.363E-05
 -14.936 -0.368E-05 -0.368E-05
 -14.926 -0.371E-05 -0.371E-05
 -14.916 -0.375E-05 -0.375E-05
 -14.906 -0.378E-05 -0.378E-05
 -14.896 -0.380E-05 -0.380E-05
 -14.886 -0.382E-05 -0.382E-05
 -14.876 -0.383E-05 -0.383E-05
 -14.866 -0.384E-05 -0.384E-05
 -14.856 -0.384E-05 -0.384E-05
 -14.846 -0.384E-05 -0.384E-05
 -14.836 -0.382E-05 -0.382E-05
 -14.826 -0.380E-05 -0.380E-05
 -14.816 -0.378E-05 -0.378E-05
 -14.806 -0.374E-05 -0.374E-05
 -14.796 -0.370E-05 -0.370E-05
 -14.786 -0.364E-05 -0.364E-05
 -14.776 -0.358E-05 -0.358E-05
 -14.766 -0.350E-05 -0.350E-05
 -14.756 -0.341E-05 -0.341E-05
 -14.746 -0.332E-05 -0.332E-05
 -14.736 -0.321E-05 -0.321E-05
 -14.726 -0.308E-05 -0.308E-05
 -14.716 -0.295E-05 -0.295E-05
 -14.706 -0.280E-05 -0.280E-05
 -14.696 -0.264E-05 -0.264E-05
 -14.686 -0.246E-05 -0.246E-05
 -14.676 -0.227E-05 -0.227E-05
 -14.666 -0.206E-05 -0.206E-05
 -14.656 -0.184E-05 -0.184E-05
 -14.646 -0.160E-05 -0.160E-05
 -14.636 -0.134E-05 -0.134E-05
 -14.626 -0.107E-05 -0.107E-05
 -14.616 -0.777E-06 -0.777E-06
 -14.606 -0.467E-06 -0.467E-06
 -14.596 -0.139E-06 -0.139E-06
 -14.586  0.207E-06  0.207E-06
 -14.576  0.573E-06  0.573E-06
 -14.566  0.959E-06  0.959E-06
 -14.556  0.136E-05  0.136E-05
 -14.546  0.179E-05  0.179E-05
 -14.536  0.224E-05  0.224E-05
 -14.526  0.270E-05  0.270E-05
 -14.516  0.319E-05  0.319E-05
 -14.506  0.370E-05  0.370E-05
 -14.496  0.423E-05  0.423E-05
 -14.486  0.478E-05  0.478E-05
 -14.476  0.535E-05  0.535E-05
 -14.466  0.594E-05  0.594E-05
 -14.456  0.655E-05  0.655E-05
 -14.446  0.719E-05  0.719E-05
 -14.436  0.784E-05  0.784E-05
 -14.426  0.852E-05  0.852E-05
 -14.416  0.921E-05  0.921E-05
 -14.406  0.993E-05  0.993E-05
 -14.396  0.107E-04  0.107E-04
 -14.386  0.114E-04  0.114E-04
 -14.376  0.122E-04  0.122E-04
 -14.366  0.130E-04  0.130E-04
 -14.356  0.138E-04  0.138E-04
 -14.346  0.146E-04  0.146E-04
 -14.336  0.155E-04  0.155E-04
 -14.326  0.164E-04  0.164E-04
 -14.316  0.172E-04  0.172E-04
 -14.306  0.181E-04  0.181E-04
 -14.296  0.191E-04  0.191E-04
 -14.286  0.200E-04  0.200E-04
 -14.276  0.209E-04  0.209E-04
 -14.266  0.219E-04  0.219E-04
 -14.256  0.228E-04  0.228E-04
 -14.246  0.238E-04  0.238E-04
 -14.236  0.248E-04  0.248E-04
 -14.226  0.258E-04  0.258E-04
 -14.216  0.268E-04  0.268E-04
 -14.206  0.278E-04  0.278E-04
 -14.196  0.288E-04  0.288E-04
 -14.186  0.299E-04  0.299E-04
 -14.176  0.309E-04  0.309E-04
 -14.166  0.319E-04  0.319E-04
 -14.156  0.329E-04  0.329E-04
 -14.146  0.340E-04  0.340E-04
 -14.136  0.350E-04  0.350E-04
 -14.126  0.360E-04  0.360E-04
 -14.116  0.371E-04  0.371E-04
 -14.106  0.381E-04  0.381E-04
 -14.096  0.391E-04  0.391E-04
 -14.086  0.401E-04  0.401E-04
 -14.076  0.411E-04  0.411E-04
 -14.066  0.421E-04  0.421E-04
 -14.056  0.431E-04  0.431E-04
 -14.046  0.441E-04  0.441E-04
 -14.036  0.450E-04  0.450E-04
 -14.026  0.460E-04  0.460E-04
 -14.016  0.469E-04  0.469E-04
 -14.006  0.479E-04  0.479E-04
 -13.996  0.488E-04  0.488E-04
 -13.986  0.497E-04  0.497E-04
 -13.976  0.506E-04  0.506E-04
 -13.966  0.514E-04  0.514E-04
 -13.956  0.523E-04  0.523E-04
 -13.946  0.531E-04  0.531E-04
 -13.936  0.539E-04  0.539E-04
 -13.926  0.547E-04  0.547E-04
 -13.916  0.555E-04  0.555E-04
 -13.906  0.562E-04  0.562E-04
 -13.896  0.569E-04  0.569E-04
 -13.886  0.577E-04  0.577E-04
 -13.876  0.583E-04  0.583E-04
 -13.866  0.590E-04  0.590E-04
 -13.856  0.596E-04  0.596E-04
 -13.846  0.603E-04  0.603E-04
 -13.836  0.609E-04  0.609E-04
 -13.826  0.614E-04  0.614E-04
 -13.816  0.620E-04  0.620E-04
 -13.806  0.625E-04  0.625E-04
 -13.796  0.630E-04  0.630E-04
 -13.786  0.635E-04  0.635E-04
 -13.776  0.640E-04  0.640E-04
 -13.766  0.644E-04  0.644E-04
 -13.756  0.649E-04  0.649E-04
 -13.746  0.653E-04  0.653E-04
 -13.736  0.657E-04  0.657E-04
 -13.726  0.660E-04  0.660E-04
 -13.716  0.664E-04  0.664E-04
 -13.706  0.667E-04  0.667E-04
 -13.696  0.671E-04  0.671E-04
 -13.686  0.674E-04  0.674E-04
 -13.676  0.677E-04  0.677E-04
 -13.666  0.679E-04  0.679E-04
 -13.656  0.682E-04  0.682E-04
 -13.646  0.684E-04  0.684E-04
 -13.636  0.687E-04  0.687E-04
 -13.626  0.689E-04  0.689E-04
 -13.616  0.691E-04  0.691E-04
 -13.606  0.693E-04  0.693E-04
 -13.596  0.695E-04  0.695E-04
 -13.586  0.697E-04  0.697E-04
 -13.576  0.699E-04  0.699E-04
 -13.566  0.701E-04  0.701E-04
 -13.556  0.702E-04  0.702E-04
 -13.546  0.704E-04  0.704E-04
 -13.536  0.706E-04  0.706E-04
 -13.526  0.707E-04  0.707E-04
 -13.516  0.709E-04  0.709E-04
 -13.506  0.711E-04  0.711E-04
 -13.496  0.712E-04  0.712E-04
 -13.486  0.714E-04  0.714E-04
 -13.476  0.715E-04  0.715E-04
 -13.466  0.717E-04  0.717E-04
 -13.456  0.718E-04  0.718E-04
 -13.446  0.720E-04  0.720E-04
 -13.436  0.722E-04  0.722E-04
 -13.426  0.723E-04  0.723E-04
 -13.416  0.725E-04  0.725E-04
 -13.406  0.727E-04  0.727E-04
 -13.396  0.728E-04  0.728E-04
 -13.386  0.730E-04  0.730E-04
 -13.376  0.732E-04  0.732E-04
 -13.366  0.734E-04  0.734E-04
 -13.356  0.735E-04  0.735E-04
 -13.346  0.737E-04  0.737E-04
 -13.336  0.739E-04  0.739E-04
 -13.326  0.741E-04  0.741E-04
 -13.316  0.743E-04  0.743E-04
 -13.306  0.745E-04  0.745E-04
 -13.296  0.747E-04  0.747E-04
 -13.286  0.748E-04  0.748E-04
 -13.276  0.750E-04  0.750E-04
 -13.266  0.752E-04  0.752E-04
 -13.256  0.754E-04  0.754E-04
 -13.246  0.756E-04  0.756E-04
 -13.236  0.757E-04  0.757E-04
 -13.226  0.759E-04  0.759E-04
 -13.216  0.761E-04  0.761E-04
 -13.206  0.762E-04  0.762E-04
 -13.196  0.763E-04  0.763E-04
 -13.186  0.765E-04  0.765E-04
 -13.176  0.766E-04  0.766E-04
 -13.166  0.767E-04  0.767E-04
 -13.156  0.768E-04  0.768E-04
 -13.146  0.769E-04  0.769E-04
 -13.136  0.769E-04  0.769E-04
 -13.126  0.770E-04  0.770E-04
 -13.116  0.770E-04  0.770E-04
 -13.106  0.770E-04  0.770E-04
 -13.096  0.770E-04  0.770E-04
 -13.086  0.770E-04  0.770E-04
 -13.076  0.770E-04  0.770E-04
 -13.066  0.769E-04  0.769E-04
 -13.056  0.768E-04  0.768E-04
 -13.046  0.767E-04  0.767E-04
 -13.036  0.765E-04  0.765E-04
 -13.026  0.764E-04  0.764E-04
 -13.016  0.761E-04  0.761E-04
 -13.006  0.759E-04  0.759E-04
 -12.996  0.757E-04  0.757E-04
 -12.986  0.754E-04  0.754E-04
 -12.976  0.750E-04  0.750E-04
 -12.966  0.747E-04  0.747E-04
 -12.956  0.743E-04  0.743E-04
 -12.946  0.739E-04  0.739E-04
 -12.936  0.734E-04  0.734E-04
 -12.926  0.730E-04  0.730E-04
 -12.916  0.724E-04  0.724E-04
 -12.906  0.719E-04  0.719E-04
 -12.896  0.713E-04  0.713E-04
 -12.886  0.707E-04  0.707E-04
 -12.876  0.700E-04  0.700E-04
 -12.866  0.693E-04  0.693E-04
 -12.856  0.686E-04  0.686E-04
 -12.846  0.679E-04  0.679E-04
 -12.836  0.671E-04  0.671E-04
 -12.826  0.662E-04  0.662E-04
 -12.816  0.654E-04  0.654E-04
 -12.806  0.645E-04  0.645E-04
 -12.796  0.636E-04  0.636E-04
 -12.786  0.626E-04  0.626E-04
 -12.776  0.616E-04  0.616E-04
 -12.766  0.606E-04  0.606E-04
 -12.756  0.596E-04  0.596E-04
 -12.746  0.585E-04  0.585E-04
 -12.736  0.574E-04  0.574E-04
 -12.726  0.563E-04  0.563E-04
 -12.716  0.551E-04  0.551E-04
 -12.706  0.540E-04  0.540E-04
 -12.696  0.528E-04  0.528E-04
 -12.686  0.516E-04  0.516E-04
 -12.676  0.503E-04  0.503E-04
 -12.666  0.491E-04  0.491E-04
 -12.656  0.478E-04  0.478E-04
 -12.646  0.465E-04  0.465E-04
 -12.636  0.452E-04  0.452E-04
 -12.626  0.439E-04  0.439E-04
 -12.616  0.425E-04  0.425E-04
 -12.606  0.412E-04  0.412E-04
 -12.596  0.399E-04  0.399E-04
 -12.586  0.385E-04  0.385E-04
 -12.576  0.371E-04  0.371E-04
 -12.566  0.358E-04  0.358E-04
 -12.556  0.344E-04  0.344E-04
 -12.546  0.330E-04  0.330E-04
 -12.536  0.316E-04  0.316E-04
 -12.526  0.303E-04  0.303E-04
 -12.516  0.289E-04  0.289E-04
 -12.506  0.275E-04  0.275E-04
 -12.496  0.262E-04  0.262E-04
 -12.486  0.248E-04  0.248E-04
 -12.476  0.235E-04  0.235E-04
 -12.466  0.221E-04  0.221E-04
 -12.456  0.208E-04  0.208E-04
 -12.446  0.195E-04  0.195E-04
 -12.436  0.182E-04  0.182E-04
 -12.426  0.170E-04  0.170E-04
 -12.416  0.157E-04  0.157E-04
 -12.406  0.145E-04  0.145E-04
 -12.396  0.133E-04  0.133E-04
 -12.386  0.121E-04  0.121E-04
 -12.376  0.109E-04  0.109E-04
 -12.366  0.974E-05  0.974E-05
 -12.356  0.863E-05  0.863E-05
 -12.346  0.753E-05  0.753E-05
 -12.336  0.647E-05  0.647E-05
 -12.326  0.544E-05  0.544E-05
 -12.316  0.444E-05  0.444E-05
 -12.306  0.347E-05  0.347E-05
 -12.296  0.254E-05  0.254E-05
 -12.286  0.163E-05  0.163E-05
 -12.276  0.770E-06  0.770E-06
 -12.266 -0.575E-07 -0.575E-07
 -12.256 -0.847E-06 -0.847E-06
 -12.246 -0.160E-05 -0.160E-05
 -12.236 -0.231E-05 -0.231E-05
 -12.226 -0.298E-05 -0.298E-05
 -12.216 -0.360E-05 -0.360E-05
 -12.206 -0.419E-05 -0.419E-05
 -12.196 -0.473E-05 -0.473E-05
 -12.186 -0.522E-05 -0.522E-05
 -12.176 -0.567E-05 -0.567E-05
 -12.166 -0.607E-05 -0.607E-05
 -12.156 -0.642E-05 -0.642E-05
 -12.146 -0.673E-05 -0.673E-05
 -12.136 -0.698E-05 -0.698E-05
 -12.126 -0.719E-05 -0.719E-05
 -12.116 -0.734E-05 -0.734E-05
 -12.106 -0.745E-05 -0.745E-05
 -12.096 -0.749E-05 -0.749E-05
 -12.086 -0.749E-05 -0.749E-05
 -12.076 -0.743E-05 -0.743E-05
 -12.066 -0.732E-05 -0.732E-05
 -12.056 -0.715E-05 -0.715E-05
 -12.046 -0.693E-05 -0.693E-05
 -12.036 -0.665E-05 -0.665E-05
 -12.026 -0.631E-05 -0.631E-05
 -12.016 -0.591E-05 -0.591E-05
 -12.006 -0.546E-05 -0.546E-05
 -11.996 -0.495E-05 -0.495E-05
 -11.986 -0.438E-05 -0.438E-05
 -11.976 -0.375E-05 -0.375E-05
 -11.966 -0.306E-05 -0.306E-05
 -11.956 -0.231E-05 -0.231E-05
 -11.946 -0.150E-05 -0.150E-05
 -11.936 -0.630E-06 -0.630E-06
 -11.926  0.299E-06  0.299E-06
 -11.916  0.129E-05  0.129E-05
 -11.906  0.234E-05  0.234E-05
 -11.896  0.345E-05  0.345E-05
 -11.886  0.461E-05  0.461E-05
 -11.876  0.584E-05  0.584E-05
 -11.866  0.713E-05  0.713E-05
 -11.856  0.847E-05  0.847E-05
 -11.846  0.988E-05  0.988E-05
 -11.836  0.113E-04  0.113E-04
 -11.826  0.129E-04  0.129E-04
 -11.816  0.144E-04  0.144E-04
 -11.806  0.161E-04  0.161E-04
 -11.796  0.177E-04  0.177E-04
 -11.786  0.195E-04  0.195E-04
 -11.776  0.213E-04  0.213E-04
 -11.766  0.231E-04  0.231E-04
 -11.756  0.250E-04  0.250E-04
 -11.746  0.269E-04  0.269E-04
 -11.736  0.289E-04  0.289E-04
 -11.726  0.310E-04  0.310E-04
 -11.716  0.330E-04  0.330E-04
 -11.706  0.352E-04  0.352E-04
 -11.696  0.373E-04  0.373E-04
 -11.686  0.395E-04  0.395E-04
 -11.676  0.417E-04  0.417E-04
 -11.666  0.440E-04  0.440E-04
 -11.656  0.463E-04  0.463E-04
 -11.646  0.486E-04  0.486E-04
 -11.636  0.510E-04  0.510E-04
 -11.626  0.534E-04  0.534E-04
 -11.616  0.558E-04  0.558E-04
 -11.606  0.582E-04  0.582E-04
 -11.596  0.606E-04  0.606E-04
 -11.586  0.631E-04  0.631E-04
 -11.576  0.656E-04  0.656E-04
 -11.566  0.680E-04  0.680E-04
 -11.556  0.705E-04  0.705E-04
 -11.546  0.730E-04  0.730E-04
 -11.536  0.755E-04  0.755E-04
 -11.526  0.779E-04  0.779E-04
 -11.516  0.804E-04  0.804E-04
 -11.506  0.829E-04  0.829E-04
 -11.496  0.853E-04  0.853E-04
 -11.486  0.877E-04  0.877E-04
 -11.476  0.901E-04  0.901E-04
 -11.466  0.925E-04  0.925E-04
 -11.456  0.949E-04  0.949E-04
 -11.446  0.972E-04  0.972E-04
 -11.436  0.995E-04  0.995E-04
 -11.426  0.102E-03  0.102E-03
 -11.416  0.104E-03  0.104E-03
 -11.406  0.106E-03  0.106E-03
 -11.396  0.108E-03  0.108E-03
 -11.386  0.110E-03  0.110E-03
 -11.376  0.112E-03  0.112E-03
 -11.366  0.114E-03  0.114E-03
 -11.356  0.116E-03  0.116E-03
 -11.346  0.118E-03  0.118E-03
 -11.336  0.120E-03  0.120E-03
 -11.326  0.121E-03  0.121E-03
 -11.316  0.123E-03  0.123E-03
 -11.306  0.124E-03  0.124E-03
 -11.296  0.126E-03  0.126E-03
 -11.286  0.127E-03  0.127E-03
 -11.276  0.128E-03  0.128E-03
 -11.266  0.130E-03  0.130E-03
 -11.256  0.131E-03  0.131E-03
 -11.246  0.132E-03  0.132E-03
 -11.236  0.132E-03  0.132E-03
 -11.226  0.133E-03  0.133E-03
 -11.216  0.134E-03  0.134E-03
 -11.206  0.134E-03  0.134E-03
 -11.196  0.135E-03  0.135E-03
 -11.186  0.135E-03  0.135E-03
 -11.176  0.135E-03  0.135E-03
 -11.166  0.135E-03  0.135E-03
 -11.156  0.135E-03  0.135E-03
 -11.146  0.135E-03  0.135E-03
 -11.136  0.134E-03  0.134E-03
 -11.126  0.133E-03  0.133E-03
 -11.116  0.133E-03  0.133E-03
 -11.106  0.132E-03  0.132E-03
 -11.096  0.131E-03  0.131E-03
 -11.086  0.129E-03  0.129E-03
 -11.076  0.128E-03  0.128E-03
 -11.066  0.126E-03  0.126E-03
 -11.056  0.125E-03  0.125E-03
 -11.046  0.123E-03  0.123E-03
 -11.036  0.120E-03  0.120E-03
 -11.026  0.118E-03  0.118E-03
 -11.016  0.115E-03  0.115E-03
 -11.006  0.112E-03  0.112E-03
 -10.996  0.109E-03  0.109E-03
 -10.986  0.106E-03  0.106E-03
 -10.976  0.102E-03  0.102E-03
 -10.966  0.986E-04  0.986E-04
 -10.956  0.946E-04  0.946E-04
 -10.946  0.902E-04  0.902E-04
 -10.936  0.856E-04  0.856E-04
 -10.926  0.806E-04  0.806E-04
 -10.916  0.754E-04  0.754E-04
 -10.906  0.699E-04  0.699E-04
 -10.896  0.640E-04  0.640E-04
 -10.886  0.578E-04  0.578E-04
 -10.876  0.513E-04  0.513E-04
 -10.866  0.444E-04  0.444E-04
 -10.856  0.371E-04  0.371E-04
 -10.846  0.295E-04  0.295E-04
 -10.836  0.215E-04  0.215E-04
 -10.826  0.131E-04  0.131E-04
 -10.816  0.421E-05  0.421E-05
 -10.806 -0.506E-05 -0.506E-05
 -10.796 -0.148E-04 -0.148E-04
 -10.786 -0.249E-04 -0.249E-04
 -10.776 -0.356E-04 -0.356E-04
 -10.766 -0.467E-04 -0.467E-04
 -10.756 -0.583E-04 -0.583E-04
 -10.746 -0.704E-04 -0.704E-04
 -10.736 -0.831E-04 -0.831E-04
 -10.726 -0.962E-04 -0.962E-04
 -10.716 -0.110E-03 -0.110E-03
 -10.706 -0.124E-03 -0.124E-03
 -10.696 -0.139E-03 -0.139E-03
 -10.686 -0.155E-03 -0.155E-03
 -10.676 -0.171E-03 -0.171E-03
 -10.666 -0.187E-03 -0.187E-03
 -10.656 -0.205E-03 -0.205E-03
 -10.646 -0.223E-03 -0.223E-03
 -10.636 -0.241E-03 -0.241E-03
 -10.626 -0.260E-03 -0.260E-03
 -10.616 -0.280E-03 -0.280E-03
 -10.606 -0.301E-03 -0.301E-03
 -10.596 -0.322E-03 -0.322E-03
 -10.586 -0.344E-03 -0.344E-03
 -10.576 -0.366E-03 -0.366E-03
 -10.566 -0.390E-03 -0.390E-03
 -10.556 -0.414E-03 -0.414E-03
 -10.546 -0.438E-03 -0.438E-03
 -10.536 -0.464E-03 -0.464E-03
 -10.526 -0.490E-03 -0.490E-03
 -10.516 -0.516E-03 -0.516E-03
 -10.506 -0.544E-03 -0.544E-03
 -10.496 -0.572E-03 -0.572E-03
 -10.486 -0.600E-03 -0.600E-03
 -10.476 -0.630E-03 -0.630E-03
 -10.466 -0.660E-03 -0.660E-03
 -10.456 -0.690E-03 -0.690E-03
 -10.446 -0.721E-03 -0.721E-03
 -10.436 -0.753E-03 -0.753E-03
 -10.426 -0.785E-03 -0.785E-03
 -10.416 -0.817E-03 -0.817E-03
 -10.406 -0.850E-03 -0.850E-03
 -10.396 -0.884E-03 -0.884E-03
 -10.386 -0.917E-03 -0.917E-03
 -10.376 -0.951E-03 -0.951E-03
 -10.366 -0.985E-03 -0.985E-03
 -10.356 -0.102E-02 -0.102E-02
 -10.346 -0.105E-02 -0.105E-02
 -10.336 -0.109E-02 -0.109E-02
 -10.326 -0.112E-02 -0.112E-02
 -10.316 -0.116E-02 -0.116E-02
 -10.306 -0.119E-02 -0.119E-02
 -10.296 -0.123E-02 -0.123E-02
 -10.286 -0.126E-02 -0.126E-02
 -10.276 -0.129E-02 -0.129E-02
 -10.266 -0.132E-02 -0.132E-02
 -10.256 -0.136E-02 -0.136E-02
 -10.246 -0.139E-02 -0.139E-02
 -10.236 -0.142E-02 -0.142E-02
 -10.226 -0.145E-02 -0.145E-02
 -10.216 -0.147E-02 -0.147E-02
 -10.206 -0.150E-02 -0.150E-02
 -10.196 -0.152E-02 -0.152E-02
 -10.186 -0.155E-02 -0.155E-02
 -10.176 -0.157E-02 -0.157E-02
 -10.166 -0.159E-02 -0.159E-02
 -10.156 -0.161E-02 -0.161E-02
 -10.146 -0.162E-02 -0.162E-02
 -10.136 -0.163E-02 -0.163E-02
 -10.126 -0.164E-02 -0.164E-02
 -10.116 -0.165E-02 -0.165E-02
 -10.106 -0.165E-02 -0.165E-02
 -10.096 -0.165E-02 -0.165E-02
 -10.086 -0.165E-02 -0.165E-02
 -10.076 -0.164E-02 -0.164E-02
 -10.066 -0.163E-02 -0.163E-02
 -10.056 -0.162E-02 -0.162E-02
 -10.046 -0.160E-02 -0.160E-02
 -10.036 -0.157E-02 -0.157E-02
 -10.026 -0.154E-02 -0.154E-02
 -10.016 -0.151E-02 -0.151E-02
 -10.006 -0.147E-02 -0.147E-02
  -9.996 -0.142E-02 -0.142E-02
  -9.986 -0.137E-02 -0.137E-02
  -9.976 -0.131E-02 -0.131E-02
  -9.966 -0.125E-02 -0.125E-02
  -9.956 -0.117E-02 -0.117E-02
  -9.946 -0.110E-02 -0.110E-02
  -9.936 -0.101E-02 -0.101E-02
  -9.926 -0.915E-03 -0.915E-03
  -9.916 -0.814E-03 -0.814E-03
  -9.906 -0.704E-03 -0.704E-03
  -9.896 -0.586E-03 -0.586E-03
  -9.886 -0.459E-03 -0.459E-03
  -9.876 -0.323E-03 -0.323E-03
  -9.866 -0.178E-03 -0.178E-03
  -9.856 -0.229E-04 -0.229E-04
  -9.846  0.141E-03  0.141E-03
  -9.836  0.316E-03  0.316E-03
  -9.826  0.500E-03  0.500E-03
  -9.816  0.695E-03  0.695E-03
  -9.806  0.901E-03  0.901E-03
  -9.796  0.112E-02  0.112E-02
  -9.786  0.135E-02  0.135E-02
  -9.776  0.158E-02  0.158E-02
  -9.766  0.184E-02  0.184E-02
  -9.756  0.210E-02  0.210E-02
  -9.746  0.237E-02  0.237E-02
  -9.736  0.266E-02  0.266E-02
  -9.726  0.296E-02  0.296E-02
  -9.716  0.327E-02  0.327E-02
  -9.706  0.359E-02  0.359E-02
  -9.696  0.393E-02  0.393E-02
  -9.686  0.427E-02  0.427E-02
  -9.676  0.463E-02  0.463E-02
  -9.666  0.501E-02  0.501E-02
  -9.656  0.539E-02  0.539E-02
  -9.646  0.579E-02  0.579E-02
  -9.636  0.620E-02  0.620E-02
  -9.626  0.662E-02  0.662E-02
  -9.616  0.706E-02  0.706E-02
  -9.606  0.751E-02  0.751E-02
  -9.596  0.797E-02  0.797E-02
  -9.586  0.844E-02  0.844E-02
  -9.576  0.893E-02  0.893E-02
  -9.566  0.942E-02  0.942E-02
  -9.556  0.993E-02  0.993E-02
  -9.546  0.105E-01  0.105E-01
  -9.536  0.110E-01  0.110E-01
  -9.526  0.115E-01  0.115E-01
  -9.516  0.121E-01  0.121E-01
  -9.506  0.126E-01  0.126E-01
  -9.496  0.132E-01  0.132E-01
  -9.486  0.138E-01  0.138E-01
  -9.476  0.144E-01  0.144E-01
  -9.466  0.150E-01  0.150E-01
  -9.456  0.156E-01  0.156E-01
  -9.446  0.162E-01  0.162E-01
  -9.436  0.168E-01  0.168E-01
  -9.426  0.175E-01  0.175E-01
  -9.416  0.181E-01  0.181E-01
  -9.406  0.187E-01  0.187E-01
  -9.396  0.194E-01  0.194E-01
  -9.386  0.200E-01  0.200E-01
  -9.376  0.207E-01  0.207E-01
  -9.366  0.213E-01  0.213E-01
  -9.356  0.220E-01  0.220E-01
  -9.346  0.226E-01  0.226E-01
  -9.336  0.233E-01  0.233E-01
  -9.326  0.240E-01  0.240E-01
  -9.316  0.246E-01  0.246E-01
  -9.306  0.253E-01  0.253E-01
  -9.296  0.259E-01  0.259E-01
  -9.286  0.266E-01  0.266E-01
  -9.276  0.273E-01  0.273E-01
  -9.266  0.279E-01  0.279E-01
  -9.256  0.285E-01  0.285E-01
  -9.246  0.292E-01  0.292E-01
  -9.236  0.298E-01  0.298E-01
  -9.226  0.304E-01  0.304E-01
  -9.216  0.310E-01  0.310E-01
  -9.206  0.317E-01  0.317E-01
  -9.196  0.323E-01  0.323E-01
  -9.186  0.328E-01  0.328E-01
  -9.176  0.334E-01  0.334E-01
  -9.166  0.340E-01  0.340E-01
  -9.156  0.345E-01  0.345E-01
  -9.146  0.351E-01  0.351E-01
  -9.136  0.356E-01  0.356E-01
  -9.126  0.361E-01  0.361E-01
  -9.116  0.366E-01  0.366E-01
  -9.106  0.371E-01  0.371E-01
  -9.096  0.375E-01  0.375E-01
  -9.086  0.380E-01  0.380E-01
  -9.076  0.384E-01  0.384E-01
  -9.066  0.388E-01  0.388E-01
  -9.056  0.392E-01  0.392E-01
  -9.046  0.396E-01  0.396E-01
  -9.036  0.400E-01  0.400E-01
  -9.026  0.403E-01  0.403E-01
  -9.016  0.406E-01  0.406E-01
  -9.006  0.409E-01  0.409E-01
  -8.996  0.412E-01  0.412E-01
  -8.986  0.414E-01  0.414E-01
  -8.976  0.417E-01  0.417E-01
  -8.966  0.419E-01  0.419E-01
  -8.956  0.421E-01  0.421E-01
  -8.946  0.422E-01  0.422E-01
  -8.936  0.424E-01  0.424E-01
  -8.926  0.425E-01  0.425E-01
  -8.916  0.426E-01  0.426E-01
  -8.906  0.427E-01  0.427E-01
  -8.896  0.427E-01  0.427E-01
  -8.886  0.428E-01  0.428E-01
  -8.876  0.428E-01  0.428E-01
  -8.866  0.428E-01  0.428E-01
  -8.856  0.428E-01  0.428E-01
  -8.846  0.427E-01  0.427E-01
  -8.836  0.426E-01  0.426E-01
  -8.826  0.425E-01  0.425E-01
  -8.816  0.424E-01  0.424E-01
  -8.806  0.423E-01  0.423E-01
  -8.796  0.422E-01  0.422E-01
  -8.786  0.420E-01  0.420E-01
  -8.776  0.418E-01  0.418E-01
  -8.766  0.416E-01  0.416E-01
  -8.756  0.414E-01  0.414E-01
  -8.746  0.411E-01  0.411E-01
  -8.736  0.409E-01  0.409E-01
  -8.726  0.406E-01  0.406E-01
  -8.716  0.403E-01  0.403E-01
  -8.706  0.400E-01  0.400E-01
  -8.696  0.397E-01  0.397E-01
  -8.686  0.394E-01  0.394E-01
  -8.676  0.390E-01  0.390E-01
  -8.666  0.387E-01  0.387E-01
  -8.656  0.383E-01  0.383E-01
  -8.646  0.379E-01  0.379E-01
  -8.636  0.376E-01  0.376E-01
  -8.626  0.372E-01  0.372E-01
  -8.616  0.368E-01  0.368E-01
  -8.606  0.363E-01  0.363E-01
  -8.596  0.359E-01  0.359E-01
  -8.586  0.355E-01  0.355E-01
  -8.576  0.351E-01  0.351E-01
  -8.566  0.346E-01  0.346E-01
  -8.556  0.342E-01  0.342E-01
  -8.546  0.337E-01  0.337E-01
  -8.536  0.333E-01  0.333E-01
  -8.526  0.328E-01  0.328E-01
  -8.516  0.324E-01  0.324E-01
  -8.506  0.319E-01  0.319E-01
  -8.496  0.314E-01  0.314E-01
  -8.486  0.310E-01  0.310E-01
  -8.476  0.305E-01  0.305E-01
  -8.466  0.300E-01  0.300E-01
  -8.456  0.296E-01  0.296E-01
  -8.446  0.291E-01  0.291E-01
  -8.436  0.287E-01  0.287E-01
  -8.426  0.282E-01  0.282E-01
  -8.416  0.278E-01  0.278E-01
  -8.406  0.273E-01  0.273E-01
  -8.396  0.269E-01  0.269E-01
  -8.386  0.264E-01  0.264E-01
  -8.376  0.260E-01  0.260E-01
  -8.366  0.256E-01  0.256E-01
  -8.356  0.251E-01  0.251E-01
  -8.346  0.247E-01  0.247E-01
  -8.336  0.243E-01  0.243E-01
  -8.326  0.239E-01  0.239E-01
  -8.316  0.235E-01  0.235E-01
  -8.306  0.231E-01  0.231E-01
  -8.296  0.227E-01  0.227E-01
  -8.286  0.224E-01  0.224E-01
  -8.276  0.220E-01  0.220E-01
  -8.266  0.216E-01  0.216E-01
  -8.256  0.213E-01  0.213E-01
  -8.246  0.209E-01  0.209E-01
  -8.236  0.206E-01  0.206E-01
  -8.226  0.203E-01  0.203E-01
  -8.216  0.200E-01  0.200E-01
  -8.206  0.196E-01  0.196E-01
  -8.196  0.193E-01  0.193E-01
  -8.186  0.191E-01  0.191E-01
  -8.176  0.188E-01  0.188E-01
  -8.166  0.185E-01  0.185E-01
  -8.156  0.183E-01  0.183E-01
  -8.146  0.180E-01  0.180E-01
  -8.136  0.178E-01  0.178E-01
  -8.126  0.175E-01  0.175E-01
  -8.116  0.173E-01  0.173E-01
  -8.106  0.171E-01  0.171E-01
  -8.096  0.169E-01  0.169E-01
  -8.086  0.167E-01  0.167E-01
  -8.076  0.166E-01  0.166E-01
  -8.066  0.164E-01  0.164E-01
  -8.056  0.163E-01  0.163E-01
  -8.046  0.161E-01  0.161E-01
  -8.036  0.160E-01  0.160E-01
  -8.026  0.159E-01  0.159E-01
  -8.016  0.158E-01  0.158E-01
  -8.006  0.157E-01  0.157E-01
  -7.996  0.156E-01  0.156E-01
  -7.986  0.155E-01  0.155E-01
  -7.976  0.155E-01  0.155E-01
  -7.966  0.154E-01  0.154E-01
  -7.956  0.154E-01  0.154E-01
  -7.946  0.153E-01  0.153E-01
  -7.936  0.153E-01  0.153E-01
  -7.926  0.153E-01  0.153E-01
  -7.916  0.153E-01  0.153E-01
  -7.906  0.154E-01  0.154E-01
  -7.896  0.154E-01  0.154E-01
  -7.886  0.155E-01  0.155E-01
  -7.876  0.155E-01  0.155E-01
  -7.866  0.156E-01  0.156E-01
  -7.856  0.157E-01  0.157E-01
  -7.846  0.158E-01  0.158E-01
  -7.836  0.159E-01  0.159E-01
  -7.826  0.160E-01  0.160E-01
  -7.816  0.161E-01  0.161E-01
  -7.806  0.163E-01  0.163E-01
  -7.796  0.164E-01  0.164E-01
  -7.786  0.166E-01  0.166E-01
  -7.776  0.168E-01  0.168E-01
  -7.766  0.170E-01  0.170E-01
  -7.756  0.172E-01  0.172E-01
  -7.746  0.174E-01  0.174E-01
  -7.736  0.177E-01  0.177E-01
  -7.726  0.179E-01  0.179E-01
  -7.716  0.182E-01  0.182E-01
  -7.706  0.184E-01  0.184E-01
  -7.696  0.187E-01  0.187E-01
  -7.686  0.190E-01  0.190E-01
  -7.676  0.193E-01  0.193E-01
  -7.666  0.196E-01  0.196E-01
  -7.656  0.199E-01  0.199E-01
  -7.646  0.203E-01  0.203E-01
  -7.636  0.206E-01  0.206E-01
  -7.626  0.210E-01  0.210E-01
  -7.616  0.213E-01  0.213E-01
  -7.606  0.217E-01  0.217E-01
  -7.596  0.221E-01  0.221E-01
  -7.586  0.224E-01  0.224E-01
  -7.576  0.228E-01  0.228E-01
  -7.566  0.232E-01  0.232E-01
  -7.556  0.236E-01  0.236E-01
  -7.546  0.240E-01  0.240E-01
  -7.536  0.245E-01  0.245E-01
  -7.526  0.249E-01  0.249E-01
  -7.516  0.253E-01  0.253E-01
  -7.506  0.257E-01  0.257E-01
  -7.496  0.261E-01  0.261E-01
  -7.486  0.266E-01  0.266E-01
  -7.476  0.270E-01  0.270E-01
  -7.466  0.274E-01  0.274E-01
  -7.456  0.278E-01  0.278E-01
  -7.446  0.283E-01  0.283E-01
  -7.436  0.287E-01  0.287E-01
  -7.426  0.291E-01  0.291E-01
  -7.416  0.295E-01  0.295E-01
  -7.406  0.299E-01  0.299E-01
  -7.396  0.303E-01  0.303E-01
  -7.386  0.307E-01  0.307E-01
  -7.376  0.311E-01  0.311E-01
  -7.366  0.315E-01  0.315E-01
  -7.356  0.319E-01  0.319E-01
  -7.346  0.323E-01  0.323E-01
  -7.336  0.326E-01  0.326E-01
  -7.326  0.330E-01  0.330E-01
  -7.316  0.333E-01  0.333E-01
  -7.306  0.336E-01  0.336E-01
  -7.296  0.339E-01  0.339E-01
  -7.286  0.342E-01  0.342E-01
  -7.276  0.345E-01  0.345E-01
  -7.266  0.348E-01  0.348E-01
  -7.256  0.350E-01  0.350E-01
  -7.246  0.352E-01  0.352E-01
  -7.236  0.354E-01  0.354E-01
  -7.226  0.356E-01  0.356E-01
  -7.216  0.358E-01  0.358E-01
  -7.206  0.360E-01  0.360E-01
  -7.196  0.361E-01  0.361E-01
  -7.186  0.362E-01  0.362E-01
  -7.176  0.363E-01  0.363E-01
  -7.166  0.364E-01  0.364E-01
  -7.156  0.365E-01  0.365E-01
  -7.146  0.365E-01  0.365E-01
  -7.136  0.365E-01  0.365E-01
  -7.126  0.365E-01  0.365E-01
  -7.116  0.365E-01  0.365E-01
  -7.106  0.364E-01  0.364E-01
  -7.096  0.363E-01  0.363E-01
  -7.086  0.362E-01  0.362E-01
  -7.076  0.361E-01  0.361E-01
  -7.066  0.360E-01  0.360E-01
  -7.056  0.358E-01  0.358E-01
  -7.046  0.356E-01  0.356E-01
  -7.036  0.354E-01  0.354E-01
  -7.026  0.351E-01  0.351E-01
  -7.016  0.349E-01  0.349E-01
  -7.006  0.346E-01  0.346E-01
  -6.996  0.343E-01  0.343E-01
  -6.986  0.340E-01  0.340E-01
  -6.976  0.336E-01  0.336E-01
  -6.966  0.333E-01  0.333E-01
  -6.956  0.329E-01  0.329E-01
  -6.946  0.325E-01  0.325E-01
  -6.936  0.321E-01  0.321E-01
  -6.926  0.317E-01  0.317E-01
  -6.916  0.312E-01  0.312E-01
  -6.906  0.307E-01  0.307E-01
  -6.896  0.302E-01  0.302E-01
  -6.886  0.298E-01  0.298E-01
  -6.876  0.292E-01  0.292E-01
  -6.866  0.287E-01  0.287E-01
  -6.856  0.282E-01  0.282E-01
  -6.846  0.276E-01  0.276E-01
  -6.836  0.271E-01  0.271E-01
  -6.826  0.265E-01  0.265E-01
  -6.816  0.260E-01  0.260E-01
  -6.806  0.254E-01  0.254E-01
  -6.796  0.248E-01  0.248E-01
  -6.786  0.242E-01  0.242E-01
  -6.776  0.236E-01  0.236E-01
  -6.766  0.230E-01  0.230E-01
  -6.756  0.224E-01  0.224E-01
  -6.746  0.218E-01  0.218E-01
  -6.736  0.212E-01  0.212E-01
  -6.726  0.206E-01  0.206E-01
  -6.716  0.201E-01  0.201E-01
  -6.706  0.195E-01  0.195E-01
  -6.696  0.189E-01  0.189E-01
  -6.686  0.183E-01  0.183E-01
  -6.676  0.178E-01  0.178E-01
  -6.666  0.172E-01  0.172E-01
  -6.656  0.167E-01  0.167E-01
  -6.646  0.161E-01  0.161E-01
  -6.636  0.156E-01  0.156E-01
  -6.626  0.151E-01  0.151E-01
  -6.616  0.146E-01  0.146E-01
  -6.606  0.141E-01  0.141E-01
  -6.596  0.136E-01  0.136E-01
  -6.586  0.132E-01  0.132E-01
  -6.576  0.127E-01  0.127E-01
  -6.566  0.123E-01  0.123E-01
  -6.556  0.119E-01  0.119E-01
  -6.546  0.115E-01  0.115E-01
  -6.536  0.112E-01  0.112E-01
  -6.526  0.109E-01  0.109E-01
  -6.516  0.105E-01  0.105E-01
  -6.506  0.102E-01  0.102E-01
  -6.496  0.997E-02  0.997E-02
  -6.486  0.972E-02  0.972E-02
  -6.476  0.950E-02  0.950E-02
  -6.466  0.929E-02  0.929E-02
  -6.456  0.912E-02  0.912E-02
  -6.446  0.897E-02  0.897E-02
  -6.436  0.884E-02  0.884E-02
  -6.426  0.873E-02  0.873E-02
  -6.416  0.866E-02  0.866E-02
  -6.406  0.861E-02  0.861E-02
  -6.396  0.858E-02  0.858E-02
  -6.386  0.858E-02  0.858E-02
  -6.376  0.860E-02  0.860E-02
  -6.366  0.865E-02  0.865E-02
  -6.356  0.872E-02  0.872E-02
  -6.346  0.882E-02  0.882E-02
  -6.336  0.895E-02  0.895E-02
  -6.326  0.910E-02  0.910E-02
  -6.316  0.927E-02  0.927E-02
  -6.306  0.947E-02  0.947E-02
  -6.296  0.969E-02  0.969E-02
  -6.286  0.993E-02  0.993E-02
  -6.276  0.102E-01  0.102E-01
  -6.266  0.105E-01  0.105E-01
  -6.256  0.108E-01  0.108E-01
  -6.246  0.111E-01  0.111E-01
  -6.236  0.115E-01  0.115E-01
  -6.226  0.118E-01  0.118E-01
  -6.216  0.122E-01  0.122E-01
  -6.206  0.126E-01  0.126E-01
  -6.196  0.131E-01  0.131E-01
  -6.186  0.135E-01  0.135E-01
  -6.176  0.140E-01  0.140E-01
  -6.166  0.144E-01  0.144E-01
  -6.156  0.149E-01  0.149E-01
  -6.146  0.154E-01  0.154E-01
  -6.136  0.159E-01  0.159E-01
  -6.126  0.165E-01  0.165E-01
  -6.116  0.170E-01  0.170E-01
  -6.106  0.175E-01  0.175E-01
  -6.096  0.181E-01  0.181E-01
  -6.086  0.187E-01  0.187E-01
  -6.076  0.192E-01  0.192E-01
  -6.066  0.198E-01  0.198E-01
  -6.056  0.204E-01  0.204E-01
  -6.046  0.210E-01  0.210E-01
  -6.036  0.215E-01  0.215E-01
  -6.026  0.221E-01  0.221E-01
  -6.016  0.227E-01  0.227E-01
  -6.006  0.233E-01  0.233E-01
  -5.996  0.239E-01  0.239E-01
  -5.986  0.245E-01  0.245E-01
  -5.976  0.251E-01  0.251E-01
  -5.966  0.256E-01  0.256E-01
  -5.956  0.262E-01  0.262E-01
  -5.946  0.268E-01  0.268E-01
  -5.936  0.273E-01  0.273E-01
  -5.926  0.279E-01  0.279E-01
  -5.916  0.284E-01  0.284E-01
  -5.906  0.290E-01  0.290E-01
  -5.896  0.295E-01  0.295E-01
  -5.886  0.300E-01  0.300E-01
  -5.876  0.305E-01  0.305E-01
  -5.866  0.310E-01  0.310E-01
  -5.856  0.315E-01  0.315E-01
  -5.846  0.319E-01  0.319E-01
  -5.836  0.324E-01  0.324E-01
  -5.826  0.328E-01  0.328E-01
  -5.816  0.332E-01  0.332E-01
  -5.806  0.336E-01  0.336E-01
  -5.796  0.340E-01  0.340E-01
  -5.786  0.344E-01  0.344E-01
  -5.776  0.348E-01  0.348E-01
  -5.766  0.351E-01  0.351E-01
  -5.756  0.354E-01  0.354E-01
  -5.746  0.358E-01  0.358E-01
  -5.736  0.360E-01  0.360E-01
  -5.726  0.363E-01  0.363E-01
  -5.716  0.366E-01  0.366E-01
  -5.706  0.368E-01  0.368E-01
  -5.696  0.371E-01  0.371E-01
  -5.686  0.373E-01  0.373E-01
  -5.676  0.375E-01  0.375E-01
  -5.666  0.376E-01  0.376E-01
  -5.656  0.378E-01  0.378E-01
  -5.646  0.379E-01  0.379E-01
  -5.636  0.381E-01  0.381E-01
  -5.626  0.382E-01  0.382E-01
  -5.616  0.383E-01  0.383E-01
  -5.606  0.384E-01  0.384E-01
  -5.596  0.384E-01  0.384E-01
  -5.586  0.385E-01  0.385E-01
  -5.576  0.385E-01  0.385E-01
  -5.566  0.386E-01  0.386E-01
  -5.556  0.386E-01  0.386E-01
  -5.546  0.386E-01  0.386E-01
  -5.536  0.386E-01  0.386E-01
  -5.526  0.386E-01  0.386E-01
  -5.516  0.386E-01  0.386E-01
  -5.506  0.386E-01  0.386E-01
  -5.496  0.386E-01  0.386E-01
  -5.486  0.385E-01  0.385E-01
  -5.476  0.385E-01  0.385E-01
  -5.466  0.385E-01  0.385E-01
  -5.456  0.384E-01  0.384E-01
  -5.446  0.384E-01  0.384E-01
  -5.436  0.384E-01  0.384E-01
  -5.426  0.383E-01  0.383E-01
  -5.416  0.383E-01  0.383E-01
  -5.406  0.383E-01  0.383E-01
  -5.396  0.382E-01  0.382E-01
  -5.386  0.382E-01  0.382E-01
  -5.376  0.382E-01  0.382E-01
  -5.366  0.382E-01  0.382E-01
  -5.356  0.382E-01  0.382E-01
  -5.346  0.382E-01  0.382E-01
  -5.336  0.382E-01  0.382E-01
  -5.326  0.383E-01  0.383E-01
  -5.316  0.383E-01  0.383E-01
  -5.306  0.384E-01  0.384E-01
  -5.296  0.384E-01  0.384E-01
  -5.286  0.385E-01  0.385E-01
  -5.276  0.386E-01  0.386E-01
  -5.266  0.388E-01  0.388E-01
  -5.256  0.389E-01  0.389E-01
  -5.246  0.391E-01  0.391E-01
  -5.236  0.392E-01  0.392E-01
  -5.226  0.395E-01  0.395E-01
  -5.216  0.397E-01  0.397E-01
  -5.206  0.399E-01  0.399E-01
  -5.196  0.402E-01  0.402E-01
  -5.186  0.405E-01  0.405E-01
  -5.176  0.408E-01  0.408E-01
  -5.166  0.412E-01  0.412E-01
  -5.156  0.415E-01  0.415E-01
  -5.146  0.419E-01  0.419E-01
  -5.136  0.424E-01  0.424E-01
  -5.126  0.428E-01  0.428E-01
  -5.116  0.433E-01  0.433E-01
  -5.106  0.438E-01  0.438E-01
  -5.096  0.444E-01  0.444E-01
  -5.086  0.449E-01  0.449E-01
  -5.076  0.455E-01  0.455E-01
  -5.066  0.461E-01  0.461E-01
  -5.056  0.468E-01  0.468E-01
  -5.046  0.475E-01  0.475E-01
  -5.036  0.482E-01  0.482E-01
  -5.026  0.489E-01  0.489E-01
  -5.016  0.497E-01  0.497E-01
  -5.006  0.505E-01  0.505E-01
  -4.996  0.513E-01  0.513E-01
  -4.986  0.521E-01  0.521E-01
  -4.976  0.530E-01  0.530E-01
  -4.966  0.539E-01  0.539E-01
  -4.956  0.548E-01  0.548E-01
  -4.946  0.558E-01  0.558E-01
  -4.936  0.568E-01  0.568E-01
  -4.926  0.578E-01  0.578E-01
  -4.916  0.588E-01  0.588E-01
  -4.906  0.598E-01  0.598E-01
  -4.896  0.609E-01  0.609E-01
  -4.886  0.620E-01  0.620E-01
  -4.876  0.631E-01  0.631E-01
  -4.866  0.642E-01  0.642E-01
  -4.856  0.653E-01  0.653E-01
  -4.846  0.664E-01  0.664E-01
  -4.836  0.676E-01  0.676E-01
  -4.826  0.688E-01  0.688E-01
  -4.816  0.700E-01  0.700E-01
  -4.806  0.712E-01  0.712E-01
  -4.796  0.724E-01  0.724E-01
  -4.786  0.736E-01  0.736E-01
  -4.776  0.748E-01  0.748E-01
  -4.766  0.760E-01  0.760E-01
  -4.756  0.772E-01  0.772E-01
  -4.746  0.784E-01  0.784E-01
  -4.736  0.797E-01  0.797E-01
  -4.726  0.809E-01  0.809E-01
  -4.716  0.821E-01  0.821E-01
  -4.706  0.833E-01  0.833E-01
  -4.696  0.845E-01  0.845E-01
  -4.686  0.857E-01  0.857E-01
  -4.676  0.869E-01  0.869E-01
  -4.666  0.880E-01  0.880E-01
  -4.656  0.892E-01  0.892E-01
  -4.646  0.903E-01  0.903E-01
  -4.636  0.915E-01  0.915E-01
  -4.626  0.926E-01  0.926E-01
  -4.616  0.937E-01  0.937E-01
  -4.606  0.947E-01  0.947E-01
  -4.596  0.958E-01  0.958E-01
  -4.586  0.968E-01  0.968E-01
  -4.576  0.978E-01  0.978E-01
  -4.566  0.987E-01  0.987E-01
  -4.556  0.997E-01  0.997E-01
  -4.546  0.101E+00  0.101E+00
  -4.536  0.101E+00  0.101E+00
  -4.526  0.102E+00  0.102E+00
  -4.516  0.103E+00  0.103E+00
  -4.506  0.104E+00  0.104E+00
  -4.496  0.105E+00  0.105E+00
  -4.486  0.105E+00  0.105E+00
  -4.476  0.106E+00  0.106E+00
  -4.466  0.107E+00  0.107E+00
  -4.456  0.107E+00  0.107E+00
  -4.446  0.108E+00  0.108E+00
  -4.436  0.108E+00  0.108E+00
  -4.426  0.109E+00  0.109E+00
  -4.416  0.109E+00  0.109E+00
  -4.406  0.110E+00  0.110E+00
  -4.396  0.110E+00  0.110E+00
  -4.386  0.110E+00  0.110E+00
  -4.376  0.110E+00  0.110E+00
  -4.366  0.111E+00  0.111E+00
  -4.356  0.111E+00  0.111E+00
  -4.346  0.111E+00  0.111E+00
  -4.336  0.111E+00  0.111E+00
  -4.326  0.111E+00  0.111E+00
  -4.316  0.111E+00  0.111E+00
  -4.306  0.111E+00  0.111E+00
  -4.296  0.111E+00  0.111E+00
  -4.286  0.111E+00  0.111E+00
  -4.276  0.110E+00  0.110E+00
  -4.266  0.110E+00  0.110E+00
  -4.256  0.110E+00  0.110E+00
  -4.246  0.110E+00  0.110E+00
  -4.236  0.109E+00  0.109E+00
  -4.226  0.109E+00  0.109E+00
  -4.216  0.108E+00  0.108E+00
  -4.206  0.108E+00  0.108E+00
  -4.196  0.107E+00  0.107E+00
  -4.186  0.107E+00  0.107E+00
  -4.176  0.106E+00  0.106E+00
  -4.166  0.105E+00  0.105E+00
  -4.156  0.105E+00  0.105E+00
  -4.146  0.104E+00  0.104E+00
  -4.136  0.103E+00  0.103E+00
  -4.126  0.103E+00  0.103E+00
  -4.116  0.102E+00  0.102E+00
  -4.106  0.101E+00  0.101E+00
  -4.096  0.100E+00  0.100E+00
  -4.086  0.992E-01  0.992E-01
  -4.076  0.983E-01  0.983E-01
  -4.066  0.974E-01  0.974E-01
  -4.056  0.964E-01  0.964E-01
  -4.046  0.955E-01  0.955E-01
  -4.036  0.945E-01  0.945E-01
  -4.026  0.934E-01  0.934E-01
  -4.016  0.924E-01  0.924E-01
  -4.006  0.914E-01  0.914E-01
  -3.996  0.903E-01  0.903E-01
  -3.986  0.892E-01  0.892E-01
  -3.976  0.881E-01  0.881E-01
  -3.966  0.870E-01  0.870E-01
  -3.956  0.859E-01  0.859E-01
  -3.946  0.848E-01  0.848E-01
  -3.936  0.837E-01  0.837E-01
  -3.926  0.826E-01  0.826E-01
  -3.916  0.814E-01  0.814E-01
  -3.906  0.803E-01  0.803E-01
  -3.896  0.792E-01  0.792E-01
  -3.886  0.780E-01  0.780E-01
  -3.876  0.769E-01  0.769E-01
  -3.866  0.758E-01  0.758E-01
  -3.856  0.746E-01  0.746E-01
  -3.846  0.735E-01  0.735E-01
  -3.836  0.724E-01  0.724E-01
  -3.826  0.713E-01  0.713E-01
  -3.816  0.702E-01  0.702E-01
  -3.806  0.691E-01  0.691E-01
  -3.796  0.680E-01  0.680E-01
  -3.786  0.670E-01  0.670E-01
  -3.776  0.659E-01  0.659E-01
  -3.766  0.649E-01  0.649E-01
  -3.756  0.639E-01  0.639E-01
  -3.746  0.629E-01  0.629E-01
  -3.736  0.619E-01  0.619E-01
  -3.726  0.609E-01  0.609E-01
  -3.716  0.600E-01  0.600E-01
  -3.706  0.590E-01  0.590E-01
  -3.696  0.581E-01  0.581E-01
  -3.686  0.572E-01  0.572E-01
  -3.676  0.564E-01  0.564E-01
  -3.666  0.555E-01  0.555E-01
  -3.656  0.547E-01  0.547E-01
  -3.646  0.539E-01  0.539E-01
  -3.636  0.532E-01  0.532E-01
  -3.626  0.524E-01  0.524E-01
  -3.616  0.517E-01  0.517E-01
  -3.606  0.510E-01  0.510E-01
  -3.596  0.504E-01  0.504E-01
  -3.586  0.497E-01  0.497E-01
  -3.576  0.491E-01  0.491E-01
  -3.566  0.486E-01  0.486E-01
  -3.556  0.480E-01  0.480E-01
  -3.546  0.475E-01  0.475E-01
  -3.536  0.470E-01  0.470E-01
  -3.526  0.466E-01  0.466E-01
  -3.516  0.462E-01  0.462E-01
  -3.506  0.458E-01  0.458E-01
  -3.496  0.454E-01  0.454E-01
  -3.486  0.451E-01  0.451E-01
  -3.476  0.449E-01  0.449E-01
  -3.466  0.446E-01  0.446E-01
  -3.456  0.444E-01  0.444E-01
  -3.446  0.442E-01  0.442E-01
  -3.436  0.441E-01  0.441E-01
  -3.426  0.440E-01  0.440E-01
  -3.416  0.439E-01  0.439E-01
  -3.406  0.439E-01  0.439E-01
  -3.396  0.439E-01  0.439E-01
  -3.386  0.439E-01  0.439E-01
  -3.376  0.440E-01  0.440E-01
  -3.366  0.441E-01  0.441E-01
  -3.356  0.443E-01  0.443E-01
  -3.346  0.445E-01  0.445E-01
  -3.336  0.447E-01  0.447E-01
  -3.326  0.449E-01  0.449E-01
  -3.316  0.452E-01  0.452E-01
  -3.306  0.456E-01  0.456E-01
  -3.296  0.459E-01  0.459E-01
  -3.286  0.463E-01  0.463E-01
  -3.276  0.468E-01  0.468E-01
  -3.266  0.472E-01  0.472E-01
  -3.256  0.477E-01  0.477E-01
  -3.246  0.483E-01  0.483E-01
  -3.236  0.488E-01  0.488E-01
  -3.226  0.494E-01  0.494E-01
  -3.216  0.500E-01  0.500E-01
  -3.206  0.507E-01  0.507E-01
  -3.196  0.514E-01  0.514E-01
  -3.186  0.521E-01  0.521E-01
  -3.176  0.528E-01  0.528E-01
  -3.166  0.536E-01  0.536E-01
  -3.156  0.544E-01  0.544E-01
  -3.146  0.552E-01  0.552E-01
  -3.136  0.560E-01  0.560E-01
  -3.126  0.569E-01  0.569E-01
  -3.116  0.578E-01  0.578E-01
  -3.106  0.587E-01  0.587E-01
  -3.096  0.596E-01  0.596E-01
  -3.086  0.606E-01  0.606E-01
  -3.076  0.615E-01  0.615E-01
  -3.066  0.625E-01  0.625E-01
  -3.056  0.635E-01  0.635E-01
  -3.046  0.645E-01  0.645E-01
  -3.036  0.655E-01  0.655E-01
  -3.026  0.665E-01  0.665E-01
  -3.016  0.675E-01  0.675E-01
  -3.006  0.685E-01  0.685E-01
  -2.996  0.696E-01  0.696E-01
  -2.986  0.706E-01  0.706E-01
  -2.976  0.716E-01  0.716E-01
  -2.966  0.727E-01  0.727E-01
  -2.956  0.737E-01  0.737E-01
  -2.946  0.747E-01  0.747E-01
  -2.936  0.757E-01  0.757E-01
  -2.926  0.767E-01  0.767E-01
  -2.916  0.777E-01  0.777E-01
  -2.906  0.787E-01  0.787E-01
  -2.896  0.797E-01  0.797E-01
  -2.886  0.807E-01  0.807E-01
  -2.876  0.816E-01  0.816E-01
  -2.866  0.826E-01  0.826E-01
  -2.856  0.835E-01  0.835E-01
  -2.846  0.844E-01  0.844E-01
  -2.836  0.852E-01  0.852E-01
  -2.826  0.861E-01  0.861E-01
  -2.816  0.869E-01  0.869E-01
  -2.806  0.877E-01  0.877E-01
  -2.796  0.885E-01  0.885E-01
  -2.786  0.892E-01  0.892E-01
  -2.776  0.899E-01  0.899E-01
  -2.766  0.906E-01  0.906E-01
  -2.756  0.912E-01  0.912E-01
  -2.746  0.918E-01  0.918E-01
  -2.736  0.924E-01  0.924E-01
  -2.726  0.930E-01  0.930E-01
  -2.716  0.935E-01  0.935E-01
  -2.706  0.939E-01  0.939E-01
  -2.696  0.944E-01  0.944E-01
  -2.686  0.948E-01  0.948E-01
  -2.676  0.951E-01  0.951E-01
  -2.666  0.954E-01  0.954E-01
  -2.656  0.957E-01  0.957E-01
  -2.646  0.960E-01  0.960E-01
  -2.636  0.962E-01  0.962E-01
  -2.626  0.963E-01  0.963E-01
  -2.616  0.964E-01  0.964E-01
  -2.606  0.965E-01  0.965E-01
  -2.596  0.965E-01  0.965E-01
  -2.586  0.965E-01  0.965E-01
  -2.576  0.965E-01  0.965E-01
  -2.566  0.964E-01  0.964E-01
  -2.556  0.963E-01  0.963E-01
  -2.546  0.961E-01  0.961E-01
  -2.536  0.959E-01  0.959E-01
  -2.526  0.957E-01  0.957E-01
  -2.516  0.954E-01  0.954E-01
  -2.506  0.951E-01  0.951E-01
  -2.496  0.947E-01  0.947E-01
  -2.486  0.944E-01  0.944E-01
  -2.476  0.939E-01  0.939E-01
  -2.466  0.935E-01  0.935E-01
  -2.456  0.930E-01  0.930E-01
  -2.446  0.925E-01  0.925E-01
  -2.436  0.919E-01  0.919E-01
  -2.426  0.914E-01  0.914E-01
  -2.416  0.907E-01  0.907E-01
  -2.406  0.901E-01  0.901E-01
  -2.396  0.894E-01  0.894E-01
  -2.386  0.888E-01  0.888E-01
  -2.376  0.881E-01  0.881E-01
  -2.366  0.873E-01  0.873E-01
  -2.356  0.866E-01  0.866E-01
  -2.346  0.858E-01  0.858E-01
  -2.336  0.850E-01  0.850E-01
  -2.326  0.842E-01  0.842E-01
  -2.316  0.834E-01  0.834E-01
  -2.306  0.825E-01  0.825E-01
  -2.296  0.817E-01  0.817E-01
  -2.286  0.808E-01  0.808E-01
  -2.276  0.799E-01  0.799E-01
  -2.266  0.790E-01  0.790E-01
  -2.256  0.781E-01  0.781E-01
  -2.246  0.772E-01  0.772E-01
  -2.236  0.763E-01  0.763E-01
  -2.226  0.754E-01  0.754E-01
  -2.216  0.745E-01  0.745E-01
  -2.206  0.736E-01  0.736E-01
  -2.196  0.726E-01  0.726E-01
  -2.186  0.717E-01  0.717E-01
  -2.176  0.708E-01  0.708E-01
  -2.166  0.699E-01  0.699E-01
  -2.156  0.690E-01  0.690E-01
  -2.146  0.680E-01  0.680E-01
  -2.136  0.671E-01  0.671E-01
  -2.126  0.662E-01  0.662E-01
  -2.116  0.654E-01  0.654E-01
  -2.106  0.645E-01  0.645E-01
  -2.096  0.636E-01  0.636E-01
  -2.086  0.627E-01  0.627E-01
  -2.076  0.619E-01  0.619E-01
  -2.066  0.611E-01  0.611E-01
  -2.056  0.602E-01  0.602E-01
  -2.046  0.594E-01  0.594E-01
  -2.036  0.586E-01  0.586E-01
  -2.026  0.578E-01  0.578E-01
  -2.016  0.571E-01  0.571E-01
  -2.006  0.563E-01  0.563E-01
  -1.996  0.556E-01  0.556E-01
  -1.986  0.549E-01  0.549E-01
  -1.976  0.542E-01  0.542E-01
  -1.966  0.535E-01  0.535E-01
  -1.956  0.528E-01  0.528E-01
  -1.946  0.521E-01  0.521E-01
  -1.936  0.515E-01  0.515E-01
  -1.926  0.509E-01  0.509E-01
  -1.916  0.503E-01  0.503E-01
  -1.906  0.497E-01  0.497E-01
  -1.896  0.492E-01  0.492E-01
  -1.886  0.486E-01  0.486E-01
  -1.876  0.481E-01  0.481E-01
  -1.866  0.476E-01  0.476E-01
  -1.856  0.471E-01  0.471E-01
  -1.846  0.467E-01  0.467E-01
  -1.836  0.462E-01  0.462E-01
  -1.826  0.458E-01  0.458E-01
  -1.816  0.454E-01  0.454E-01
  -1.806  0.450E-01  0.450E-01
  -1.796  0.447E-01  0.447E-01
  -1.786  0.443E-01  0.443E-01
  -1.776  0.440E-01  0.440E-01
  -1.766  0.437E-01  0.437E-01
  -1.756  0.434E-01  0.434E-01
  -1.746  0.431E-01  0.431E-01
  -1.736  0.428E-01  0.428E-01
  -1.726  0.426E-01  0.426E-01
  -1.716  0.424E-01  0.424E-01
  -1.706  0.422E-01  0.422E-01
  -1.696  0.420E-01  0.420E-01
  -1.686  0.418E-01  0.418E-01
  -1.676  0.416E-01  0.416E-01
  -1.666  0.415E-01  0.415E-01
  -1.656  0.413E-01  0.413E-01
  -1.646  0.412E-01  0.412E-01
  -1.636  0.411E-01  0.411E-01
  -1.626  0.410E-01  0.410E-01
  -1.616  0.409E-01  0.409E-01
  -1.606  0.409E-01  0.409E-01
  -1.596  0.408E-01  0.408E-01
  -1.586  0.408E-01  0.408E-01
  -1.576  0.407E-01  0.407E-01
  -1.566  0.407E-01  0.407E-01
  -1.556  0.407E-01  0.407E-01
  -1.546  0.407E-01  0.407E-01
  -1.536  0.407E-01  0.407E-01
  -1.526  0.407E-01  0.407E-01
  -1.516  0.407E-01  0.407E-01
  -1.506  0.407E-01  0.407E-01
  -1.496  0.408E-01  0.408E-01
  -1.486  0.408E-01  0.408E-01
  -1.476  0.408E-01  0.408E-01
  -1.466  0.409E-01  0.409E-01
  -1.456  0.409E-01  0.409E-01
  -1.446  0.410E-01  0.410E-01
  -1.436  0.411E-01  0.411E-01
  -1.426  0.411E-01  0.411E-01
  -1.416  0.412E-01  0.412E-01
  -1.406  0.413E-01  0.413E-01
  -1.396  0.413E-01  0.413E-01
  -1.386  0.414E-01  0.414E-01
  -1.376  0.415E-01  0.415E-01
  -1.366  0.416E-01  0.416E-01
  -1.356  0.416E-01  0.416E-01
  -1.346  0.417E-01  0.417E-01
  -1.336  0.418E-01  0.418E-01
  -1.326  0.419E-01  0.419E-01
  -1.316  0.419E-01  0.419E-01
  -1.306  0.420E-01  0.420E-01
  -1.296  0.421E-01  0.421E-01
  -1.286  0.422E-01  0.422E-01
  -1.276  0.422E-01  0.422E-01
  -1.266  0.423E-01  0.423E-01
  -1.256  0.423E-01  0.423E-01
  -1.246  0.424E-01  0.424E-01
  -1.236  0.424E-01  0.424E-01
  -1.226  0.425E-01  0.425E-01
  -1.216  0.425E-01  0.425E-01
  -1.206  0.426E-01  0.426E-01
  -1.196  0.426E-01  0.426E-01
  -1.186  0.426E-01  0.426E-01
  -1.176  0.426E-01  0.426E-01
  -1.166  0.426E-01  0.426E-01
  -1.156  0.426E-01  0.426E-01
  -1.146  0.426E-01  0.426E-01
  -1.136  0.426E-01  0.426E-01
  -1.126  0.426E-01  0.426E-01
  -1.116  0.426E-01  0.426E-01
  -1.106  0.425E-01  0.425E-01
  -1.096  0.425E-01  0.425E-01
  -1.086  0.424E-01  0.424E-01
  -1.076  0.424E-01  0.424E-01
  -1.066  0.423E-01  0.423E-01
  -1.056  0.422E-01  0.422E-01
  -1.046  0.421E-01  0.421E-01
  -1.036  0.420E-01  0.420E-01
  -1.026  0.419E-01  0.419E-01
  -1.016  0.418E-01  0.418E-01
  -1.006  0.417E-01  0.417E-01
  -0.996  0.415E-01  0.415E-01
  -0.986  0.414E-01  0.414E-01
  -0.976  0.412E-01  0.412E-01
  -0.966  0.410E-01  0.410E-01
  -0.956  0.408E-01  0.408E-01
  -0.946  0.406E-01  0.406E-01
  -0.936  0.404E-01  0.404E-01
  -0.926  0.402E-01  0.402E-01
  -0.916  0.400E-01  0.400E-01
  -0.906  0.398E-01  0.398E-01
  -0.896  0.395E-01  0.395E-01
  -0.886  0.392E-01  0.392E-01
  -0.876  0.390E-01  0.390E-01
  -0.866  0.387E-01  0.387E-01
  -0.856  0.384E-01  0.384E-01
  -0.846  0.381E-01  0.381E-01
  -0.836  0.378E-01  0.378E-01
  -0.826  0.374E-01  0.374E-01
  -0.816  0.371E-01  0.371E-01
  -0.806  0.368E-01  0.368E-01
  -0.796  0.364E-01  0.364E-01
  -0.786  0.360E-01  0.360E-01
  -0.776  0.357E-01  0.357E-01
  -0.766  0.353E-01  0.353E-01
  -0.756  0.349E-01  0.349E-01
  -0.746  0.345E-01  0.345E-01
  -0.736  0.341E-01  0.341E-01
  -0.726  0.337E-01  0.337E-01
  -0.716  0.333E-01  0.333E-01
  -0.706  0.328E-01  0.328E-01
  -0.696  0.324E-01  0.324E-01
  -0.686  0.320E-01  0.320E-01
  -0.676  0.315E-01  0.315E-01
  -0.666  0.311E-01  0.311E-01
  -0.656  0.306E-01  0.306E-01
  -0.646  0.301E-01  0.301E-01
  -0.636  0.297E-01  0.297E-01
  -0.626  0.292E-01  0.292E-01
  -0.616  0.288E-01  0.288E-01
  -0.606  0.283E-01  0.283E-01
  -0.596  0.278E-01  0.278E-01
  -0.586  0.274E-01  0.274E-01
  -0.576  0.269E-01  0.269E-01
  -0.566  0.264E-01  0.264E-01
  -0.556  0.260E-01  0.260E-01
  -0.546  0.255E-01  0.255E-01
  -0.536  0.251E-01  0.251E-01
  -0.526  0.246E-01  0.246E-01
  -0.516  0.242E-01  0.242E-01
  -0.506  0.237E-01  0.237E-01
  -0.496  0.233E-01  0.233E-01
  -0.486  0.229E-01  0.229E-01
  -0.476  0.225E-01  0.225E-01
  -0.466  0.221E-01  0.221E-01
  -0.456  0.217E-01  0.217E-01
  -0.446  0.213E-01  0.213E-01
  -0.436  0.210E-01  0.210E-01
  -0.426  0.206E-01  0.206E-01
  -0.416  0.203E-01  0.203E-01
  -0.406  0.200E-01  0.200E-01
  -0.396  0.197E-01  0.197E-01
  -0.386  0.194E-01  0.194E-01
  -0.376  0.191E-01  0.191E-01
  -0.366  0.189E-01  0.189E-01
  -0.356  0.186E-01  0.186E-01
  -0.346  0.184E-01  0.184E-01
  -0.336  0.183E-01  0.183E-01
  -0.326  0.181E-01  0.181E-01
  -0.316  0.180E-01  0.180E-01
  -0.306  0.179E-01  0.179E-01
  -0.296  0.178E-01  0.178E-01
  -0.286  0.177E-01  0.177E-01
  -0.276  0.177E-01  0.177E-01
  -0.266  0.177E-01  0.177E-01
  -0.256  0.177E-01  0.177E-01
  -0.246  0.177E-01  0.177E-01
  -0.236  0.178E-01  0.178E-01
  -0.226  0.179E-01  0.179E-01
  -0.216  0.180E-01  0.180E-01
  -0.206  0.182E-01  0.182E-01
  -0.196  0.184E-01  0.184E-01
  -0.186  0.186E-01  0.186E-01
  -0.176  0.188E-01  0.188E-01
  -0.166  0.191E-01  0.191E-01
  -0.156  0.194E-01  0.194E-01
  -0.146  0.197E-01  0.197E-01
  -0.136  0.201E-01  0.201E-01
  -0.126  0.205E-01  0.205E-01
  -0.116  0.209E-01  0.209E-01
  -0.106  0.214E-01  0.214E-01
  -0.096  0.219E-01  0.219E-01
  -0.086  0.224E-01  0.224E-01
  -0.076  0.229E-01  0.229E-01
  -0.066  0.235E-01  0.235E-01
  -0.056  0.241E-01  0.241E-01
  -0.046  0.247E-01  0.247E-01
  -0.036  0.254E-01  0.254E-01
  -0.026  0.260E-01  0.260E-01
  -0.016  0.268E-01  0.268E-01
  -0.006  0.275E-01  0.275E-01
   0.004  0.282E-01  0.282E-01
   0.014  0.290E-01  0.290E-01
   0.024  0.298E-01  0.298E-01
   0.034  0.307E-01  0.307E-01
   0.044  0.315E-01  0.315E-01
   0.054  0.324E-01  0.324E-01
   0.064  0.333E-01  0.333E-01
   0.074  0.342E-01  0.342E-01
   0.084  0.351E-01  0.351E-01
   0.094  0.361E-01  0.361E-01
   0.104  0.370E-01  0.370E-01
   0.114  0.380E-01  0.380E-01
   0.124  0.390E-01  0.390E-01
   0.134  0.400E-01  0.400E-01
   0.144  0.410E-01  0.410E-01
   0.154  0.420E-01  0.420E-01
   0.164  0.431E-01  0.431E-01
   0.174  0.441E-01  0.441E-01
   0.184  0.452E-01  0.452E-01
   0.194  0.462E-01  0.462E-01
   0.204  0.473E-01  0.473E-01
   0.214  0.483E-01  0.483E-01
   0.224  0.494E-01  0.494E-01
   0.234  0.505E-01  0.505E-01
   0.244  0.516E-01  0.516E-01
   0.254  0.526E-01  0.526E-01
   0.264  0.537E-01  0.537E-01
   0.274  0.548E-01  0.548E-01
   0.284  0.558E-01  0.558E-01
   0.294  0.569E-01  0.569E-01
   0.304  0.580E-01  0.580E-01
   0.314  0.590E-01  0.590E-01
   0.324  0.601E-01  0.601E-01
   0.334  0.611E-01  0.611E-01
   0.344  0.621E-01  0.621E-01
   0.354  0.631E-01  0.631E-01
   0.364  0.642E-01  0.642E-01
   0.374  0.652E-01  0.652E-01
   0.384  0.661E-01  0.661E-01
   0.394  0.671E-01  0.671E-01
   0.404  0.681E-01  0.681E-01
   0.414  0.691E-01  0.691E-01
   0.424  0.700E-01  0.700E-01
   0.434  0.709E-01  0.709E-01
   0.444  0.719E-01  0.719E-01
   0.454  0.728E-01  0.728E-01
   0.464  0.737E-01  0.737E-01
   0.474  0.746E-01  0.746E-01
   0.484  0.754E-01  0.754E-01
   0.494  0.763E-01  0.763E-01
   0.504  0.771E-01  0.771E-01
   0.514  0.780E-01  0.780E-01
   0.524  0.788E-01  0.788E-01
   0.534  0.796E-01  0.796E-01
   0.544  0.804E-01  0.804E-01
   0.554  0.812E-01  0.812E-01
   0.564  0.819E-01  0.819E-01
   0.574  0.827E-01  0.827E-01
   0.584  0.834E-01  0.834E-01
   0.594  0.842E-01  0.842E-01
   0.604  0.849E-01  0.849E-01
   0.614  0.856E-01  0.856E-01
   0.624  0.864E-01  0.864E-01
   0.634  0.871E-01  0.871E-01
   0.644  0.878E-01  0.878E-01
   0.654  0.885E-01  0.885E-01
   0.664  0.891E-01  0.891E-01
   0.674  0.898E-01  0.898E-01
   0.684  0.905E-01  0.905E-01
   0.694  0.912E-01  0.912E-01
   0.704  0.919E-01  0.919E-01
   0.714  0.925E-01  0.925E-01
   0.724  0.932E-01  0.932E-01
   0.734  0.939E-01  0.939E-01
   0.744  0.946E-01  0.946E-01
   0.754  0.952E-01  0.952E-01
   0.764  0.959E-01  0.959E-01
   0.774  0.966E-01  0.966E-01
   0.784  0.973E-01  0.973E-01
   0.794  0.980E-01  0.980E-01
   0.804  0.987E-01  0.987E-01
   0.814  0.994E-01  0.994E-01
   0.824  0.100E+00  0.100E+00
   0.834  0.101E+00  0.101E+00
   0.844  0.102E+00  0.102E+00
   0.854  0.102E+00  0.102E+00
   0.864  0.103E+00  0.103E+00
   0.874  0.104E+00  0.104E+00
   0.884  0.105E+00  0.105E+00
   0.894  0.105E+00  0.105E+00
   0.904  0.106E+00  0.106E+00
   0.914  0.107E+00  0.107E+00
   0.924  0.108E+00  0.108E+00
   0.934  0.109E+00  0.109E+00
   0.944  0.109E+00  0.109E+00
   0.954  0.110E+00  0.110E+00
   0.964  0.111E+00  0.111E+00
   0.974  0.112E+00  0.112E+00
   0.984  0.113E+00  0.113E+00
   0.994  0.114E+00  0.114E+00
   1.004  0.115E+00  0.115E+00
   1.014  0.116E+00  0.116E+00
   1.024  0.117E+00  0.117E+00
   1.034  0.118E+00  0.118E+00
   1.044  0.119E+00  0.119E+00
   1.054  0.120E+00  0.120E+00
   1.064  0.121E+00  0.121E+00
   1.074  0.122E+00  0.122E+00
   1.084  0.123E+00  0.123E+00
   1.094  0.124E+00  0.124E+00
   1.104  0.125E+00  0.125E+00
   1.114  0.126E+00  0.126E+00
   1.124  0.127E+00  0.127E+00
   1.134  0.128E+00  0.128E+00
   1.144  0.129E+00  0.129E+00
   1.154  0.130E+00  0.130E+00
   1.164  0.132E+00  0.132E+00
   1.174  0.133E+00  0.133E+00
   1.184  0.134E+00  0.134E+00
   1.194  0.135E+00  0.135E+00
   1.204  0.136E+00  0.136E+00
   1.214  0.137E+00  0.137E+00
   1.224  0.138E+00  0.138E+00
   1.234  0.140E+00  0.140E+00
   1.244  0.141E+00  0.141E+00
   1.254  0.142E+00  0.142E+00
   1.264  0.143E+00  0.143E+00
   1.274  0.144E+00  0.144E+00
   1.284  0.145E+00  0.145E+00
   1.294  0.147E+00  0.147E+00
   1.304  0.148E+00  0.148E+00
   1.314  0.149E+00  0.149E+00
   1.324  0.150E+00  0.150E+00
   1.334  0.151E+00  0.151E+00
   1.344  0.152E+00  0.152E+00
   1.354  0.153E+00  0.153E+00
   1.364  0.155E+00  0.155E+00
   1.374  0.156E+00  0.156E+00
   1.384  0.157E+00  0.157E+00
   1.394  0.158E+00  0.158E+00
   1.404  0.159E+00  0.159E+00
   1.414  0.160E+00  0.160E+00
   1.424  0.161E+00  0.161E+00
   1.434  0.162E+00  0.162E+00
   1.444  0.163E+00  0.163E+00
   1.454  0.164E+00  0.164E+00
   1.464  0.164E+00  0.164E+00
   1.474  0.165E+00  0.165E+00
   1.484  0.166E+00  0.166E+00
   1.494  0.167E+00  0.167E+00
   1.504  0.168E+00  0.168E+00
   1.514  0.168E+00  0.168E+00
   1.524  0.169E+00  0.169E+00
   1.534  0.170E+00  0.170E+00
   1.544  0.170E+00  0.170E+00
   1.554  0.171E+00  0.171E+00
   1.564  0.171E+00  0.171E+00
   1.574  0.172E+00  0.172E+00
   1.584  0.172E+00  0.172E+00
   1.594  0.173E+00  0.173E+00
   1.604  0.173E+00  0.173E+00
   1.614  0.173E+00  0.173E+00
   1.624  0.174E+00  0.174E+00
   1.634  0.174E+00  0.174E+00
   1.644  0.174E+00  0.174E+00
   1.654  0.174E+00  0.174E+00
   1.664  0.174E+00  0.174E+00
   1.674  0.174E+00  0.174E+00
   1.684  0.174E+00  0.174E+00
   1.694  0.174E+00  0.174E+00
   1.704  0.174E+00  0.174E+00
   1.714  0.174E+00  0.174E+00
   1.724  0.174E+00  0.174E+00
   1.734  0.174E+00  0.174E+00
   1.744  0.173E+00  0.173E+00
   1.754  0.173E+00  0.173E+00
   1.764  0.173E+00  0.173E+00
   1.774  0.172E+00  0.172E+00
   1.784  0.172E+00  0.172E+00
   1.794  0.171E+00  0.171E+00
   1.804  0.171E+00  0.171E+00
   1.814  0.170E+00  0.170E+00
   1.824  0.169E+00  0.169E+00
   1.834  0.169E+00  0.169E+00
   1.844  0.168E+00  0.168E+00
   1.854  0.167E+00  0.167E+00
   1.864  0.166E+00  0.166E+00
   1.874  0.166E+00  0.166E+00
   1.884  0.165E+00  0.165E+00
   1.894  0.164E+00  0.164E+00
   1.904  0.163E+00  0.163E+00
   1.914  0.162E+00  0.162E+00
   1.924  0.161E+00  0.161E+00
   1.934  0.160E+00  0.160E+00
   1.944  0.159E+00  0.159E+00
   1.954  0.158E+00  0.158E+00
   1.964  0.157E+00  0.157E+00
   1.974  0.156E+00  0.156E+00
   1.984  0.155E+00  0.155E+00
   1.994  0.154E+00  0.154E+00
   2.004  0.153E+00  0.153E+00
   2.014  0.152E+00  0.152E+00
   2.024  0.151E+00  0.151E+00
   2.034  0.150E+00  0.150E+00
   2.044  0.149E+00  0.149E+00
   2.054  0.148E+00  0.148E+00
   2.064  0.147E+00  0.147E+00
   2.074  0.146E+00  0.146E+00
   2.084  0.145E+00  0.145E+00
   2.094  0.144E+00  0.144E+00
   2.104  0.144E+00  0.144E+00
   2.114  0.143E+00  0.143E+00
   2.124  0.142E+00  0.142E+00
   2.134  0.141E+00  0.141E+00
   2.144  0.141E+00  0.141E+00
   2.154  0.140E+00  0.140E+00
   2.164  0.139E+00  0.139E+00
   2.174  0.139E+00  0.139E+00
   2.184  0.138E+00  0.138E+00
   2.194  0.138E+00  0.138E+00
   2.204  0.137E+00  0.137E+00
   2.214  0.137E+00  0.137E+00
   2.224  0.137E+00  0.137E+00
   2.234  0.137E+00  0.137E+00
   2.244  0.136E+00  0.136E+00
   2.254  0.136E+00  0.136E+00
   2.264  0.136E+00  0.136E+00
   2.274  0.136E+00  0.136E+00
   2.284  0.137E+00  0.137E+00
   2.294  0.137E+00  0.137E+00
   2.304  0.137E+00  0.137E+00
   2.314  0.137E+00  0.137E+00
   2.324  0.138E+00  0.138E+00
   2.334  0.138E+00  0.138E+00
   2.344  0.139E+00  0.139E+00
   2.354  0.139E+00  0.139E+00
   2.364  0.140E+00  0.140E+00
   2.374  0.141E+00  0.141E+00
   2.384  0.142E+00  0.142E+00
   2.394  0.143E+00  0.143E+00
   2.404  0.144E+00  0.144E+00
   2.414  0.145E+00  0.145E+00
   2.424  0.146E+00  0.146E+00
   2.434  0.147E+00  0.147E+00
   2.444  0.148E+00  0.148E+00
   2.454  0.149E+00  0.149E+00
   2.464  0.151E+00  0.151E+00
   2.474  0.152E+00  0.152E+00
   2.484  0.154E+00  0.154E+00
   2.494  0.155E+00  0.155E+00
   2.504  0.157E+00  0.157E+00
   2.514  0.158E+00  0.158E+00
   2.524  0.160E+00  0.160E+00
   2.534  0.162E+00  0.162E+00
   2.544  0.163E+00  0.163E+00
   2.554  0.165E+00  0.165E+00
   2.564  0.167E+00  0.167E+00
   2.574  0.169E+00  0.169E+00
   2.584  0.170E+00  0.170E+00
   2.594  0.172E+00  0.172E+00
   2.604  0.174E+00  0.174E+00
   2.614  0.176E+00  0.176E+00
   2.624  0.178E+00  0.178E+00
   2.634  0.179E+00  0.179E+00
   2.644  0.181E+00  0.181E+00
   2.654  0.183E+00  0.183E+00
   2.664  0.185E+00  0.185E+00
   2.674  0.186E+00  0.186E+00
   2.684  0.188E+00  0.188E+00
   2.694  0.190E+00  0.190E+00
   2.704  0.191E+00  0.191E+00
   2.714  0.193E+00  0.193E+00
   2.724  0.195E+00  0.195E+00
   2.734  0.196E+00  0.196E+00
   2.744  0.197E+00  0.197E+00
   2.754  0.199E+00  0.199E+00
   2.764  0.200E+00  0.200E+00
   2.774  0.201E+00  0.201E+00
   2.784  0.203E+00  0.203E+00
   2.794  0.204E+00  0.204E+00
   2.804  0.205E+00  0.205E+00
   2.814  0.206E+00  0.206E+00
   2.824  0.206E+00  0.206E+00
   2.834  0.207E+00  0.207E+00
   2.844  0.208E+00  0.208E+00
   2.854  0.208E+00  0.208E+00
   2.864  0.209E+00  0.209E+00
   2.874  0.209E+00  0.209E+00
   2.884  0.210E+00  0.210E+00
   2.894  0.210E+00  0.210E+00
   2.904  0.210E+00  0.210E+00
   2.914  0.210E+00  0.210E+00
   2.924  0.210E+00  0.210E+00
   2.934  0.209E+00  0.209E+00
   2.944  0.209E+00  0.209E+00
   2.954  0.209E+00  0.209E+00
   2.964  0.208E+00  0.208E+00
   2.974  0.207E+00  0.207E+00
   2.984  0.206E+00  0.206E+00
   2.994  0.206E+00  0.206E+00
   3.004  0.204E+00  0.204E+00
   3.014  0.203E+00  0.203E+00
   3.024  0.202E+00  0.202E+00
   3.034  0.201E+00  0.201E+00
   3.044  0.199E+00  0.199E+00
   3.054  0.198E+00  0.198E+00
   3.064  0.196E+00  0.196E+00
   3.074  0.194E+00  0.194E+00
   3.084  0.192E+00  0.192E+00
   3.094  0.190E+00  0.190E+00
   3.104  0.188E+00  0.188E+00
   3.114  0.186E+00  0.186E+00
   3.124  0.184E+00  0.184E+00
   3.134  0.181E+00  0.181E+00
   3.144  0.179E+00  0.179E+00
   3.154  0.176E+00  0.176E+00
   3.164  0.174E+00  0.174E+00
   3.174  0.171E+00  0.171E+00
   3.184  0.168E+00  0.168E+00
   3.194  0.166E+00  0.166E+00
   3.204  0.163E+00  0.163E+00
   3.214  0.160E+00  0.160E+00
   3.224  0.157E+00  0.157E+00
   3.234  0.154E+00  0.154E+00
   3.244  0.151E+00  0.151E+00
   3.254  0.148E+00  0.148E+00
   3.264  0.144E+00  0.144E+00
   3.274  0.141E+00  0.141E+00
   3.284  0.138E+00  0.138E+00
   3.294  0.135E+00  0.135E+00
   3.304  0.131E+00  0.131E+00
   3.314  0.128E+00  0.128E+00
   3.324  0.125E+00  0.125E+00
   3.334  0.121E+00  0.121E+00
   3.344  0.118E+00  0.118E+00
   3.354  0.115E+00  0.115E+00
   3.364  0.111E+00  0.111E+00
   3.374  0.108E+00  0.108E+00
   3.384  0.105E+00  0.105E+00
   3.394  0.101E+00  0.101E+00
   3.404  0.979E-01  0.979E-01
   3.414  0.946E-01  0.946E-01
   3.424  0.913E-01  0.913E-01
   3.434  0.881E-01  0.881E-01
   3.444  0.849E-01  0.849E-01
   3.454  0.817E-01  0.817E-01
   3.464  0.785E-01  0.785E-01
   3.474  0.754E-01  0.754E-01
   3.484  0.723E-01  0.723E-01
   3.494  0.693E-01  0.693E-01
   3.504  0.663E-01  0.663E-01
   3.514  0.633E-01  0.633E-01
   3.524  0.604E-01  0.604E-01
   3.534  0.576E-01  0.576E-01
   3.544  0.548E-01  0.548E-01
   3.554  0.520E-01  0.520E-01
   3.564  0.493E-01  0.493E-01
   3.574  0.467E-01  0.467E-01
   3.584  0.441E-01  0.441E-01
   3.594  0.416E-01  0.416E-01
   3.604  0.392E-01  0.392E-01
   3.614  0.368E-01  0.368E-01
   3.624  0.345E-01  0.345E-01
   3.634  0.322E-01  0.322E-01
   3.644  0.300E-01  0.300E-01
   3.654  0.279E-01  0.279E-01
   3.664  0.259E-01  0.259E-01
   3.674  0.239E-01  0.239E-01
   3.684  0.219E-01  0.219E-01
   3.694  0.201E-01  0.201E-01
   3.704  0.183E-01  0.183E-01
   3.714  0.166E-01  0.166E-01
   3.724  0.149E-01  0.149E-01
   3.734  0.133E-01  0.133E-01
   3.744  0.118E-01  0.118E-01
   3.754  0.103E-01  0.103E-01
   3.764  0.888E-02  0.888E-02
   3.774  0.754E-02  0.754E-02
   3.784  0.625E-02  0.625E-02
   3.794  0.503E-02  0.503E-02
   3.804  0.387E-02  0.387E-02
   3.814  0.277E-02  0.277E-02
   3.824  0.172E-02  0.172E-02
   3.834  0.731E-03  0.731E-03
   3.844 -0.203E-03 -0.203E-03
   3.854 -0.108E-02 -0.108E-02
   3.864 -0.191E-02 -0.191E-02
   3.874 -0.269E-02 -0.269E-02
   3.884 -0.341E-02 -0.341E-02
   3.894 -0.409E-02 -0.409E-02
   3.904 -0.472E-02 -0.472E-02
   3.914 -0.530E-02 -0.530E-02
   3.924 -0.584E-02 -0.584E-02
   3.934 -0.634E-02 -0.634E-02
   3.944 -0.680E-02 -0.680E-02
   3.954 -0.721E-02 -0.721E-02
   3.964 -0.759E-02 -0.759E-02
   3.974 -0.793E-02 -0.793E-02
   3.984 -0.824E-02 -0.824E-02
   3.994 -0.851E-02 -0.851E-02
   4.004 -0.874E-02 -0.874E-02
   4.014 -0.895E-02 -0.895E-02
   4.024 -0.913E-02 -0.913E-02
   4.034 -0.928E-02 -0.928E-02
   4.044 -0.940E-02 -0.940E-02
   4.054 -0.950E-02 -0.950E-02
   4.064 -0.957E-02 -0.957E-02
   4.074 -0.962E-02 -0.962E-02
   4.084 -0.965E-02 -0.965E-02
   4.094 -0.965E-02 -0.965E-02
   4.104 -0.964E-02 -0.964E-02
   4.114 -0.961E-02 -0.961E-02
   4.124 -0.957E-02 -0.957E-02
   4.134 -0.950E-02 -0.950E-02
   4.144 -0.943E-02 -0.943E-02
   4.154 -0.934E-02 -0.934E-02
   4.164 -0.924E-02 -0.924E-02
   4.174 -0.912E-02 -0.912E-02
   4.184 -0.900E-02 -0.900E-02
   4.194 -0.886E-02 -0.886E-02
   4.204 -0.872E-02 -0.872E-02
   4.214 -0.857E-02 -0.857E-02
   4.224 -0.842E-02 -0.842E-02
   4.234 -0.825E-02 -0.825E-02
   4.244 -0.808E-02 -0.808E-02
   4.254 -0.791E-02 -0.791E-02
   4.264 -0.773E-02 -0.773E-02
   4.274 -0.755E-02 -0.755E-02
   4.284 -0.737E-02 -0.737E-02
   4.294 -0.719E-02 -0.719E-02
   4.304 -0.700E-02 -0.700E-02
   4.314 -0.681E-02 -0.681E-02
   4.324 -0.662E-02 -0.662E-02
   4.334 -0.643E-02 -0.643E-02
   4.344 -0.625E-02 -0.625E-02
   4.354 -0.606E-02 -0.606E-02
   4.364 -0.587E-02 -0.587E-02
   4.374 -0.569E-02 -0.569E-02
   4.384 -0.550E-02 -0.550E-02
   4.394 -0.532E-02 -0.532E-02
   4.404 -0.514E-02 -0.514E-02
   4.414 -0.496E-02 -0.496E-02
   4.424 -0.479E-02 -0.479E-02
   4.434 -0.462E-02 -0.462E-02
   4.444 -0.445E-02 -0.445E-02
   4.454 -0.428E-02 -0.428E-02
   4.464 -0.412E-02 -0.412E-02
   4.474 -0.396E-02 -0.396E-02
   4.484 -0.381E-02 -0.381E-02
   4.494 -0.366E-02 -0.366E-02
   4.504 -0.351E-02 -0.351E-02
   4.514 -0.337E-02 -0.337E-02
   4.524 -0.323E-02 -0.323E-02
   4.534 -0.309E-02 -0.309E-02
   4.544 -0.296E-02 -0.296E-02
   4.554 -0.283E-02 -0.283E-02
   4.564 -0.271E-02 -0.271E-02
   4.574 -0.259E-02 -0.259E-02
   4.584 -0.247E-02 -0.247E-02
   4.594 -0.236E-02 -0.236E-02
   4.604 -0.225E-02 -0.225E-02
   4.614 -0.215E-02 -0.215E-02
   4.624 -0.204E-02 -0.204E-02
   4.634 -0.195E-02 -0.195E-02
   4.644 -0.185E-02 -0.185E-02
   4.654 -0.176E-02 -0.176E-02
   4.664 -0.168E-02 -0.168E-02
   4.674 -0.159E-02 -0.159E-02
   4.684 -0.151E-02 -0.151E-02
   4.694 -0.143E-02 -0.143E-02
   4.704 -0.136E-02 -0.136E-02
   4.714 -0.129E-02 -0.129E-02
   4.724 -0.122E-02 -0.122E-02
   4.734 -0.116E-02 -0.116E-02
   4.744 -0.110E-02 -0.110E-02
   4.754 -0.104E-02 -0.104E-02
   4.764 -0.981E-03 -0.981E-03
   4.774 -0.927E-03 -0.927E-03
   4.784 -0.875E-03 -0.875E-03
   4.794 -0.826E-03 -0.826E-03
   4.804 -0.780E-03 -0.780E-03
   4.814 -0.735E-03 -0.735E-03
   4.824 -0.693E-03 -0.693E-03
   4.834 -0.653E-03 -0.653E-03
   4.844 -0.615E-03 -0.615E-03
   4.854 -0.579E-03 -0.579E-03
   4.864 -0.544E-03 -0.544E-03
   4.874 -0.512E-03 -0.512E-03
   4.884 -0.481E-03 -0.481E-03
   4.894 -0.452E-03 -0.452E-03
   4.904 -0.424E-03 -0.424E-03
   4.914 -0.398E-03 -0.398E-03
   4.924 -0.373E-03 -0.373E-03
   4.934 -0.350E-03 -0.350E-03
   4.944 -0.328E-03 -0.328E-03
   4.954 -0.307E-03 -0.307E-03
   4.964 -0.287E-03 -0.287E-03
   4.974 -0.269E-03 -0.269E-03
   4.984 -0.252E-03 -0.252E-03
   4.994 -0.235E-03 -0.235E-03
   5.004 -0.220E-03 -0.220E-03
   5.014 -0.205E-03 -0.205E-03
   5.024 -0.191E-03 -0.191E-03
   5.034 -0.179E-03 -0.179E-03
   5.044 -0.166E-03 -0.166E-03
   5.054 -0.155E-03 -0.155E-03
   5.064 -0.145E-03 -0.145E-03
   5.074 -0.135E-03 -0.135E-03
   5.084 -0.125E-03 -0.125E-03
   5.094 -0.117E-03 -0.117E-03
   5.104 -0.108E-03 -0.108E-03
   5.114 -0.101E-03 -0.101E-03
   5.124 -0.935E-04 -0.935E-04
   5.134 -0.868E-04 -0.868E-04
   5.144 -0.806E-04 -0.806E-04
   5.154 -0.747E-04 -0.747E-04
   5.164 -0.693E-04 -0.693E-04
   5.174 -0.642E-04 -0.642E-04
   5.184 -0.595E-04 -0.595E-04
   5.194 -0.551E-04 -0.551E-04
   5.204 -0.509E-04 -0.509E-04
   5.214 -0.471E-04 -0.471E-04
   5.224 -0.436E-04 -0.436E-04
   5.234 -0.403E-04 -0.403E-04
   5.244 -0.372E-04 -0.372E-04
   5.254 -0.343E-04 -0.343E-04
   5.264 -0.317E-04 -0.317E-04
   5.274 -0.292E-04 -0.292E-04
   5.284 -0.269E-04 -0.269E-04
   5.294 -0.248E-04 -0.248E-04
