# E (eV)   ldos(E)   pdos(E)   
 -27.116 -0.178E-08 -0.178E-08
 -27.106 -0.192E-08 -0.192E-08
 -27.096 -0.207E-08 -0.207E-08
 -27.086 -0.224E-08 -0.224E-08
 -27.076 -0.241E-08 -0.241E-08
 -27.066 -0.259E-08 -0.259E-08
 -27.056 -0.279E-08 -0.279E-08
 -27.046 -0.300E-08 -0.300E-08
 -27.036 -0.323E-08 -0.323E-08
 -27.026 -0.347E-08 -0.347E-08
 -27.016 -0.373E-08 -0.373E-08
 -27.006 -0.400E-08 -0.400E-08
 -26.996 -0.429E-08 -0.429E-08
 -26.986 -0.461E-08 -0.461E-08
 -26.976 -0.494E-08 -0.494E-08
 -26.966 -0.529E-08 -0.529E-08
 -26.956 -0.566E-08 -0.566E-08
 -26.946 -0.606E-08 -0.606E-08
 -26.936 -0.648E-08 -0.648E-08
 -26.926 -0.693E-08 -0.693E-08
 -26.916 -0.740E-08 -0.740E-08
 -26.906 -0.790E-08 -0.790E-08
 -26.896 -0.843E-08 -0.843E-08
 -26.886 -0.900E-08 -0.900E-08
 -26.876 -0.959E-08 -0.959E-08
 -26.866 -0.102E-07 -0.102E-07
 -26.856 -0.109E-07 -0.109E-07
 -26.846 -0.116E-07 -0.116E-07
 -26.836 -0.123E-07 -0.123E-07
 -26.826 -0.131E-07 -0.131E-07
 -26.816 -0.139E-07 -0.139E-07
 -26.806 -0.148E-07 -0.148E-07
 -26.796 -0.157E-07 -0.157E-07
 -26.786 -0.166E-07 -0.166E-07
 -26.776 -0.176E-07 -0.176E-07
 -26.766 -0.187E-07 -0.187E-07
 -26.756 -0.198E-07 -0.198E-07
 -26.746 -0.209E-07 -0.209E-07
 -26.736 -0.221E-07 -0.221E-07
 -26.726 -0.234E-07 -0.234E-07
 -26.716 -0.247E-07 -0.247E-07
 -26.706 -0.261E-07 -0.261E-07
 -26.696 -0.275E-07 -0.275E-07
 -26.686 -0.290E-07 -0.290E-07
 -26.676 -0.306E-07 -0.306E-07
 -26.666 -0.322E-07 -0.322E-07
 -26.656 -0.339E-07 -0.339E-07
 -26.646 -0.357E-07 -0.357E-07
 -26.636 -0.375E-07 -0.375E-07
 -26.626 -0.394E-07 -0.394E-07
 -26.616 -0.413E-07 -0.413E-07
 -26.606 -0.434E-07 -0.434E-07
 -26.596 -0.455E-07 -0.455E-07
 -26.586 -0.476E-07 -0.476E-07
 -26.576 -0.499E-07 -0.499E-07
 -26.566 -0.522E-07 -0.522E-07
 -26.556 -0.545E-07 -0.545E-07
 -26.546 -0.570E-07 -0.570E-07
 -26.536 -0.595E-07 -0.595E-07
 -26.526 -0.621E-07 -0.621E-07
 -26.516 -0.647E-07 -0.647E-07
 -26.506 -0.675E-07 -0.675E-07
 -26.496 -0.702E-07 -0.702E-07
 -26.486 -0.731E-07 -0.731E-07
 -26.476 -0.760E-07 -0.760E-07
 -26.466 -0.789E-07 -0.789E-07
 -26.456 -0.819E-07 -0.819E-07
 -26.446 -0.849E-07 -0.849E-07
 -26.436 -0.880E-07 -0.880E-07
 -26.426 -0.912E-07 -0.912E-07
 -26.416 -0.943E-07 -0.943E-07
 -26.406 -0.975E-07 -0.975E-07
 -26.396 -0.101E-06 -0.101E-06
 -26.386 -0.104E-06 -0.104E-06
 -26.376 -0.107E-06 -0.107E-06
 -26.366 -0.110E-06 -0.110E-06
 -26.356 -0.114E-06 -0.114E-06
 -26.346 -0.117E-06 -0.117E-06
 -26.336 -0.120E-06 -0.120E-06
 -26.326 -0.123E-06 -0.123E-06
 -26.316 -0.126E-06 -0.126E-06
 -26.306 -0.129E-06 -0.129E-06
 -26.296 -0.132E-06 -0.132E-06
 -26.286 -0.135E-06 -0.135E-06
 -26.276 -0.138E-06 -0.138E-06
 -26.266 -0.141E-06 -0.141E-06
 -26.256 -0.143E-06 -0.143E-06
 -26.246 -0.145E-06 -0.145E-06
 -26.236 -0.148E-06 -0.148E-06
 -26.226 -0.150E-06 -0.150E-06
 -26.216 -0.152E-06 -0.152E-06
 -26.206 -0.153E-06 -0.153E-06
 -26.196 -0.155E-06 -0.155E-06
 -26.186 -0.156E-06 -0.156E-06
 -26.176 -0.157E-06 -0.157E-06
 -26.166 -0.158E-06 -0.158E-06
 -26.156 -0.158E-06 -0.158E-06
 -26.146 -0.158E-06 -0.158E-06
 -26.136 -0.158E-06 -0.158E-06
 -26.126 -0.157E-06 -0.157E-06
 -26.116 -0.156E-06 -0.156E-06
 -26.106 -0.154E-06 -0.154E-06
 -26.096 -0.152E-06 -0.152E-06
 -26.086 -0.150E-06 -0.150E-06
 -26.076 -0.147E-06 -0.147E-06
 -26.066 -0.143E-06 -0.143E-06
 -26.056 -0.139E-06 -0.139E-06
 -26.046 -0.135E-06 -0.135E-06
 -26.036 -0.130E-06 -0.130E-06
 -26.026 -0.124E-06 -0.124E-06
 -26.016 -0.117E-06 -0.117E-06
 -26.006 -0.110E-06 -0.110E-06
 -25.996 -0.102E-06 -0.102E-06
 -25.986 -0.938E-07 -0.938E-07
 -25.976 -0.845E-07 -0.845E-07
 -25.966 -0.744E-07 -0.744E-07
 -25.956 -0.636E-07 -0.636E-07
 -25.946 -0.519E-07 -0.519E-07
 -25.936 -0.393E-07 -0.393E-07
 -25.926 -0.259E-07 -0.259E-07
 -25.916 -0.116E-07 -0.116E-07
 -25.906  0.361E-08  0.361E-08
 -25.896  0.198E-07  0.198E-07
 -25.886  0.369E-07  0.369E-07
 -25.876  0.549E-07  0.549E-07
 -25.866  0.740E-07  0.740E-07
 -25.856  0.940E-07  0.940E-07
 -25.846  0.115E-06  0.115E-06
 -25.836  0.137E-06  0.137E-06
 -25.826  0.160E-06  0.160E-06
 -25.816  0.185E-06  0.185E-06
 -25.806  0.210E-06  0.210E-06
 -25.796  0.236E-06  0.236E-06
 -25.786  0.264E-06  0.264E-06
 -25.776  0.292E-06  0.292E-06
 -25.766  0.322E-06  0.322E-06
 -25.756  0.352E-06  0.352E-06
 -25.746  0.384E-06  0.384E-06
 -25.736  0.417E-06  0.417E-06
 -25.726  0.450E-06  0.450E-06
 -25.716  0.485E-06  0.485E-06
 -25.706  0.521E-06  0.521E-06
 -25.696  0.558E-06  0.558E-06
 -25.686  0.596E-06  0.596E-06
 -25.676  0.635E-06  0.635E-06
 -25.666  0.675E-06  0.675E-06
 -25.656  0.716E-06  0.716E-06
 -25.646  0.757E-06  0.757E-06
 -25.636  0.800E-06  0.800E-06
 -25.626  0.843E-06  0.843E-06
 -25.616  0.888E-06  0.888E-06
 -25.606  0.933E-06  0.933E-06
 -25.596  0.979E-06  0.979E-06
 -25.586  0.103E-05  0.103E-05
 -25.576  0.107E-05  0.107E-05
 -25.566  0.112E-05  0.112E-05
 -25.556  0.117E-05  0.117E-05
 -25.546  0.122E-05  0.122E-05
 -25.536  0.127E-05  0.127E-05
 -25.526  0.132E-05  0.132E-05
 -25.516  0.137E-05  0.137E-05
 -25.506  0.142E-05  0.142E-05
 -25.496  0.147E-05  0.147E-05
 -25.486  0.152E-05  0.152E-05
 -25.476  0.157E-05  0.157E-05
 -25.466  0.162E-05  0.162E-05
 -25.456  0.167E-05  0.167E-05
 -25.446  0.172E-05  0.172E-05
 -25.436  0.177E-05  0.177E-05
 -25.426  0.182E-05  0.182E-05
 -25.416  0.187E-05  0.187E-05
 -25.406  0.192E-05  0.192E-05
 -25.396  0.197E-05  0.197E-05
 -25.386  0.202E-05  0.202E-05
 -25.376  0.206E-05  0.206E-05
 -25.366  0.211E-05  0.211E-05
 -25.356  0.216E-05  0.216E-05
 -25.346  0.220E-05  0.220E-05
 -25.336  0.225E-05  0.225E-05
 -25.326  0.229E-05  0.229E-05
 -25.316  0.233E-05  0.233E-05
 -25.306  0.238E-05  0.238E-05
 -25.296  0.242E-05  0.242E-05
 -25.286  0.245E-05  0.245E-05
 -25.276  0.249E-05  0.249E-05
 -25.266  0.253E-05  0.253E-05
 -25.256  0.256E-05  0.256E-05
 -25.246  0.260E-05  0.260E-05
 -25.236  0.263E-05  0.263E-05
 -25.226  0.266E-05  0.266E-05
 -25.216  0.269E-05  0.269E-05
 -25.206  0.271E-05  0.271E-05
 -25.196  0.274E-05  0.274E-05
 -25.186  0.276E-05  0.276E-05
 -25.176  0.278E-05  0.278E-05
 -25.166  0.280E-05  0.280E-05
 -25.156  0.282E-05  0.282E-05
 -25.146  0.284E-05  0.284E-05
 -25.136  0.285E-05  0.285E-05
 -25.126  0.286E-05  0.286E-05
 -25.116  0.287E-05  0.287E-05
 -25.106  0.288E-05  0.288E-05
 -25.096  0.288E-05  0.288E-05
 -25.086  0.289E-05  0.289E-05
 -25.076  0.289E-05  0.289E-05
 -25.066  0.289E-05  0.289E-05
 -25.056  0.288E-05  0.288E-05
 -25.046  0.288E-05  0.288E-05
 -25.036  0.287E-05  0.287E-05
 -25.026  0.286E-05  0.286E-05
 -25.016  0.285E-05  0.285E-05
 -25.006  0.284E-05  0.284E-05
 -24.996  0.282E-05  0.282E-05
 -24.986  0.281E-05  0.281E-05
 -24.976  0.279E-05  0.279E-05
 -24.966  0.277E-05  0.277E-05
 -24.956  0.274E-05  0.274E-05
 -24.946  0.272E-05  0.272E-05
 -24.936  0.269E-05  0.269E-05
 -24.926  0.266E-05  0.266E-05
 -24.916  0.263E-05  0.263E-05
 -24.906  0.260E-05  0.260E-05
 -24.896  0.257E-05  0.257E-05
 -24.886  0.253E-05  0.253E-05
 -24.876  0.250E-05  0.250E-05
 -24.866  0.246E-05  0.246E-05
 -24.856  0.242E-05  0.242E-05
 -24.846  0.238E-05  0.238E-05
 -24.836  0.234E-05  0.234E-05
 -24.826  0.230E-05  0.230E-05
 -24.816  0.226E-05  0.226E-05
 -24.806  0.221E-05  0.221E-05
 -24.796  0.217E-05  0.217E-05
 -24.786  0.212E-05  0.212E-05
 -24.776  0.207E-05  0.207E-05
 -24.766  0.202E-05  0.202E-05
 -24.756  0.198E-05  0.198E-05
 -24.746  0.193E-05  0.193E-05
 -24.736  0.188E-05  0.188E-05
 -24.726  0.183E-05  0.183E-05
 -24.716  0.178E-05  0.178E-05
 -24.706  0.173E-05  0.173E-05
 -24.696  0.168E-05  0.168E-05
 -24.686  0.163E-05  0.163E-05
 -24.676  0.158E-05  0.158E-05
 -24.666  0.153E-05  0.153E-05
 -24.656  0.148E-05  0.148E-05
 -24.646  0.142E-05  0.142E-05
 -24.636  0.137E-05  0.137E-05
 -24.626  0.132E-05  0.132E-05
 -24.616  0.127E-05  0.127E-05
 -24.606  0.123E-05  0.123E-05
 -24.596  0.118E-05  0.118E-05
 -24.586  0.113E-05  0.113E-05
 -24.576  0.108E-05  0.108E-05
 -24.566  0.103E-05  0.103E-05
 -24.556  0.986E-06  0.986E-06
 -24.546  0.941E-06  0.941E-06
 -24.536  0.895E-06  0.895E-06
 -24.526  0.851E-06  0.851E-06
 -24.516  0.807E-06  0.807E-06
 -24.506  0.765E-06  0.765E-06
 -24.496  0.723E-06  0.723E-06
 -24.486  0.682E-06  0.682E-06
 -24.476  0.642E-06  0.642E-06
 -24.466  0.603E-06  0.603E-06
 -24.456  0.565E-06  0.565E-06
 -24.446  0.528E-06  0.528E-06
 -24.436  0.491E-06  0.491E-06
 -24.426  0.456E-06  0.456E-06
 -24.416  0.422E-06  0.422E-06
 -24.406  0.389E-06  0.389E-06
 -24.396  0.358E-06  0.358E-06
 -24.386  0.327E-06  0.327E-06
 -24.376  0.297E-06  0.297E-06
 -24.366  0.268E-06  0.268E-06
 -24.356  0.241E-06  0.241E-06
 -24.346  0.214E-06  0.214E-06
 -24.336  0.189E-06  0.189E-06
 -24.326  0.164E-06  0.164E-06
 -24.316  0.141E-06  0.141E-06
 -24.306  0.119E-06  0.119E-06
 -24.296  0.976E-07  0.976E-07
 -24.286  0.773E-07  0.773E-07
 -24.276  0.581E-07  0.581E-07
 -24.266  0.399E-07  0.399E-07
 -24.256  0.226E-07  0.226E-07
 -24.246  0.631E-08  0.631E-08
 -24.236 -0.906E-08 -0.906E-08
 -24.226 -0.235E-07 -0.235E-07
 -24.216 -0.371E-07 -0.371E-07
 -24.206 -0.498E-07 -0.498E-07
 -24.196 -0.616E-07 -0.616E-07
 -24.186 -0.726E-07 -0.726E-07
 -24.176 -0.828E-07 -0.828E-07
 -24.166 -0.923E-07 -0.923E-07
 -24.156 -0.101E-06 -0.101E-06
 -24.146 -0.109E-06 -0.109E-06
 -24.136 -0.116E-06 -0.116E-06
 -24.126 -0.123E-06 -0.123E-06
 -24.116 -0.129E-06 -0.129E-06
 -24.106 -0.134E-06 -0.134E-06
 -24.096 -0.139E-06 -0.139E-06
 -24.086 -0.143E-06 -0.143E-06
 -24.076 -0.146E-06 -0.146E-06
 -24.066 -0.149E-06 -0.149E-06
 -24.056 -0.152E-06 -0.152E-06
 -24.046 -0.154E-06 -0.154E-06
 -24.036 -0.156E-06 -0.156E-06
 -24.026 -0.157E-06 -0.157E-06
 -24.016 -0.157E-06 -0.157E-06
 -24.006 -0.158E-06 -0.158E-06
 -23.996 -0.158E-06 -0.158E-06
 -23.986 -0.158E-06 -0.158E-06
 -23.976 -0.157E-06 -0.157E-06
 -23.966 -0.156E-06 -0.156E-06
 -23.956 -0.155E-06 -0.155E-06
 -23.946 -0.154E-06 -0.154E-06
 -23.936 -0.152E-06 -0.152E-06
 -23.926 -0.150E-06 -0.150E-06
 -23.916 -0.148E-06 -0.148E-06
 -23.906 -0.146E-06 -0.146E-06
 -23.896 -0.144E-06 -0.144E-06
 -23.886 -0.141E-06 -0.141E-06
 -23.876 -0.138E-06 -0.138E-06
 -23.866 -0.136E-06 -0.136E-06
 -23.856 -0.133E-06 -0.133E-06
 -23.846 -0.130E-06 -0.130E-06
 -23.836 -0.127E-06 -0.127E-06
 -23.826 -0.124E-06 -0.124E-06
 -23.816 -0.121E-06 -0.121E-06
 -23.806 -0.117E-06 -0.117E-06
 -23.796 -0.114E-06 -0.114E-06
 -23.786 -0.111E-06 -0.111E-06
 -23.776 -0.108E-06 -0.108E-06
 -23.766 -0.104E-06 -0.104E-06
 -23.756 -0.101E-06 -0.101E-06
 -23.746 -0.981E-07 -0.981E-07
 -23.736 -0.949E-07 -0.949E-07
 -23.726 -0.917E-07 -0.917E-07
 -23.716 -0.886E-07 -0.886E-07
 -23.706 -0.855E-07 -0.855E-07
 -23.696 -0.824E-07 -0.824E-07
 -23.686 -0.794E-07 -0.794E-07
 -23.676 -0.765E-07 -0.765E-07
 -23.666 -0.736E-07 -0.736E-07
 -23.656 -0.707E-07 -0.707E-07
 -23.646 -0.679E-07 -0.679E-07
 -23.636 -0.652E-07 -0.652E-07
 -23.626 -0.625E-07 -0.625E-07
 -23.616 -0.599E-07 -0.599E-07
 -23.606 -0.574E-07 -0.574E-07
 -23.596 -0.550E-07 -0.550E-07
 -23.586 -0.526E-07 -0.526E-07
 -23.576 -0.502E-07 -0.502E-07
 -23.566 -0.480E-07 -0.480E-07
 -23.556 -0.458E-07 -0.458E-07
 -23.546 -0.437E-07 -0.437E-07
 -23.536 -0.417E-07 -0.417E-07
 -23.526 -0.397E-07 -0.397E-07
 -23.516 -0.378E-07 -0.378E-07
 -23.506 -0.360E-07 -0.360E-07
 -23.496 -0.342E-07 -0.342E-07
 -23.486 -0.325E-07 -0.325E-07
 -23.476 -0.309E-07 -0.309E-07
 -23.466 -0.293E-07 -0.293E-07
 -23.456 -0.278E-07 -0.278E-07
 -23.446 -0.263E-07 -0.263E-07
 -23.436 -0.249E-07 -0.249E-07
 -23.426 -0.236E-07 -0.236E-07
 -23.416 -0.223E-07 -0.223E-07
 -23.406 -0.211E-07 -0.211E-07
 -23.396 -0.200E-07 -0.200E-07
 -23.386 -0.189E-07 -0.189E-07
 -23.376 -0.178E-07 -0.178E-07
 -23.366 -0.168E-07 -0.168E-07
 -23.356 -0.158E-07 -0.158E-07
 -23.346 -0.149E-07 -0.149E-07
 -23.336 -0.141E-07 -0.141E-07
 -23.326 -0.132E-07 -0.132E-07
 -23.316 -0.125E-07 -0.125E-07
 -23.306 -0.117E-07 -0.117E-07
 -23.296 -0.110E-07 -0.110E-07
 -23.286 -0.103E-07 -0.103E-07
 -23.276 -0.970E-08 -0.970E-08
 -23.266 -0.910E-08 -0.910E-08
 -23.256 -0.853E-08 -0.853E-08
 -23.246 -0.799E-08 -0.799E-08
 -23.236 -0.749E-08 -0.749E-08
 -23.226 -0.701E-08 -0.701E-08
 -23.216 -0.656E-08 -0.656E-08
 -23.206 -0.613E-08 -0.613E-08
 -23.196 -0.573E-08 -0.573E-08
 -23.186 -0.535E-08 -0.535E-08
 -23.176 -0.500E-08 -0.500E-08
 -23.166 -0.467E-08 -0.467E-08
 -23.156 -0.435E-08 -0.435E-08
 -23.146 -0.406E-08 -0.406E-08
 -23.136 -0.378E-08 -0.378E-08
 -23.126 -0.352E-08 -0.352E-08
 -23.116 -0.328E-08 -0.328E-08
 -23.106 -0.305E-08 -0.305E-08
 -23.096 -0.284E-08 -0.284E-08
 -23.086 -0.264E-08 -0.264E-08
 -23.076 -0.245E-08 -0.245E-08
 -23.066 -0.228E-08 -0.228E-08
 -23.056 -0.212E-08 -0.212E-08
 -23.046 -0.197E-08 -0.197E-08
 -23.036 -0.183E-08 -0.183E-08
 -23.026 -0.170E-08 -0.170E-08
 -23.016 -0.157E-08 -0.157E-08
 -23.006 -0.146E-08 -0.146E-08
 -22.996 -0.136E-08 -0.136E-08
 -22.986 -0.126E-08 -0.126E-08
 -22.976 -0.117E-08 -0.117E-08
 -22.966 -0.109E-08 -0.109E-08
 -22.956 -0.101E-08 -0.101E-08
 -22.946 -0.945E-09 -0.945E-09
 -22.936 -0.882E-09 -0.882E-09
 -22.926 -0.824E-09 -0.824E-09
 -22.916 -0.772E-09 -0.772E-09
 -22.906 -0.726E-09 -0.726E-09
 -22.896 -0.684E-09 -0.684E-09
 -22.886 -0.647E-09 -0.647E-09
 -22.876 -0.615E-09 -0.615E-09
 -22.866 -0.587E-09 -0.587E-09
 -22.856 -0.563E-09 -0.563E-09
 -22.846 -0.544E-09 -0.544E-09
 -22.836 -0.529E-09 -0.529E-09
 -22.826 -0.518E-09 -0.518E-09
 -22.816 -0.511E-09 -0.511E-09
 -22.806 -0.509E-09 -0.509E-09
 -22.796 -0.511E-09 -0.511E-09
 -22.786 -0.517E-09 -0.517E-09
 -22.776 -0.527E-09 -0.527E-09
 -22.766 -0.542E-09 -0.542E-09
 -22.756 -0.562E-09 -0.562E-09
 -22.746 -0.586E-09 -0.586E-09
 -22.736 -0.615E-09 -0.615E-09
 -22.726 -0.650E-09 -0.650E-09
 -22.716 -0.691E-09 -0.691E-09
 -22.706 -0.737E-09 -0.737E-09
 -22.696 -0.789E-09 -0.789E-09
 -22.686 -0.849E-09 -0.849E-09
 -22.676 -0.915E-09 -0.915E-09
 -22.666 -0.989E-09 -0.989E-09
 -22.656 -0.107E-08 -0.107E-08
 -22.646 -0.116E-08 -0.116E-08
 -22.636 -0.126E-08 -0.126E-08
 -22.626 -0.137E-08 -0.137E-08
 -22.616 -0.149E-08 -0.149E-08
 -22.606 -0.163E-08 -0.163E-08
 -22.596 -0.177E-08 -0.177E-08
 -22.586 -0.193E-08 -0.193E-08
 -22.576 -0.210E-08 -0.210E-08
 -22.566 -0.229E-08 -0.229E-08
 -22.556 -0.250E-08 -0.250E-08
 -22.546 -0.272E-08 -0.272E-08
 -22.536 -0.296E-08 -0.296E-08
 -22.526 -0.323E-08 -0.323E-08
 -22.516 -0.351E-08 -0.351E-08
 -22.506 -0.382E-08 -0.382E-08
 -22.496 -0.416E-08 -0.416E-08
 -22.486 -0.453E-08 -0.453E-08
 -22.476 -0.492E-08 -0.492E-08
 -22.466 -0.535E-08 -0.535E-08
 -22.456 -0.581E-08 -0.581E-08
 -22.446 -0.631E-08 -0.631E-08
 -22.436 -0.684E-08 -0.684E-08
 -22.426 -0.743E-08 -0.743E-08
 -22.416 -0.805E-08 -0.805E-08
 -22.406 -0.873E-08 -0.873E-08
 -22.396 -0.945E-08 -0.945E-08
 -22.386 -0.102E-07 -0.102E-07
 -22.376 -0.111E-07 -0.111E-07
 -22.366 -0.120E-07 -0.120E-07
 -22.356 -0.130E-07 -0.130E-07
 -22.346 -0.140E-07 -0.140E-07
 -22.336 -0.151E-07 -0.151E-07
 -22.326 -0.163E-07 -0.163E-07
 -22.316 -0.176E-07 -0.176E-07
 -22.306 -0.190E-07 -0.190E-07
 -22.296 -0.205E-07 -0.205E-07
 -22.286 -0.221E-07 -0.221E-07
 -22.276 -0.237E-07 -0.237E-07
 -22.266 -0.256E-07 -0.256E-07
 -22.256 -0.275E-07 -0.275E-07
 -22.246 -0.296E-07 -0.296E-07
 -22.236 -0.318E-07 -0.318E-07
 -22.226 -0.341E-07 -0.341E-07
 -22.216 -0.366E-07 -0.366E-07
 -22.206 -0.393E-07 -0.393E-07
 -22.196 -0.421E-07 -0.421E-07
 -22.186 -0.451E-07 -0.451E-07
 -22.176 -0.483E-07 -0.483E-07
 -22.166 -0.517E-07 -0.517E-07
 -22.156 -0.554E-07 -0.554E-07
 -22.146 -0.592E-07 -0.592E-07
 -22.136 -0.633E-07 -0.633E-07
 -22.126 -0.676E-07 -0.676E-07
 -22.116 -0.722E-07 -0.722E-07
 -22.106 -0.770E-07 -0.770E-07
 -22.096 -0.821E-07 -0.821E-07
 -22.086 -0.876E-07 -0.876E-07
 -22.076 -0.933E-07 -0.933E-07
 -22.066 -0.993E-07 -0.993E-07
 -22.056 -0.106E-06 -0.106E-06
 -22.046 -0.112E-06 -0.112E-06
 -22.036 -0.119E-06 -0.119E-06
 -22.026 -0.127E-06 -0.127E-06
 -22.016 -0.135E-06 -0.135E-06
 -22.006 -0.143E-06 -0.143E-06
 -21.996 -0.152E-06 -0.152E-06
 -21.986 -0.161E-06 -0.161E-06
 -21.976 -0.170E-06 -0.170E-06
 -21.966 -0.180E-06 -0.180E-06
 -21.956 -0.191E-06 -0.191E-06
 -21.946 -0.202E-06 -0.202E-06
 -21.936 -0.213E-06 -0.213E-06
 -21.926 -0.225E-06 -0.225E-06
 -21.916 -0.237E-06 -0.237E-06
 -21.906 -0.250E-06 -0.250E-06
 -21.896 -0.264E-06 -0.264E-06
 -21.886 -0.278E-06 -0.278E-06
 -21.876 -0.293E-06 -0.293E-06
 -21.866 -0.308E-06 -0.308E-06
 -21.856 -0.324E-06 -0.324E-06
 -21.846 -0.341E-06 -0.341E-06
 -21.836 -0.358E-06 -0.358E-06
 -21.826 -0.376E-06 -0.376E-06
 -21.816 -0.394E-06 -0.394E-06
 -21.806 -0.413E-06 -0.413E-06
 -21.796 -0.432E-06 -0.432E-06
 -21.786 -0.453E-06 -0.453E-06
 -21.776 -0.474E-06 -0.474E-06
 -21.766 -0.495E-06 -0.495E-06
 -21.756 -0.517E-06 -0.517E-06
 -21.746 -0.540E-06 -0.540E-06
 -21.736 -0.563E-06 -0.563E-06
 -21.726 -0.587E-06 -0.587E-06
 -21.716 -0.612E-06 -0.612E-06
 -21.706 -0.637E-06 -0.637E-06
 -21.696 -0.662E-06 -0.662E-06
 -21.686 -0.688E-06 -0.688E-06
 -21.676 -0.715E-06 -0.715E-06
 -21.666 -0.742E-06 -0.742E-06
 -21.656 -0.769E-06 -0.769E-06
 -21.646 -0.797E-06 -0.797E-06
 -21.636 -0.825E-06 -0.825E-06
 -21.626 -0.853E-06 -0.853E-06
 -21.616 -0.882E-06 -0.882E-06
 -21.606 -0.911E-06 -0.911E-06
 -21.596 -0.940E-06 -0.940E-06
 -21.586 -0.969E-06 -0.969E-06
 -21.576 -0.998E-06 -0.998E-06
 -21.566 -0.103E-05 -0.103E-05
 -21.556 -0.106E-05 -0.106E-05
 -21.546 -0.108E-05 -0.108E-05
 -21.536 -0.111E-05 -0.111E-05
 -21.526 -0.114E-05 -0.114E-05
 -21.516 -0.117E-05 -0.117E-05
 -21.506 -0.119E-05 -0.119E-05
 -21.496 -0.122E-05 -0.122E-05
 -21.486 -0.124E-05 -0.124E-05
 -21.476 -0.127E-05 -0.127E-05
 -21.466 -0.129E-05 -0.129E-05
 -21.456 -0.131E-05 -0.131E-05
 -21.446 -0.133E-05 -0.133E-05
 -21.436 -0.135E-05 -0.135E-05
 -21.426 -0.136E-05 -0.136E-05
 -21.416 -0.138E-05 -0.138E-05
 -21.406 -0.139E-05 -0.139E-05
 -21.396 -0.140E-05 -0.140E-05
 -21.386 -0.141E-05 -0.141E-05
 -21.376 -0.141E-05 -0.141E-05
 -21.366 -0.142E-05 -0.142E-05
 -21.356 -0.141E-05 -0.141E-05
 -21.346 -0.141E-05 -0.141E-05
 -21.336 -0.140E-05 -0.140E-05
 -21.326 -0.139E-05 -0.139E-05
 -21.316 -0.138E-05 -0.138E-05
 -21.306 -0.136E-05 -0.136E-05
 -21.296 -0.133E-05 -0.133E-05
 -21.286 -0.131E-05 -0.131E-05
 -21.276 -0.127E-05 -0.127E-05
 -21.266 -0.124E-05 -0.124E-05
 -21.256 -0.119E-05 -0.119E-05
 -21.246 -0.115E-05 -0.115E-05
 -21.236 -0.109E-05 -0.109E-05
 -21.226 -0.103E-05 -0.103E-05
 -21.216 -0.968E-06 -0.968E-06
 -21.206 -0.896E-06 -0.896E-06
 -21.196 -0.817E-06 -0.817E-06
 -21.186 -0.732E-06 -0.732E-06
 -21.176 -0.639E-06 -0.639E-06
 -21.166 -0.540E-06 -0.540E-06
 -21.156 -0.433E-06 -0.433E-06
 -21.146 -0.318E-06 -0.318E-06
 -21.136 -0.196E-06 -0.196E-06
 -21.126 -0.654E-07 -0.654E-07
 -21.116  0.734E-07  0.734E-07
 -21.106  0.220E-06  0.220E-06
 -21.096  0.376E-06  0.376E-06
 -21.086  0.541E-06  0.541E-06
 -21.076  0.714E-06  0.714E-06
 -21.066  0.896E-06  0.896E-06
 -21.056  0.109E-05  0.109E-05
 -21.046  0.129E-05  0.129E-05
 -21.036  0.150E-05  0.150E-05
 -21.026  0.172E-05  0.172E-05
 -21.016  0.195E-05  0.195E-05
 -21.006  0.219E-05  0.219E-05
 -20.996  0.243E-05  0.243E-05
 -20.986  0.269E-05  0.269E-05
 -20.976  0.296E-05  0.296E-05
 -20.966  0.324E-05  0.324E-05
 -20.956  0.352E-05  0.352E-05
 -20.946  0.382E-05  0.382E-05
 -20.936  0.413E-05  0.413E-05
 -20.926  0.444E-05  0.444E-05
 -20.916  0.477E-05  0.477E-05
 -20.906  0.510E-05  0.510E-05
 -20.896  0.544E-05  0.544E-05
 -20.886  0.579E-05  0.579E-05
 -20.876  0.615E-05  0.615E-05
 -20.866  0.652E-05  0.652E-05
 -20.856  0.690E-05  0.690E-05
 -20.846  0.728E-05  0.728E-05
 -20.836  0.767E-05  0.767E-05
 -20.826  0.807E-05  0.807E-05
 -20.816  0.847E-05  0.847E-05
 -20.806  0.889E-05  0.889E-05
 -20.796  0.930E-05  0.930E-05
 -20.786  0.973E-05  0.973E-05
 -20.776  0.102E-04  0.102E-04
 -20.766  0.106E-04  0.106E-04
 -20.756  0.110E-04  0.110E-04
 -20.746  0.115E-04  0.115E-04
 -20.736  0.119E-04  0.119E-04
 -20.726  0.124E-04  0.124E-04
 -20.716  0.128E-04  0.128E-04
 -20.706  0.133E-04  0.133E-04
 -20.696  0.137E-04  0.137E-04
 -20.686  0.142E-04  0.142E-04
 -20.676  0.146E-04  0.146E-04
 -20.666  0.151E-04  0.151E-04
 -20.656  0.155E-04  0.155E-04
 -20.646  0.160E-04  0.160E-04
 -20.636  0.164E-04  0.164E-04
 -20.626  0.169E-04  0.169E-04
 -20.616  0.173E-04  0.173E-04
 -20.606  0.178E-04  0.178E-04
 -20.596  0.182E-04  0.182E-04
 -20.586  0.186E-04  0.186E-04
 -20.576  0.190E-04  0.190E-04
 -20.566  0.194E-04  0.194E-04
 -20.556  0.198E-04  0.198E-04
 -20.546  0.202E-04  0.202E-04
 -20.536  0.206E-04  0.206E-04
 -20.526  0.210E-04  0.210E-04
 -20.516  0.214E-04  0.214E-04
 -20.506  0.217E-04  0.217E-04
 -20.496  0.221E-04  0.221E-04
 -20.486  0.224E-04  0.224E-04
 -20.476  0.227E-04  0.227E-04
 -20.466  0.230E-04  0.230E-04
 -20.456  0.233E-04  0.233E-04
 -20.446  0.236E-04  0.236E-04
 -20.436  0.239E-04  0.239E-04
 -20.426  0.241E-04  0.241E-04
 -20.416  0.244E-04  0.244E-04
 -20.406  0.246E-04  0.246E-04
 -20.396  0.248E-04  0.248E-04
 -20.386  0.250E-04  0.250E-04
 -20.376  0.251E-04  0.251E-04
 -20.366  0.253E-04  0.253E-04
 -20.356  0.254E-04  0.254E-04
 -20.346  0.255E-04  0.255E-04
 -20.336  0.256E-04  0.256E-04
 -20.326  0.257E-04  0.257E-04
 -20.316  0.258E-04  0.258E-04
 -20.306  0.258E-04  0.258E-04
 -20.296  0.258E-04  0.258E-04
 -20.286  0.258E-04  0.258E-04
 -20.276  0.258E-04  0.258E-04
 -20.266  0.258E-04  0.258E-04
 -20.256  0.257E-04  0.257E-04
 -20.246  0.257E-04  0.257E-04
 -20.236  0.256E-04  0.256E-04
 -20.226  0.255E-04  0.255E-04
 -20.216  0.254E-04  0.254E-04
 -20.206  0.252E-04  0.252E-04
 -20.196  0.251E-04  0.251E-04
 -20.186  0.249E-04  0.249E-04
 -20.176  0.247E-04  0.247E-04
 -20.166  0.245E-04  0.245E-04
 -20.156  0.242E-04  0.242E-04
 -20.146  0.240E-04  0.240E-04
 -20.136  0.238E-04  0.238E-04
 -20.126  0.235E-04  0.235E-04
 -20.116  0.232E-04  0.232E-04
 -20.106  0.229E-04  0.229E-04
 -20.096  0.226E-04  0.226E-04
 -20.086  0.223E-04  0.223E-04
 -20.076  0.219E-04  0.219E-04
 -20.066  0.216E-04  0.216E-04
 -20.056  0.212E-04  0.212E-04
 -20.046  0.208E-04  0.208E-04
 -20.036  0.204E-04  0.204E-04
 -20.026  0.201E-04  0.201E-04
 -20.016  0.197E-04  0.197E-04
 -20.006  0.193E-04  0.193E-04
 -19.996  0.188E-04  0.188E-04
 -19.986  0.184E-04  0.184E-04
 -19.976  0.180E-04  0.180E-04
 -19.966  0.176E-04  0.176E-04
 -19.956  0.171E-04  0.171E-04
 -19.946  0.167E-04  0.167E-04
 -19.936  0.162E-04  0.162E-04
 -19.926  0.158E-04  0.158E-04
 -19.916  0.153E-04  0.153E-04
 -19.906  0.149E-04  0.149E-04
 -19.896  0.144E-04  0.144E-04
 -19.886  0.140E-04  0.140E-04
 -19.876  0.135E-04  0.135E-04
 -19.866  0.131E-04  0.131E-04
 -19.856  0.126E-04  0.126E-04
 -19.846  0.122E-04  0.122E-04
 -19.836  0.117E-04  0.117E-04
 -19.826  0.113E-04  0.113E-04
 -19.816  0.109E-04  0.109E-04
 -19.806  0.104E-04  0.104E-04
 -19.796  0.100E-04  0.100E-04
 -19.786  0.958E-05  0.958E-05
 -19.776  0.916E-05  0.916E-05
 -19.766  0.875E-05  0.875E-05
 -19.756  0.835E-05  0.835E-05
 -19.746  0.795E-05  0.795E-05
 -19.736  0.756E-05  0.756E-05
 -19.726  0.718E-05  0.718E-05
 -19.716  0.680E-05  0.680E-05
 -19.706  0.644E-05  0.644E-05
 -19.696  0.608E-05  0.608E-05
 -19.686  0.573E-05  0.573E-05
 -19.676  0.539E-05  0.539E-05
 -19.666  0.506E-05  0.506E-05
 -19.656  0.474E-05  0.474E-05
 -19.646  0.442E-05  0.442E-05
 -19.636  0.412E-05  0.412E-05
 -19.626  0.383E-05  0.383E-05
 -19.616  0.354E-05  0.354E-05
 -19.606  0.327E-05  0.327E-05
 -19.596  0.301E-05  0.301E-05
 -19.586  0.275E-05  0.275E-05
 -19.576  0.251E-05  0.251E-05
 -19.566  0.227E-05  0.227E-05
 -19.556  0.205E-05  0.205E-05
 -19.546  0.183E-05  0.183E-05
 -19.536  0.163E-05  0.163E-05
 -19.526  0.143E-05  0.143E-05
 -19.516  0.125E-05  0.125E-05
 -19.506  0.107E-05  0.107E-05
 -19.496  0.903E-06  0.903E-06
 -19.486  0.745E-06  0.745E-06
 -19.476  0.595E-06  0.595E-06
 -19.466  0.455E-06  0.455E-06
 -19.456  0.323E-06  0.323E-06
 -19.446  0.199E-06  0.199E-06
 -19.436  0.836E-07  0.836E-07
 -19.426 -0.239E-07 -0.239E-07
 -19.416 -0.124E-06 -0.124E-06
 -19.406 -0.216E-06 -0.216E-06
 -19.396 -0.300E-06 -0.300E-06
 -19.386 -0.378E-06 -0.378E-06
 -19.376 -0.449E-06 -0.449E-06
 -19.366 -0.513E-06 -0.513E-06
 -19.356 -0.570E-06 -0.570E-06
 -19.346 -0.622E-06 -0.622E-06
 -19.336 -0.667E-06 -0.667E-06
 -19.326 -0.707E-06 -0.707E-06
 -19.316 -0.742E-06 -0.742E-06
 -19.306 -0.771E-06 -0.771E-06
 -19.296 -0.795E-06 -0.795E-06
 -19.286 -0.815E-06 -0.815E-06
 -19.276 -0.830E-06 -0.830E-06
 -19.266 -0.841E-06 -0.841E-06
 -19.256 -0.848E-06 -0.848E-06
 -19.246 -0.852E-06 -0.852E-06
 -19.236 -0.852E-06 -0.852E-06
 -19.226 -0.848E-06 -0.848E-06
 -19.216 -0.842E-06 -0.842E-06
 -19.206 -0.833E-06 -0.833E-06
 -19.196 -0.821E-06 -0.821E-06
 -19.186 -0.807E-06 -0.807E-06
 -19.176 -0.790E-06 -0.790E-06
 -19.166 -0.772E-06 -0.772E-06
 -19.156 -0.751E-06 -0.751E-06
 -19.146 -0.730E-06 -0.730E-06
 -19.136 -0.706E-06 -0.706E-06
 -19.126 -0.682E-06 -0.682E-06
 -19.116 -0.656E-06 -0.656E-06
 -19.106 -0.629E-06 -0.629E-06
 -19.096 -0.602E-06 -0.602E-06
 -19.086 -0.574E-06 -0.574E-06
 -19.076 -0.545E-06 -0.545E-06
 -19.066 -0.516E-06 -0.516E-06
 -19.056 -0.487E-06 -0.487E-06
 -19.046 -0.457E-06 -0.457E-06
 -19.036 -0.428E-06 -0.428E-06
 -19.026 -0.398E-06 -0.398E-06
 -19.016 -0.369E-06 -0.369E-06
 -19.006 -0.340E-06 -0.340E-06
 -18.996 -0.311E-06 -0.311E-06
 -18.986 -0.283E-06 -0.283E-06
 -18.976 -0.255E-06 -0.255E-06
 -18.966 -0.228E-06 -0.228E-06
 -18.956 -0.201E-06 -0.201E-06
 -18.946 -0.175E-06 -0.175E-06
 -18.936 -0.150E-06 -0.150E-06
 -18.926 -0.126E-06 -0.126E-06
 -18.916 -0.102E-06 -0.102E-06
 -18.906 -0.792E-07 -0.792E-07
 -18.896 -0.573E-07 -0.573E-07
 -18.886 -0.363E-07 -0.363E-07
 -18.876 -0.162E-07 -0.162E-07
 -18.866  0.302E-08  0.302E-08
 -18.856  0.212E-07  0.212E-07
 -18.846  0.385E-07  0.385E-07
 -18.836  0.548E-07  0.548E-07
 -18.826  0.702E-07  0.702E-07
 -18.816  0.846E-07  0.846E-07
 -18.806  0.980E-07  0.980E-07
 -18.796  0.111E-06  0.111E-06
 -18.786  0.122E-06  0.122E-06
 -18.776  0.133E-06  0.133E-06
 -18.766  0.142E-06  0.142E-06
 -18.756  0.151E-06  0.151E-06
 -18.746  0.159E-06  0.159E-06
 -18.736  0.166E-06  0.166E-06
 -18.726  0.172E-06  0.172E-06
 -18.716  0.178E-06  0.178E-06
 -18.706  0.183E-06  0.183E-06
 -18.696  0.187E-06  0.187E-06
 -18.686  0.190E-06  0.190E-06
 -18.676  0.192E-06  0.192E-06
 -18.666  0.194E-06  0.194E-06
 -18.656  0.195E-06  0.195E-06
 -18.646  0.196E-06  0.196E-06
 -18.636  0.196E-06  0.196E-06
 -18.626  0.195E-06  0.195E-06
 -18.616  0.194E-06  0.194E-06
 -18.606  0.192E-06  0.192E-06
 -18.596  0.190E-06  0.190E-06
 -18.586  0.187E-06  0.187E-06
 -18.576  0.184E-06  0.184E-06
 -18.566  0.181E-06  0.181E-06
 -18.556  0.177E-06  0.177E-06
 -18.546  0.173E-06  0.173E-06
 -18.536  0.169E-06  0.169E-06
 -18.526  0.164E-06  0.164E-06
 -18.516  0.160E-06  0.160E-06
 -18.506  0.155E-06  0.155E-06
 -18.496  0.149E-06  0.149E-06
 -18.486  0.144E-06  0.144E-06
 -18.476  0.138E-06  0.138E-06
 -18.466  0.133E-06  0.133E-06
 -18.456  0.127E-06  0.127E-06
 -18.446  0.121E-06  0.121E-06
 -18.436  0.115E-06  0.115E-06
 -18.426  0.109E-06  0.109E-06
 -18.416  0.103E-06  0.103E-06
 -18.406  0.972E-07  0.972E-07
 -18.396  0.913E-07  0.913E-07
 -18.386  0.853E-07  0.853E-07
 -18.376  0.794E-07  0.794E-07
 -18.366  0.736E-07  0.736E-07
 -18.356  0.678E-07  0.678E-07
 -18.346  0.621E-07  0.621E-07
 -18.336  0.565E-07  0.565E-07
 -18.326  0.510E-07  0.510E-07
 -18.316  0.456E-07  0.456E-07
 -18.306  0.404E-07  0.404E-07
 -18.296  0.352E-07  0.352E-07
 -18.286  0.302E-07  0.302E-07
 -18.276  0.253E-07  0.253E-07
 -18.266  0.206E-07  0.206E-07
 -18.256  0.160E-07  0.160E-07
 -18.246  0.115E-07  0.115E-07
 -18.236  0.724E-08  0.724E-08
 -18.226  0.310E-08  0.310E-08
 -18.216 -0.871E-09 -0.871E-09
 -18.206 -0.469E-08 -0.469E-08
 -18.196 -0.834E-08 -0.834E-08
 -18.186 -0.118E-07 -0.118E-07
 -18.176 -0.152E-07 -0.152E-07
 -18.166 -0.183E-07 -0.183E-07
 -18.156 -0.214E-07 -0.214E-07
 -18.146 -0.242E-07 -0.242E-07
 -18.136 -0.269E-07 -0.269E-07
 -18.126 -0.295E-07 -0.295E-07
 -18.116 -0.318E-07 -0.318E-07
 -18.106 -0.341E-07 -0.341E-07
 -18.096 -0.362E-07 -0.362E-07
 -18.086 -0.382E-07 -0.382E-07
 -18.076 -0.400E-07 -0.400E-07
 -18.066 -0.417E-07 -0.417E-07
 -18.056 -0.432E-07 -0.432E-07
 -18.046 -0.446E-07 -0.446E-07
 -18.036 -0.459E-07 -0.459E-07
 -18.026 -0.471E-07 -0.471E-07
 -18.016 -0.481E-07 -0.481E-07
 -18.006 -0.491E-07 -0.491E-07
 -17.996 -0.499E-07 -0.499E-07
 -17.986 -0.507E-07 -0.507E-07
 -17.976 -0.513E-07 -0.513E-07
 -17.966 -0.518E-07 -0.518E-07
 -17.956 -0.523E-07 -0.523E-07
 -17.946 -0.526E-07 -0.526E-07
 -17.936 -0.529E-07 -0.529E-07
 -17.926 -0.531E-07 -0.531E-07
 -17.916 -0.532E-07 -0.532E-07
 -17.906 -0.533E-07 -0.533E-07
 -17.896 -0.533E-07 -0.533E-07
 -17.886 -0.532E-07 -0.532E-07
 -17.876 -0.530E-07 -0.530E-07
 -17.866 -0.528E-07 -0.528E-07
 -17.856 -0.525E-07 -0.525E-07
 -17.846 -0.522E-07 -0.522E-07
 -17.836 -0.519E-07 -0.519E-07
 -17.826 -0.515E-07 -0.515E-07
 -17.816 -0.510E-07 -0.510E-07
 -17.806 -0.505E-07 -0.505E-07
 -17.796 -0.500E-07 -0.500E-07
 -17.786 -0.494E-07 -0.494E-07
 -17.776 -0.488E-07 -0.488E-07
 -17.766 -0.482E-07 -0.482E-07
 -17.756 -0.475E-07 -0.475E-07
 -17.746 -0.469E-07 -0.469E-07
 -17.736 -0.461E-07 -0.461E-07
 -17.726 -0.454E-07 -0.454E-07
 -17.716 -0.447E-07 -0.447E-07
 -17.706 -0.439E-07 -0.439E-07
 -17.696 -0.431E-07 -0.431E-07
 -17.686 -0.423E-07 -0.423E-07
 -17.676 -0.414E-07 -0.414E-07
 -17.666 -0.406E-07 -0.406E-07
 -17.656 -0.397E-07 -0.397E-07
 -17.646 -0.389E-07 -0.389E-07
 -17.636 -0.380E-07 -0.380E-07
 -17.626 -0.371E-07 -0.371E-07
 -17.616 -0.362E-07 -0.362E-07
 -17.606 -0.352E-07 -0.352E-07
 -17.596 -0.343E-07 -0.343E-07
 -17.586 -0.334E-07 -0.334E-07
 -17.576 -0.324E-07 -0.324E-07
 -17.566 -0.314E-07 -0.314E-07
 -17.556 -0.304E-07 -0.304E-07
 -17.546 -0.295E-07 -0.295E-07
 -17.536 -0.284E-07 -0.284E-07
 -17.526 -0.274E-07 -0.274E-07
 -17.516 -0.264E-07 -0.264E-07
 -17.506 -0.253E-07 -0.253E-07
 -17.496 -0.243E-07 -0.243E-07
 -17.486 -0.232E-07 -0.232E-07
 -17.476 -0.221E-07 -0.221E-07
 -17.466 -0.210E-07 -0.210E-07
 -17.456 -0.199E-07 -0.199E-07
 -17.446 -0.187E-07 -0.187E-07
 -17.436 -0.176E-07 -0.176E-07
 -17.426 -0.164E-07 -0.164E-07
 -17.416 -0.151E-07 -0.151E-07
 -17.406 -0.139E-07 -0.139E-07
 -17.396 -0.126E-07 -0.126E-07
 -17.386 -0.113E-07 -0.113E-07
 -17.376 -0.990E-08 -0.990E-08
 -17.366 -0.850E-08 -0.850E-08
 -17.356 -0.706E-08 -0.706E-08
 -17.346 -0.557E-08 -0.557E-08
 -17.336 -0.403E-08 -0.403E-08
 -17.326 -0.243E-08 -0.243E-08
 -17.316 -0.772E-09 -0.772E-09
 -17.306  0.950E-09  0.950E-09
 -17.296  0.274E-08  0.274E-08
 -17.286  0.461E-08  0.461E-08
 -17.276  0.656E-08  0.656E-08
 -17.266  0.859E-08  0.859E-08
 -17.256  0.107E-07  0.107E-07
 -17.246  0.129E-07  0.129E-07
 -17.236  0.153E-07  0.153E-07
 -17.226  0.177E-07  0.177E-07
 -17.216  0.203E-07  0.203E-07
 -17.206  0.230E-07  0.230E-07
 -17.196  0.258E-07  0.258E-07
 -17.186  0.288E-07  0.288E-07
 -17.176  0.320E-07  0.320E-07
 -17.166  0.353E-07  0.353E-07
 -17.156  0.387E-07  0.387E-07
 -17.146  0.424E-07  0.424E-07
 -17.136  0.463E-07  0.463E-07
 -17.126  0.503E-07  0.503E-07
 -17.116  0.546E-07  0.546E-07
 -17.106  0.591E-07  0.591E-07
 -17.096  0.638E-07  0.638E-07
 -17.086  0.688E-07  0.688E-07
 -17.076  0.741E-07  0.741E-07
 -17.066  0.796E-07  0.796E-07
 -17.056  0.854E-07  0.854E-07
 -17.046  0.915E-07  0.915E-07
 -17.036  0.980E-07  0.980E-07
 -17.026  0.105E-06  0.105E-06
 -17.016  0.112E-06  0.112E-06
 -17.006  0.119E-06  0.119E-06
 -16.996  0.127E-06  0.127E-06
 -16.986  0.135E-06  0.135E-06
 -16.976  0.144E-06  0.144E-06
 -16.966  0.153E-06  0.153E-06
 -16.956  0.162E-06  0.162E-06
 -16.946  0.172E-06  0.172E-06
 -16.936  0.182E-06  0.182E-06
 -16.926  0.193E-06  0.193E-06
 -16.916  0.204E-06  0.204E-06
 -16.906  0.215E-06  0.215E-06
 -16.896  0.227E-06  0.227E-06
 -16.886  0.240E-06  0.240E-06
 -16.876  0.253E-06  0.253E-06
 -16.866  0.266E-06  0.266E-06
 -16.856  0.280E-06  0.280E-06
 -16.846  0.295E-06  0.295E-06
 -16.836  0.310E-06  0.310E-06
 -16.826  0.326E-06  0.326E-06
 -16.816  0.342E-06  0.342E-06
 -16.806  0.358E-06  0.358E-06
 -16.796  0.375E-06  0.375E-06
 -16.786  0.393E-06  0.393E-06
 -16.776  0.411E-06  0.411E-06
 -16.766  0.430E-06  0.430E-06
 -16.756  0.450E-06  0.450E-06
 -16.746  0.469E-06  0.469E-06
 -16.736  0.490E-06  0.490E-06
 -16.726  0.511E-06  0.511E-06
 -16.716  0.532E-06  0.532E-06
 -16.706  0.554E-06  0.554E-06
 -16.696  0.576E-06  0.576E-06
 -16.686  0.599E-06  0.599E-06
 -16.676  0.622E-06  0.622E-06
 -16.666  0.646E-06  0.646E-06
 -16.656  0.670E-06  0.670E-06
 -16.646  0.695E-06  0.695E-06
 -16.636  0.720E-06  0.720E-06
 -16.626  0.746E-06  0.746E-06
 -16.616  0.771E-06  0.771E-06
 -16.606  0.798E-06  0.798E-06
 -16.596  0.824E-06  0.824E-06
 -16.586  0.851E-06  0.851E-06
 -16.576  0.878E-06  0.878E-06
 -16.566  0.905E-06  0.905E-06
 -16.556  0.932E-06  0.932E-06
 -16.546  0.960E-06  0.960E-06
 -16.536  0.988E-06  0.988E-06
 -16.526  0.102E-05  0.102E-05
 -16.516  0.104E-05  0.104E-05
 -16.506  0.107E-05  0.107E-05
 -16.496  0.110E-05  0.110E-05
 -16.486  0.113E-05  0.113E-05
 -16.476  0.116E-05  0.116E-05
 -16.466  0.118E-05  0.118E-05
 -16.456  0.121E-05  0.121E-05
 -16.446  0.124E-05  0.124E-05
 -16.436  0.127E-05  0.127E-05
 -16.426  0.129E-05  0.129E-05
 -16.416  0.132E-05  0.132E-05
 -16.406  0.135E-05  0.135E-05
 -16.396  0.137E-05  0.137E-05
 -16.386  0.140E-05  0.140E-05
 -16.376  0.142E-05  0.142E-05
 -16.366  0.145E-05  0.145E-05
 -16.356  0.147E-05  0.147E-05
 -16.346  0.149E-05  0.149E-05
 -16.336  0.152E-05  0.152E-05
 -16.326  0.154E-05  0.154E-05
 -16.316  0.156E-05  0.156E-05
 -16.306  0.158E-05  0.158E-05
 -16.296  0.160E-05  0.160E-05
 -16.286  0.162E-05  0.162E-05
 -16.276  0.164E-05  0.164E-05
 -16.266  0.165E-05  0.165E-05
 -16.256  0.167E-05  0.167E-05
 -16.246  0.168E-05  0.168E-05
 -16.236  0.170E-05  0.170E-05
 -16.226  0.171E-05  0.171E-05
 -16.216  0.172E-05  0.172E-05
 -16.206  0.174E-05  0.174E-05
 -16.196  0.175E-05  0.175E-05
 -16.186  0.175E-05  0.175E-05
 -16.176  0.176E-05  0.176E-05
 -16.166  0.177E-05  0.177E-05
 -16.156  0.177E-05  0.177E-05
 -16.146  0.178E-05  0.178E-05
 -16.136  0.178E-05  0.178E-05
 -16.126  0.178E-05  0.178E-05
 -16.116  0.178E-05  0.178E-05
 -16.106  0.178E-05  0.178E-05
 -16.096  0.178E-05  0.178E-05
 -16.086  0.178E-05  0.178E-05
 -16.076  0.177E-05  0.177E-05
 -16.066  0.177E-05  0.177E-05
 -16.056  0.176E-05  0.176E-05
 -16.046  0.175E-05  0.175E-05
 -16.036  0.174E-05  0.174E-05
 -16.026  0.173E-05  0.173E-05
 -16.016  0.172E-05  0.172E-05
 -16.006  0.171E-05  0.171E-05
 -15.996  0.170E-05  0.170E-05
 -15.986  0.168E-05  0.168E-05
 -15.976  0.167E-05  0.167E-05
 -15.966  0.165E-05  0.165E-05
 -15.956  0.163E-05  0.163E-05
 -15.946  0.161E-05  0.161E-05
 -15.936  0.159E-05  0.159E-05
 -15.926  0.157E-05  0.157E-05
 -15.916  0.155E-05  0.155E-05
 -15.906  0.153E-05  0.153E-05
 -15.896  0.150E-05  0.150E-05
 -15.886  0.148E-05  0.148E-05
 -15.876  0.146E-05  0.146E-05
 -15.866  0.143E-05  0.143E-05
 -15.856  0.140E-05  0.140E-05
 -15.846  0.138E-05  0.138E-05
 -15.836  0.135E-05  0.135E-05
 -15.826  0.132E-05  0.132E-05
 -15.816  0.129E-05  0.129E-05
 -15.806  0.126E-05  0.126E-05
 -15.796  0.123E-05  0.123E-05
 -15.786  0.120E-05  0.120E-05
 -15.776  0.117E-05  0.117E-05
 -15.766  0.114E-05  0.114E-05
 -15.756  0.111E-05  0.111E-05
 -15.746  0.108E-05  0.108E-05
 -15.736  0.105E-05  0.105E-05
 -15.726  0.102E-05  0.102E-05
 -15.716  0.986E-06  0.986E-06
 -15.706  0.955E-06  0.955E-06
 -15.696  0.923E-06  0.923E-06
 -15.686  0.891E-06  0.891E-06
 -15.676  0.860E-06  0.860E-06
 -15.666  0.828E-06  0.828E-06
 -15.656  0.797E-06  0.797E-06
 -15.646  0.766E-06  0.766E-06
 -15.636  0.734E-06  0.734E-06
 -15.626  0.704E-06  0.704E-06
 -15.616  0.673E-06  0.673E-06
 -15.606  0.643E-06  0.643E-06
 -15.596  0.613E-06  0.613E-06
 -15.586  0.583E-06  0.583E-06
 -15.576  0.553E-06  0.553E-06
 -15.566  0.524E-06  0.524E-06
 -15.556  0.496E-06  0.496E-06
 -15.546  0.468E-06  0.468E-06
 -15.536  0.440E-06  0.440E-06
 -15.526  0.412E-06  0.412E-06
 -15.516  0.385E-06  0.385E-06
 -15.506  0.359E-06  0.359E-06
 -15.496  0.333E-06  0.333E-06
 -15.486  0.307E-06  0.307E-06
 -15.476  0.282E-06  0.282E-06
 -15.466  0.258E-06  0.258E-06
 -15.456  0.234E-06  0.234E-06
 -15.446  0.210E-06  0.210E-06
 -15.436  0.187E-06  0.187E-06
 -15.426  0.165E-06  0.165E-06
 -15.416  0.143E-06  0.143E-06
 -15.406  0.121E-06  0.121E-06
 -15.396  0.999E-07  0.999E-07
 -15.386  0.792E-07  0.792E-07
 -15.376  0.591E-07  0.591E-07
 -15.366  0.393E-07  0.393E-07
 -15.356  0.201E-07  0.201E-07
 -15.346  0.124E-08  0.124E-08
 -15.336 -0.172E-07 -0.172E-07
 -15.326 -0.352E-07 -0.352E-07
 -15.316 -0.528E-07 -0.528E-07
 -15.306 -0.701E-07 -0.701E-07
 -15.296 -0.870E-07 -0.870E-07
 -15.286 -0.104E-06 -0.104E-06
 -15.276 -0.120E-06 -0.120E-06
 -15.266 -0.136E-06 -0.136E-06
 -15.256 -0.151E-06 -0.151E-06
 -15.246 -0.167E-06 -0.167E-06
 -15.236 -0.182E-06 -0.182E-06
 -15.226 -0.197E-06 -0.197E-06
 -15.216 -0.212E-06 -0.212E-06
 -15.206 -0.226E-06 -0.226E-06
 -15.196 -0.241E-06 -0.241E-06
 -15.186 -0.255E-06 -0.255E-06
 -15.176 -0.269E-06 -0.269E-06
 -15.166 -0.283E-06 -0.283E-06
 -15.156 -0.297E-06 -0.297E-06
 -15.146 -0.311E-06 -0.311E-06
 -15.136 -0.325E-06 -0.325E-06
 -15.126 -0.339E-06 -0.339E-06
 -15.116 -0.352E-06 -0.352E-06
 -15.106 -0.366E-06 -0.366E-06
 -15.096 -0.380E-06 -0.380E-06
 -15.086 -0.394E-06 -0.394E-06
 -15.076 -0.408E-06 -0.408E-06
 -15.066 -0.422E-06 -0.422E-06
 -15.056 -0.437E-06 -0.437E-06
 -15.046 -0.451E-06 -0.451E-06
 -15.036 -0.465E-06 -0.465E-06
 -15.026 -0.480E-06 -0.480E-06
 -15.016 -0.495E-06 -0.495E-06
 -15.006 -0.509E-06 -0.509E-06
 -14.996 -0.524E-06 -0.524E-06
 -14.986 -0.539E-06 -0.539E-06
 -14.976 -0.555E-06 -0.555E-06
 -14.966 -0.570E-06 -0.570E-06
 -14.956 -0.585E-06 -0.585E-06
 -14.946 -0.601E-06 -0.601E-06
 -14.936 -0.617E-06 -0.617E-06
 -14.926 -0.632E-06 -0.632E-06
 -14.916 -0.648E-06 -0.648E-06
 -14.906 -0.664E-06 -0.664E-06
 -14.896 -0.680E-06 -0.680E-06
 -14.886 -0.696E-06 -0.696E-06
 -14.876 -0.712E-06 -0.712E-06
 -14.866 -0.728E-06 -0.728E-06
 -14.856 -0.744E-06 -0.744E-06
 -14.846 -0.760E-06 -0.760E-06
 -14.836 -0.776E-06 -0.776E-06
 -14.826 -0.791E-06 -0.791E-06
 -14.816 -0.807E-06 -0.807E-06
 -14.806 -0.822E-06 -0.822E-06
 -14.796 -0.837E-06 -0.837E-06
 -14.786 -0.851E-06 -0.851E-06
 -14.776 -0.865E-06 -0.865E-06
 -14.766 -0.879E-06 -0.879E-06
 -14.756 -0.892E-06 -0.892E-06
 -14.746 -0.904E-06 -0.904E-06
 -14.736 -0.916E-06 -0.916E-06
 -14.726 -0.927E-06 -0.927E-06
 -14.716 -0.937E-06 -0.937E-06
 -14.706 -0.946E-06 -0.946E-06
 -14.696 -0.954E-06 -0.954E-06
 -14.686 -0.962E-06 -0.962E-06
 -14.676 -0.968E-06 -0.968E-06
 -14.666 -0.972E-06 -0.972E-06
 -14.656 -0.976E-06 -0.976E-06
 -14.646 -0.978E-06 -0.978E-06
 -14.636 -0.978E-06 -0.978E-06
 -14.626 -0.976E-06 -0.976E-06
 -14.616 -0.973E-06 -0.973E-06
 -14.606 -0.968E-06 -0.968E-06
 -14.596 -0.961E-06 -0.961E-06
 -14.586 -0.951E-06 -0.951E-06
 -14.576 -0.940E-06 -0.940E-06
 -14.566 -0.926E-06 -0.926E-06
 -14.556 -0.909E-06 -0.909E-06
 -14.546 -0.890E-06 -0.890E-06
 -14.536 -0.867E-06 -0.867E-06
 -14.526 -0.842E-06 -0.842E-06
 -14.516 -0.814E-06 -0.814E-06
 -14.506 -0.782E-06 -0.782E-06
 -14.496 -0.747E-06 -0.747E-06
 -14.486 -0.709E-06 -0.709E-06
 -14.476 -0.667E-06 -0.667E-06
 -14.466 -0.621E-06 -0.621E-06
 -14.456 -0.570E-06 -0.570E-06
 -14.446 -0.516E-06 -0.516E-06
 -14.436 -0.458E-06 -0.458E-06
 -14.426 -0.395E-06 -0.395E-06
 -14.416 -0.327E-06 -0.327E-06
 -14.406 -0.254E-06 -0.254E-06
 -14.396 -0.177E-06 -0.177E-06
 -14.386 -0.946E-07 -0.946E-07
 -14.376 -0.687E-08 -0.687E-08
 -14.366  0.862E-07  0.862E-07
 -14.356  0.185E-06  0.185E-06
 -14.346  0.289E-06  0.289E-06
 -14.336  0.399E-06  0.399E-06
 -14.326  0.515E-06  0.515E-06
 -14.316  0.637E-06  0.637E-06
 -14.306  0.765E-06  0.765E-06
 -14.296  0.900E-06  0.900E-06
 -14.286  0.104E-05  0.104E-05
 -14.276  0.119E-05  0.119E-05
 -14.266  0.134E-05  0.134E-05
 -14.256  0.150E-05  0.150E-05
 -14.246  0.167E-05  0.167E-05
 -14.236  0.184E-05  0.184E-05
 -14.226  0.203E-05  0.203E-05
 -14.216  0.221E-05  0.221E-05
 -14.206  0.241E-05  0.241E-05
 -14.196  0.261E-05  0.261E-05
 -14.186  0.282E-05  0.282E-05
 -14.176  0.304E-05  0.304E-05
 -14.166  0.326E-05  0.326E-05
 -14.156  0.350E-05  0.350E-05
 -14.146  0.373E-05  0.373E-05
 -14.136  0.398E-05  0.398E-05
 -14.126  0.423E-05  0.423E-05
 -14.116  0.449E-05  0.449E-05
 -14.106  0.476E-05  0.476E-05
 -14.096  0.504E-05  0.504E-05
 -14.086  0.532E-05  0.532E-05
 -14.076  0.560E-05  0.560E-05
 -14.066  0.590E-05  0.590E-05
 -14.056  0.620E-05  0.620E-05
 -14.046  0.651E-05  0.651E-05
 -14.036  0.682E-05  0.682E-05
 -14.026  0.714E-05  0.714E-05
 -14.016  0.747E-05  0.747E-05
 -14.006  0.780E-05  0.780E-05
 -13.996  0.814E-05  0.814E-05
 -13.986  0.848E-05  0.848E-05
 -13.976  0.883E-05  0.883E-05
 -13.966  0.918E-05  0.918E-05
 -13.956  0.954E-05  0.954E-05
 -13.946  0.990E-05  0.990E-05
 -13.936  0.103E-04  0.103E-04
 -13.926  0.106E-04  0.106E-04
 -13.916  0.110E-04  0.110E-04
 -13.906  0.114E-04  0.114E-04
 -13.896  0.118E-04  0.118E-04
 -13.886  0.121E-04  0.121E-04
 -13.876  0.125E-04  0.125E-04
 -13.866  0.129E-04  0.129E-04
 -13.856  0.133E-04  0.133E-04
 -13.846  0.137E-04  0.137E-04
 -13.836  0.140E-04  0.140E-04
 -13.826  0.144E-04  0.144E-04
 -13.816  0.148E-04  0.148E-04
 -13.806  0.152E-04  0.152E-04
 -13.796  0.156E-04  0.156E-04
 -13.786  0.160E-04  0.160E-04
 -13.776  0.163E-04  0.163E-04
 -13.766  0.167E-04  0.167E-04
 -13.756  0.171E-04  0.171E-04
 -13.746  0.174E-04  0.174E-04
 -13.736  0.178E-04  0.178E-04
 -13.726  0.182E-04  0.182E-04
 -13.716  0.185E-04  0.185E-04
 -13.706  0.189E-04  0.189E-04
 -13.696  0.192E-04  0.192E-04
 -13.686  0.195E-04  0.195E-04
 -13.676  0.199E-04  0.199E-04
 -13.666  0.202E-04  0.202E-04
 -13.656  0.205E-04  0.205E-04
 -13.646  0.208E-04  0.208E-04
 -13.636  0.211E-04  0.211E-04
 -13.626  0.213E-04  0.213E-04
 -13.616  0.216E-04  0.216E-04
 -13.606  0.219E-04  0.219E-04
 -13.596  0.221E-04  0.221E-04
 -13.586  0.224E-04  0.224E-04
 -13.576  0.226E-04  0.226E-04
 -13.566  0.228E-04  0.228E-04
 -13.556  0.230E-04  0.230E-04
 -13.546  0.232E-04  0.232E-04
 -13.536  0.234E-04  0.234E-04
 -13.526  0.236E-04  0.236E-04
 -13.516  0.237E-04  0.237E-04
 -13.506  0.238E-04  0.238E-04
 -13.496  0.240E-04  0.240E-04
 -13.486  0.241E-04  0.241E-04
 -13.476  0.242E-04  0.242E-04
 -13.466  0.243E-04  0.243E-04
 -13.456  0.243E-04  0.243E-04
 -13.446  0.244E-04  0.244E-04
 -13.436  0.244E-04  0.244E-04
 -13.426  0.244E-04  0.244E-04
 -13.416  0.245E-04  0.245E-04
 -13.406  0.244E-04  0.244E-04
 -13.396  0.244E-04  0.244E-04
 -13.386  0.244E-04  0.244E-04
 -13.376  0.243E-04  0.243E-04
 -13.366  0.243E-04  0.243E-04
 -13.356  0.242E-04  0.242E-04
 -13.346  0.241E-04  0.241E-04
 -13.336  0.240E-04  0.240E-04
 -13.326  0.239E-04  0.239E-04
 -13.316  0.237E-04  0.237E-04
 -13.306  0.236E-04  0.236E-04
 -13.296  0.234E-04  0.234E-04
 -13.286  0.232E-04  0.232E-04
 -13.276  0.230E-04  0.230E-04
 -13.266  0.228E-04  0.228E-04
 -13.256  0.226E-04  0.226E-04
 -13.246  0.224E-04  0.224E-04
 -13.236  0.222E-04  0.222E-04
 -13.226  0.219E-04  0.219E-04
 -13.216  0.216E-04  0.216E-04
 -13.206  0.214E-04  0.214E-04
 -13.196  0.211E-04  0.211E-04
 -13.186  0.208E-04  0.208E-04
 -13.176  0.205E-04  0.205E-04
 -13.166  0.202E-04  0.202E-04
 -13.156  0.199E-04  0.199E-04
 -13.146  0.195E-04  0.195E-04
 -13.136  0.192E-04  0.192E-04
 -13.126  0.189E-04  0.189E-04
 -13.116  0.185E-04  0.185E-04
 -13.106  0.182E-04  0.182E-04
 -13.096  0.178E-04  0.178E-04
 -13.086  0.174E-04  0.174E-04
 -13.076  0.171E-04  0.171E-04
 -13.066  0.167E-04  0.167E-04
 -13.056  0.163E-04  0.163E-04
 -13.046  0.159E-04  0.159E-04
 -13.036  0.155E-04  0.155E-04
 -13.026  0.151E-04  0.151E-04
 -13.016  0.148E-04  0.148E-04
 -13.006  0.144E-04  0.144E-04
 -12.996  0.140E-04  0.140E-04
 -12.986  0.136E-04  0.136E-04
 -12.976  0.132E-04  0.132E-04
 -12.966  0.128E-04  0.128E-04
 -12.956  0.124E-04  0.124E-04
 -12.946  0.120E-04  0.120E-04
 -12.936  0.116E-04  0.116E-04
 -12.926  0.112E-04  0.112E-04
 -12.916  0.109E-04  0.109E-04
 -12.906  0.105E-04  0.105E-04
 -12.896  0.101E-04  0.101E-04
 -12.886  0.973E-05  0.973E-05
 -12.876  0.936E-05  0.936E-05
 -12.866  0.900E-05  0.900E-05
 -12.856  0.864E-05  0.864E-05
 -12.846  0.828E-05  0.828E-05
 -12.836  0.793E-05  0.793E-05
 -12.826  0.758E-05  0.758E-05
 -12.816  0.724E-05  0.724E-05
 -12.806  0.690E-05  0.690E-05
 -12.796  0.657E-05  0.657E-05
 -12.786  0.625E-05  0.625E-05
 -12.776  0.593E-05  0.593E-05
 -12.766  0.562E-05  0.562E-05
 -12.756  0.531E-05  0.531E-05
 -12.746  0.501E-05  0.501E-05
 -12.736  0.472E-05  0.472E-05
 -12.726  0.443E-05  0.443E-05
 -12.716  0.415E-05  0.415E-05
 -12.706  0.388E-05  0.388E-05
 -12.696  0.361E-05  0.361E-05
 -12.686  0.336E-05  0.336E-05
 -12.676  0.310E-05  0.310E-05
 -12.666  0.286E-05  0.286E-05
 -12.656  0.262E-05  0.262E-05
 -12.646  0.239E-05  0.239E-05
 -12.636  0.217E-05  0.217E-05
 -12.626  0.195E-05  0.195E-05
 -12.616  0.174E-05  0.174E-05
 -12.606  0.154E-05  0.154E-05
 -12.596  0.134E-05  0.134E-05
 -12.586  0.115E-05  0.115E-05
 -12.576  0.970E-06  0.970E-06
 -12.566  0.793E-06  0.793E-06
 -12.556  0.623E-06  0.623E-06
 -12.546  0.459E-06  0.459E-06
 -12.536  0.302E-06  0.302E-06
 -12.526  0.151E-06  0.151E-06
 -12.516  0.550E-08  0.550E-08
 -12.506 -0.134E-06 -0.134E-06
 -12.496 -0.267E-06 -0.267E-06
 -12.486 -0.395E-06 -0.395E-06
 -12.476 -0.517E-06 -0.517E-06
 -12.466 -0.634E-06 -0.634E-06
 -12.456 -0.745E-06 -0.745E-06
 -12.446 -0.851E-06 -0.851E-06
 -12.436 -0.952E-06 -0.952E-06
 -12.426 -0.105E-05 -0.105E-05
 -12.416 -0.114E-05 -0.114E-05
 -12.406 -0.122E-05 -0.122E-05
 -12.396 -0.131E-05 -0.131E-05
 -12.386 -0.138E-05 -0.138E-05
 -12.376 -0.145E-05 -0.145E-05
 -12.366 -0.152E-05 -0.152E-05
 -12.356 -0.159E-05 -0.159E-05
 -12.346 -0.165E-05 -0.165E-05
 -12.336 -0.170E-05 -0.170E-05
 -12.326 -0.175E-05 -0.175E-05
 -12.316 -0.180E-05 -0.180E-05
 -12.306 -0.184E-05 -0.184E-05
 -12.296 -0.188E-05 -0.188E-05
 -12.286 -0.192E-05 -0.192E-05
 -12.276 -0.195E-05 -0.195E-05
 -12.266 -0.197E-05 -0.197E-05
 -12.256 -0.200E-05 -0.200E-05
 -12.246 -0.202E-05 -0.202E-05
 -12.236 -0.203E-05 -0.203E-05
 -12.226 -0.205E-05 -0.205E-05
 -12.216 -0.206E-05 -0.206E-05
 -12.206 -0.206E-05 -0.206E-05
 -12.196 -0.206E-05 -0.206E-05
 -12.186 -0.206E-05 -0.206E-05
 -12.176 -0.206E-05 -0.206E-05
 -12.166 -0.205E-05 -0.205E-05
 -12.156 -0.204E-05 -0.204E-05
 -12.146 -0.202E-05 -0.202E-05
 -12.136 -0.200E-05 -0.200E-05
 -12.126 -0.198E-05 -0.198E-05
 -12.116 -0.195E-05 -0.195E-05
 -12.106 -0.192E-05 -0.192E-05
 -12.096 -0.188E-05 -0.188E-05
 -12.086 -0.184E-05 -0.184E-05
 -12.076 -0.180E-05 -0.180E-05
 -12.066 -0.175E-05 -0.175E-05
 -12.056 -0.170E-05 -0.170E-05
 -12.046 -0.164E-05 -0.164E-05
 -12.036 -0.158E-05 -0.158E-05
 -12.026 -0.152E-05 -0.152E-05
 -12.016 -0.145E-05 -0.145E-05
 -12.006 -0.138E-05 -0.138E-05
 -11.996 -0.130E-05 -0.130E-05
 -11.986 -0.122E-05 -0.122E-05
 -11.976 -0.113E-05 -0.113E-05
 -11.966 -0.104E-05 -0.104E-05
 -11.956 -0.940E-06 -0.940E-06
 -11.946 -0.839E-06 -0.839E-06
 -11.936 -0.733E-06 -0.733E-06
 -11.926 -0.621E-06 -0.621E-06
 -11.916 -0.505E-06 -0.505E-06
 -11.906 -0.384E-06 -0.384E-06
 -11.896 -0.258E-06 -0.258E-06
 -11.886 -0.127E-06 -0.127E-06
 -11.876  0.972E-08  0.972E-08
 -11.866  0.151E-06  0.151E-06
 -11.856  0.298E-06  0.298E-06
 -11.846  0.449E-06  0.449E-06
 -11.836  0.606E-06  0.606E-06
 -11.826  0.768E-06  0.768E-06
 -11.816  0.935E-06  0.935E-06
 -11.806  0.111E-05  0.111E-05
 -11.796  0.128E-05  0.128E-05
 -11.786  0.147E-05  0.147E-05
 -11.776  0.165E-05  0.165E-05
 -11.766  0.185E-05  0.185E-05
 -11.756  0.204E-05  0.204E-05
 -11.746  0.224E-05  0.224E-05
 -11.736  0.245E-05  0.245E-05
 -11.726  0.266E-05  0.266E-05
 -11.716  0.288E-05  0.288E-05
 -11.706  0.310E-05  0.310E-05
 -11.696  0.332E-05  0.332E-05
 -11.686  0.355E-05  0.355E-05
 -11.676  0.378E-05  0.378E-05
 -11.666  0.402E-05  0.402E-05
 -11.656  0.426E-05  0.426E-05
 -11.646  0.450E-05  0.450E-05
 -11.636  0.475E-05  0.475E-05
 -11.626  0.500E-05  0.500E-05
 -11.616  0.526E-05  0.526E-05
 -11.606  0.551E-05  0.551E-05
 -11.596  0.577E-05  0.577E-05
 -11.586  0.603E-05  0.603E-05
 -11.576  0.630E-05  0.630E-05
 -11.566  0.656E-05  0.656E-05
 -11.556  0.683E-05  0.683E-05
 -11.546  0.710E-05  0.710E-05
 -11.536  0.737E-05  0.737E-05
 -11.526  0.764E-05  0.764E-05
 -11.516  0.791E-05  0.791E-05
 -11.506  0.818E-05  0.818E-05
 -11.496  0.845E-05  0.845E-05
 -11.486  0.872E-05  0.872E-05
 -11.476  0.899E-05  0.899E-05
 -11.466  0.926E-05  0.926E-05
 -11.456  0.953E-05  0.953E-05
 -11.446  0.979E-05  0.979E-05
 -11.436  0.101E-04  0.101E-04
 -11.426  0.103E-04  0.103E-04
 -11.416  0.106E-04  0.106E-04
 -11.406  0.108E-04  0.108E-04
 -11.396  0.111E-04  0.111E-04
 -11.386  0.113E-04  0.113E-04
 -11.376  0.115E-04  0.115E-04
 -11.366  0.118E-04  0.118E-04
 -11.356  0.120E-04  0.120E-04
 -11.346  0.122E-04  0.122E-04
 -11.336  0.124E-04  0.124E-04
 -11.326  0.126E-04  0.126E-04
 -11.316  0.128E-04  0.128E-04
 -11.306  0.130E-04  0.130E-04
 -11.296  0.131E-04  0.131E-04
 -11.286  0.133E-04  0.133E-04
 -11.276  0.134E-04  0.134E-04
 -11.266  0.135E-04  0.135E-04
 -11.256  0.136E-04  0.136E-04
 -11.246  0.136E-04  0.136E-04
 -11.236  0.137E-04  0.137E-04
 -11.226  0.137E-04  0.137E-04
 -11.216  0.137E-04  0.137E-04
 -11.206  0.137E-04  0.137E-04
 -11.196  0.136E-04  0.136E-04
 -11.186  0.135E-04  0.135E-04
 -11.176  0.134E-04  0.134E-04
 -11.166  0.132E-04  0.132E-04
 -11.156  0.130E-04  0.130E-04
 -11.146  0.127E-04  0.127E-04
 -11.136  0.124E-04  0.124E-04
 -11.126  0.121E-04  0.121E-04
 -11.116  0.116E-04  0.116E-04
 -11.106  0.112E-04  0.112E-04
 -11.096  0.106E-04  0.106E-04
 -11.086  0.999E-05  0.999E-05
 -11.076  0.929E-05  0.929E-05
 -11.066  0.852E-05  0.852E-05
 -11.056  0.766E-05  0.766E-05
 -11.046  0.670E-05  0.670E-05
 -11.036  0.564E-05  0.564E-05
 -11.026  0.448E-05  0.448E-05
 -11.016  0.320E-05  0.320E-05
 -11.006  0.181E-05  0.181E-05
 -10.996  0.278E-06  0.278E-06
 -10.986 -0.139E-05 -0.139E-05
 -10.976 -0.320E-05 -0.320E-05
 -10.966 -0.517E-05 -0.517E-05
 -10.956 -0.731E-05 -0.731E-05
 -10.946 -0.963E-05 -0.963E-05
 -10.936 -0.121E-04 -0.121E-04
 -10.926 -0.148E-04 -0.148E-04
 -10.916 -0.178E-04 -0.178E-04
 -10.906 -0.209E-04 -0.209E-04
 -10.896 -0.243E-04 -0.243E-04
 -10.886 -0.279E-04 -0.279E-04
 -10.876 -0.318E-04 -0.318E-04
 -10.866 -0.360E-04 -0.360E-04
 -10.856 -0.404E-04 -0.404E-04
 -10.846 -0.452E-04 -0.452E-04
 -10.836 -0.503E-04 -0.503E-04
 -10.826 -0.558E-04 -0.558E-04
 -10.816 -0.616E-04 -0.616E-04
 -10.806 -0.678E-04 -0.678E-04
 -10.796 -0.744E-04 -0.744E-04
 -10.786 -0.815E-04 -0.815E-04
 -10.776 -0.889E-04 -0.889E-04
 -10.766 -0.969E-04 -0.969E-04
 -10.756 -0.105E-03 -0.105E-03
 -10.746 -0.114E-03 -0.114E-03
 -10.736 -0.124E-03 -0.124E-03
 -10.726 -0.134E-03 -0.134E-03
 -10.716 -0.144E-03 -0.144E-03
 -10.706 -0.155E-03 -0.155E-03
 -10.696 -0.167E-03 -0.167E-03
 -10.686 -0.180E-03 -0.180E-03
 -10.676 -0.193E-03 -0.193E-03
 -10.666 -0.206E-03 -0.206E-03
 -10.656 -0.221E-03 -0.221E-03
 -10.646 -0.236E-03 -0.236E-03
 -10.636 -0.252E-03 -0.252E-03
 -10.626 -0.269E-03 -0.269E-03
 -10.616 -0.287E-03 -0.287E-03
 -10.606 -0.305E-03 -0.305E-03
 -10.596 -0.324E-03 -0.324E-03
 -10.586 -0.345E-03 -0.345E-03
 -10.576 -0.366E-03 -0.366E-03
 -10.566 -0.388E-03 -0.388E-03
 -10.556 -0.411E-03 -0.411E-03
 -10.546 -0.435E-03 -0.435E-03
 -10.536 -0.460E-03 -0.460E-03
 -10.526 -0.486E-03 -0.486E-03
 -10.516 -0.513E-03 -0.513E-03
 -10.506 -0.541E-03 -0.541E-03
 -10.496 -0.571E-03 -0.571E-03
 -10.486 -0.601E-03 -0.601E-03
 -10.476 -0.632E-03 -0.632E-03
 -10.466 -0.665E-03 -0.665E-03
 -10.456 -0.698E-03 -0.698E-03
 -10.446 -0.733E-03 -0.733E-03
 -10.436 -0.769E-03 -0.769E-03
 -10.426 -0.806E-03 -0.806E-03
 -10.416 -0.844E-03 -0.844E-03
 -10.406 -0.883E-03 -0.883E-03
 -10.396 -0.923E-03 -0.923E-03
 -10.386 -0.964E-03 -0.964E-03
 -10.376 -0.101E-02 -0.101E-02
 -10.366 -0.105E-02 -0.105E-02
 -10.356 -0.109E-02 -0.109E-02
 -10.346 -0.114E-02 -0.114E-02
 -10.336 -0.119E-02 -0.119E-02
 -10.326 -0.123E-02 -0.123E-02
 -10.316 -0.128E-02 -0.128E-02
 -10.306 -0.133E-02 -0.133E-02
 -10.296 -0.138E-02 -0.138E-02
 -10.286 -0.143E-02 -0.143E-02
 -10.276 -0.148E-02 -0.148E-02
 -10.266 -0.153E-02 -0.153E-02
 -10.256 -0.158E-02 -0.158E-02
 -10.246 -0.163E-02 -0.163E-02
 -10.236 -0.168E-02 -0.168E-02
 -10.226 -0.174E-02 -0.174E-02
 -10.216 -0.179E-02 -0.179E-02
 -10.206 -0.184E-02 -0.184E-02
 -10.196 -0.189E-02 -0.189E-02
 -10.186 -0.194E-02 -0.194E-02
 -10.176 -0.199E-02 -0.199E-02
 -10.166 -0.204E-02 -0.204E-02
 -10.156 -0.209E-02 -0.209E-02
 -10.146 -0.214E-02 -0.214E-02
 -10.136 -0.218E-02 -0.218E-02
 -10.126 -0.223E-02 -0.223E-02
 -10.116 -0.227E-02 -0.227E-02
 -10.106 -0.231E-02 -0.231E-02
 -10.096 -0.235E-02 -0.235E-02
 -10.086 -0.238E-02 -0.238E-02
 -10.076 -0.242E-02 -0.242E-02
 -10.066 -0.245E-02 -0.245E-02
 -10.056 -0.247E-02 -0.247E-02
 -10.046 -0.250E-02 -0.250E-02
 -10.036 -0.252E-02 -0.252E-02
 -10.026 -0.253E-02 -0.253E-02
 -10.016 -0.254E-02 -0.254E-02
 -10.006 -0.255E-02 -0.255E-02
  -9.996 -0.255E-02 -0.255E-02
  -9.986 -0.255E-02 -0.255E-02
  -9.976 -0.254E-02 -0.254E-02
  -9.966 -0.252E-02 -0.252E-02
  -9.956 -0.250E-02 -0.250E-02
  -9.946 -0.247E-02 -0.247E-02
  -9.936 -0.244E-02 -0.244E-02
  -9.926 -0.240E-02 -0.240E-02
  -9.916 -0.235E-02 -0.235E-02
  -9.906 -0.229E-02 -0.229E-02
  -9.896 -0.222E-02 -0.222E-02
  -9.886 -0.215E-02 -0.215E-02
  -9.876 -0.206E-02 -0.206E-02
  -9.866 -0.197E-02 -0.197E-02
  -9.856 -0.186E-02 -0.186E-02
  -9.846 -0.175E-02 -0.175E-02
  -9.836 -0.162E-02 -0.162E-02
  -9.826 -0.149E-02 -0.149E-02
  -9.816 -0.134E-02 -0.134E-02
  -9.806 -0.118E-02 -0.118E-02
  -9.796 -0.101E-02 -0.101E-02
  -9.786 -0.823E-03 -0.823E-03
  -9.776 -0.627E-03 -0.627E-03
  -9.766 -0.418E-03 -0.418E-03
  -9.756 -0.195E-03 -0.195E-03
  -9.746  0.411E-04  0.411E-04
  -9.736  0.291E-03  0.291E-03
  -9.726  0.555E-03  0.555E-03
  -9.716  0.833E-03  0.833E-03
  -9.706  0.113E-02  0.113E-02
  -9.696  0.143E-02  0.143E-02
  -9.686  0.176E-02  0.176E-02
  -9.676  0.209E-02  0.209E-02
  -9.666  0.245E-02  0.245E-02
  -9.656  0.282E-02  0.282E-02
  -9.646  0.320E-02  0.320E-02
  -9.636  0.360E-02  0.360E-02
  -9.626  0.402E-02  0.402E-02
  -9.616  0.445E-02  0.445E-02
  -9.606  0.489E-02  0.489E-02
  -9.596  0.536E-02  0.536E-02
  -9.586  0.583E-02  0.583E-02
  -9.576  0.633E-02  0.633E-02
  -9.566  0.684E-02  0.684E-02
  -9.556  0.736E-02  0.736E-02
  -9.546  0.790E-02  0.790E-02
  -9.536  0.846E-02  0.846E-02
  -9.526  0.902E-02  0.902E-02
  -9.516  0.961E-02  0.961E-02
  -9.506  0.102E-01  0.102E-01
  -9.496  0.108E-01  0.108E-01
  -9.486  0.114E-01  0.114E-01
  -9.476  0.121E-01  0.121E-01
  -9.466  0.127E-01  0.127E-01
  -9.456  0.134E-01  0.134E-01
  -9.446  0.141E-01  0.141E-01
  -9.436  0.148E-01  0.148E-01
  -9.426  0.155E-01  0.155E-01
  -9.416  0.162E-01  0.162E-01
  -9.406  0.169E-01  0.169E-01
  -9.396  0.176E-01  0.176E-01
  -9.386  0.184E-01  0.184E-01
  -9.376  0.191E-01  0.191E-01
  -9.366  0.199E-01  0.199E-01
  -9.356  0.206E-01  0.206E-01
  -9.346  0.214E-01  0.214E-01
  -9.336  0.222E-01  0.222E-01
  -9.326  0.230E-01  0.230E-01
  -9.316  0.237E-01  0.237E-01
  -9.306  0.245E-01  0.245E-01
  -9.296  0.253E-01  0.253E-01
  -9.286  0.261E-01  0.261E-01
  -9.276  0.269E-01  0.269E-01
  -9.266  0.277E-01  0.277E-01
  -9.256  0.285E-01  0.285E-01
  -9.246  0.293E-01  0.293E-01
  -9.236  0.301E-01  0.301E-01
  -9.226  0.309E-01  0.309E-01
  -9.216  0.316E-01  0.316E-01
  -9.206  0.324E-01  0.324E-01
  -9.196  0.332E-01  0.332E-01
  -9.186  0.340E-01  0.340E-01
  -9.176  0.347E-01  0.347E-01
  -9.166  0.355E-01  0.355E-01
  -9.156  0.362E-01  0.362E-01
  -9.146  0.370E-01  0.370E-01
  -9.136  0.377E-01  0.377E-01
  -9.126  0.384E-01  0.384E-01
  -9.116  0.391E-01  0.391E-01
  -9.106  0.398E-01  0.398E-01
  -9.096  0.405E-01  0.405E-01
  -9.086  0.412E-01  0.412E-01
  -9.076  0.418E-01  0.418E-01
  -9.066  0.425E-01  0.425E-01
  -9.056  0.431E-01  0.431E-01
  -9.046  0.437E-01  0.437E-01
  -9.036  0.443E-01  0.443E-01
  -9.026  0.449E-01  0.449E-01
  -9.016  0.455E-01  0.455E-01
  -9.006  0.460E-01  0.460E-01
  -8.996  0.466E-01  0.466E-01
  -8.986  0.471E-01  0.471E-01
  -8.976  0.476E-01  0.476E-01
  -8.966  0.481E-01  0.481E-01
  -8.956  0.485E-01  0.485E-01
  -8.946  0.490E-01  0.490E-01
  -8.936  0.494E-01  0.494E-01
  -8.926  0.498E-01  0.498E-01
  -8.916  0.502E-01  0.502E-01
  -8.906  0.505E-01  0.505E-01
  -8.896  0.509E-01  0.509E-01
  -8.886  0.512E-01  0.512E-01
  -8.876  0.515E-01  0.515E-01
  -8.866  0.518E-01  0.518E-01
  -8.856  0.521E-01  0.521E-01
  -8.846  0.523E-01  0.523E-01
  -8.836  0.525E-01  0.525E-01
  -8.826  0.527E-01  0.527E-01
  -8.816  0.529E-01  0.529E-01
  -8.806  0.531E-01  0.531E-01
  -8.796  0.532E-01  0.532E-01
  -8.786  0.533E-01  0.533E-01
  -8.776  0.534E-01  0.534E-01
  -8.766  0.535E-01  0.535E-01
  -8.756  0.536E-01  0.536E-01
  -8.746  0.536E-01  0.536E-01
  -8.736  0.536E-01  0.536E-01
  -8.726  0.536E-01  0.536E-01
  -8.716  0.536E-01  0.536E-01
  -8.706  0.536E-01  0.536E-01
  -8.696  0.535E-01  0.535E-01
  -8.686  0.534E-01  0.534E-01
  -8.676  0.533E-01  0.533E-01
  -8.666  0.532E-01  0.532E-01
  -8.656  0.531E-01  0.531E-01
  -8.646  0.530E-01  0.530E-01
  -8.636  0.528E-01  0.528E-01
  -8.626  0.526E-01  0.526E-01
  -8.616  0.524E-01  0.524E-01
  -8.606  0.522E-01  0.522E-01
  -8.596  0.520E-01  0.520E-01
  -8.586  0.518E-01  0.518E-01
  -8.576  0.515E-01  0.515E-01
  -8.566  0.513E-01  0.513E-01
  -8.556  0.510E-01  0.510E-01
  -8.546  0.507E-01  0.507E-01
  -8.536  0.504E-01  0.504E-01
  -8.526  0.501E-01  0.501E-01
  -8.516  0.498E-01  0.498E-01
  -8.506  0.495E-01  0.495E-01
  -8.496  0.491E-01  0.491E-01
  -8.486  0.488E-01  0.488E-01
  -8.476  0.485E-01  0.485E-01
  -8.466  0.481E-01  0.481E-01
  -8.456  0.478E-01  0.478E-01
  -8.446  0.474E-01  0.474E-01
  -8.436  0.471E-01  0.471E-01
  -8.426  0.467E-01  0.467E-01
  -8.416  0.463E-01  0.463E-01
  -8.406  0.460E-01  0.460E-01
  -8.396  0.456E-01  0.456E-01
  -8.386  0.453E-01  0.453E-01
  -8.376  0.449E-01  0.449E-01
  -8.366  0.446E-01  0.446E-01
  -8.356  0.443E-01  0.443E-01
  -8.346  0.440E-01  0.440E-01
  -8.336  0.437E-01  0.437E-01
  -8.326  0.434E-01  0.434E-01
  -8.316  0.431E-01  0.431E-01
  -8.306  0.428E-01  0.428E-01
  -8.296  0.426E-01  0.426E-01
  -8.286  0.424E-01  0.424E-01
  -8.276  0.422E-01  0.422E-01
  -8.266  0.420E-01  0.420E-01
  -8.256  0.419E-01  0.419E-01
  -8.246  0.417E-01  0.417E-01
  -8.236  0.417E-01  0.417E-01
  -8.226  0.416E-01  0.416E-01
  -8.216  0.416E-01  0.416E-01
  -8.206  0.416E-01  0.416E-01
  -8.196  0.416E-01  0.416E-01
  -8.186  0.417E-01  0.417E-01
  -8.176  0.419E-01  0.419E-01
  -8.166  0.421E-01  0.421E-01
  -8.156  0.423E-01  0.423E-01
  -8.146  0.426E-01  0.426E-01
  -8.136  0.429E-01  0.429E-01
  -8.126  0.433E-01  0.433E-01
  -8.116  0.437E-01  0.437E-01
  -8.106  0.442E-01  0.442E-01
  -8.096  0.447E-01  0.447E-01
  -8.086  0.454E-01  0.454E-01
  -8.076  0.460E-01  0.460E-01
  -8.066  0.468E-01  0.468E-01
  -8.056  0.476E-01  0.476E-01
  -8.046  0.484E-01  0.484E-01
  -8.036  0.494E-01  0.494E-01
  -8.026  0.504E-01  0.504E-01
  -8.016  0.515E-01  0.515E-01
  -8.006  0.526E-01  0.526E-01
  -7.996  0.538E-01  0.538E-01
  -7.986  0.551E-01  0.551E-01
  -7.976  0.565E-01  0.565E-01
  -7.966  0.580E-01  0.580E-01
  -7.956  0.595E-01  0.595E-01
  -7.946  0.611E-01  0.611E-01
  -7.936  0.628E-01  0.628E-01
  -7.926  0.645E-01  0.645E-01
  -7.916  0.664E-01  0.664E-01
  -7.906  0.683E-01  0.683E-01
  -7.896  0.703E-01  0.703E-01
  -7.886  0.724E-01  0.724E-01
  -7.876  0.745E-01  0.745E-01
  -7.866  0.768E-01  0.768E-01
  -7.856  0.791E-01  0.791E-01
  -7.846  0.814E-01  0.814E-01
  -7.836  0.839E-01  0.839E-01
  -7.826  0.864E-01  0.864E-01
  -7.816  0.890E-01  0.890E-01
  -7.806  0.916E-01  0.916E-01
  -7.796  0.944E-01  0.944E-01
  -7.786  0.971E-01  0.971E-01
  -7.776  0.100E+00  0.100E+00
  -7.766  0.103E+00  0.103E+00
  -7.756  0.106E+00  0.106E+00
  -7.746  0.109E+00  0.109E+00
  -7.736  0.112E+00  0.112E+00
  -7.726  0.115E+00  0.115E+00
  -7.716  0.118E+00  0.118E+00
  -7.706  0.121E+00  0.121E+00
  -7.696  0.124E+00  0.124E+00
  -7.686  0.128E+00  0.128E+00
  -7.676  0.131E+00  0.131E+00
  -7.666  0.134E+00  0.134E+00
  -7.656  0.138E+00  0.138E+00
  -7.646  0.141E+00  0.141E+00
  -7.636  0.144E+00  0.144E+00
  -7.626  0.147E+00  0.147E+00
  -7.616  0.151E+00  0.151E+00
  -7.606  0.154E+00  0.154E+00
  -7.596  0.157E+00  0.157E+00
  -7.586  0.161E+00  0.161E+00
  -7.576  0.164E+00  0.164E+00
  -7.566  0.167E+00  0.167E+00
  -7.556  0.170E+00  0.170E+00
  -7.546  0.173E+00  0.173E+00
  -7.536  0.177E+00  0.177E+00
  -7.526  0.180E+00  0.180E+00
  -7.516  0.183E+00  0.183E+00
  -7.506  0.186E+00  0.186E+00
  -7.496  0.188E+00  0.188E+00
  -7.486  0.191E+00  0.191E+00
  -7.476  0.194E+00  0.194E+00
  -7.466  0.197E+00  0.197E+00
  -7.456  0.199E+00  0.199E+00
  -7.446  0.202E+00  0.202E+00
  -7.436  0.204E+00  0.204E+00
  -7.426  0.206E+00  0.206E+00
  -7.416  0.209E+00  0.209E+00
  -7.406  0.211E+00  0.211E+00
  -7.396  0.213E+00  0.213E+00
  -7.386  0.214E+00  0.214E+00
  -7.376  0.216E+00  0.216E+00
  -7.366  0.218E+00  0.218E+00
  -7.356  0.219E+00  0.219E+00
  -7.346  0.221E+00  0.221E+00
  -7.336  0.222E+00  0.222E+00
  -7.326  0.223E+00  0.223E+00
  -7.316  0.224E+00  0.224E+00
  -7.306  0.225E+00  0.225E+00
  -7.296  0.225E+00  0.225E+00
  -7.286  0.226E+00  0.226E+00
  -7.276  0.226E+00  0.226E+00
  -7.266  0.226E+00  0.226E+00
  -7.256  0.227E+00  0.227E+00
  -7.246  0.227E+00  0.227E+00
  -7.236  0.226E+00  0.226E+00
  -7.226  0.226E+00  0.226E+00
  -7.216  0.225E+00  0.225E+00
  -7.206  0.225E+00  0.225E+00
  -7.196  0.224E+00  0.224E+00
  -7.186  0.223E+00  0.223E+00
  -7.176  0.222E+00  0.222E+00
  -7.166  0.221E+00  0.221E+00
  -7.156  0.219E+00  0.219E+00
  -7.146  0.218E+00  0.218E+00
  -7.136  0.216E+00  0.216E+00
  -7.126  0.214E+00  0.214E+00
  -7.116  0.212E+00  0.212E+00
  -7.106  0.210E+00  0.210E+00
  -7.096  0.208E+00  0.208E+00
  -7.086  0.206E+00  0.206E+00
  -7.076  0.203E+00  0.203E+00
  -7.066  0.201E+00  0.201E+00
  -7.056  0.198E+00  0.198E+00
  -7.046  0.195E+00  0.195E+00
  -7.036  0.192E+00  0.192E+00
  -7.026  0.189E+00  0.189E+00
  -7.016  0.186E+00  0.186E+00
  -7.006  0.183E+00  0.183E+00
  -6.996  0.179E+00  0.179E+00
  -6.986  0.176E+00  0.176E+00
  -6.976  0.172E+00  0.172E+00
  -6.966  0.169E+00  0.169E+00
  -6.956  0.165E+00  0.165E+00
  -6.946  0.161E+00  0.161E+00
  -6.936  0.158E+00  0.158E+00
  -6.926  0.154E+00  0.154E+00
  -6.916  0.150E+00  0.150E+00
  -6.906  0.146E+00  0.146E+00
  -6.896  0.142E+00  0.142E+00
  -6.886  0.138E+00  0.138E+00
  -6.876  0.134E+00  0.134E+00
  -6.866  0.130E+00  0.130E+00
  -6.856  0.126E+00  0.126E+00
  -6.846  0.122E+00  0.122E+00
  -6.836  0.118E+00  0.118E+00
  -6.826  0.113E+00  0.113E+00
  -6.816  0.109E+00  0.109E+00
  -6.806  0.105E+00  0.105E+00
  -6.796  0.101E+00  0.101E+00
  -6.786  0.970E-01  0.970E-01
  -6.776  0.930E-01  0.930E-01
  -6.766  0.889E-01  0.889E-01
  -6.756  0.849E-01  0.849E-01
  -6.746  0.810E-01  0.810E-01
  -6.736  0.770E-01  0.770E-01
  -6.726  0.731E-01  0.731E-01
  -6.716  0.693E-01  0.693E-01
  -6.706  0.655E-01  0.655E-01
  -6.696  0.618E-01  0.618E-01
  -6.686  0.582E-01  0.582E-01
  -6.676  0.546E-01  0.546E-01
  -6.666  0.511E-01  0.511E-01
  -6.656  0.477E-01  0.477E-01
  -6.646  0.443E-01  0.443E-01
  -6.636  0.410E-01  0.410E-01
  -6.626  0.379E-01  0.379E-01
  -6.616  0.348E-01  0.348E-01
  -6.606  0.318E-01  0.318E-01
  -6.596  0.289E-01  0.289E-01
  -6.586  0.261E-01  0.261E-01
  -6.576  0.234E-01  0.234E-01
  -6.566  0.209E-01  0.209E-01
  -6.556  0.184E-01  0.184E-01
  -6.546  0.161E-01  0.161E-01
  -6.536  0.138E-01  0.138E-01
  -6.526  0.117E-01  0.117E-01
  -6.516  0.975E-02  0.975E-02
  -6.506  0.790E-02  0.790E-02
  -6.496  0.617E-02  0.617E-02
  -6.486  0.457E-02  0.457E-02
  -6.476  0.311E-02  0.311E-02
  -6.466  0.178E-02  0.178E-02
  -6.456  0.593E-03  0.593E-03
  -6.446 -0.458E-03 -0.458E-03
  -6.436 -0.137E-02 -0.137E-02
  -6.426 -0.213E-02 -0.213E-02
  -6.416 -0.276E-02 -0.276E-02
  -6.406 -0.323E-02 -0.323E-02
  -6.396 -0.356E-02 -0.356E-02
  -6.386 -0.374E-02 -0.374E-02
  -6.376 -0.378E-02 -0.378E-02
  -6.366 -0.366E-02 -0.366E-02
  -6.356 -0.338E-02 -0.338E-02
  -6.346 -0.296E-02 -0.296E-02
  -6.336 -0.238E-02 -0.238E-02
  -6.326 -0.165E-02 -0.165E-02
  -6.316 -0.761E-03 -0.761E-03
  -6.306  0.281E-03  0.281E-03
  -6.296  0.148E-02  0.148E-02
  -6.286  0.283E-02  0.283E-02
  -6.276  0.434E-02  0.434E-02
  -6.266  0.600E-02  0.600E-02
  -6.256  0.782E-02  0.782E-02
  -6.246  0.979E-02  0.979E-02
  -6.236  0.119E-01  0.119E-01
  -6.226  0.142E-01  0.142E-01
  -6.216  0.166E-01  0.166E-01
  -6.206  0.192E-01  0.192E-01
  -6.196  0.219E-01  0.219E-01
  -6.186  0.248E-01  0.248E-01
  -6.176  0.279E-01  0.279E-01
  -6.166  0.310E-01  0.310E-01
  -6.156  0.343E-01  0.343E-01
  -6.146  0.378E-01  0.378E-01
  -6.136  0.414E-01  0.414E-01
  -6.126  0.451E-01  0.451E-01
  -6.116  0.490E-01  0.490E-01
  -6.106  0.530E-01  0.530E-01
  -6.096  0.571E-01  0.571E-01
  -6.086  0.614E-01  0.614E-01
  -6.076  0.657E-01  0.657E-01
  -6.066  0.702E-01  0.702E-01
  -6.056  0.748E-01  0.748E-01
  -6.046  0.795E-01  0.795E-01
  -6.036  0.843E-01  0.843E-01
  -6.026  0.892E-01  0.892E-01
  -6.016  0.942E-01  0.942E-01
  -6.006  0.993E-01  0.993E-01
  -5.996  0.104E+00  0.104E+00
  -5.986  0.110E+00  0.110E+00
  -5.976  0.115E+00  0.115E+00
  -5.966  0.120E+00  0.120E+00
  -5.956  0.126E+00  0.126E+00
  -5.946  0.131E+00  0.131E+00
  -5.936  0.137E+00  0.137E+00
  -5.926  0.143E+00  0.143E+00
  -5.916  0.148E+00  0.148E+00
  -5.906  0.154E+00  0.154E+00
  -5.896  0.160E+00  0.160E+00
  -5.886  0.165E+00  0.165E+00
  -5.876  0.171E+00  0.171E+00
  -5.866  0.177E+00  0.177E+00
  -5.856  0.182E+00  0.182E+00
  -5.846  0.188E+00  0.188E+00
  -5.836  0.194E+00  0.194E+00
  -5.826  0.199E+00  0.199E+00
  -5.816  0.205E+00  0.205E+00
  -5.806  0.211E+00  0.211E+00
  -5.796  0.216E+00  0.216E+00
  -5.786  0.222E+00  0.222E+00
  -5.776  0.227E+00  0.227E+00
  -5.766  0.232E+00  0.232E+00
  -5.756  0.237E+00  0.237E+00
  -5.746  0.243E+00  0.243E+00
  -5.736  0.248E+00  0.248E+00
  -5.726  0.253E+00  0.253E+00
  -5.716  0.257E+00  0.257E+00
  -5.706  0.262E+00  0.262E+00
  -5.696  0.267E+00  0.267E+00
  -5.686  0.271E+00  0.271E+00
  -5.676  0.275E+00  0.275E+00
  -5.666  0.279E+00  0.279E+00
  -5.656  0.283E+00  0.283E+00
  -5.646  0.287E+00  0.287E+00
  -5.636  0.291E+00  0.291E+00
  -5.626  0.294E+00  0.294E+00
  -5.616  0.298E+00  0.298E+00
  -5.606  0.301E+00  0.301E+00
  -5.596  0.304E+00  0.304E+00
  -5.586  0.306E+00  0.306E+00
  -5.576  0.309E+00  0.309E+00
  -5.566  0.311E+00  0.311E+00
  -5.556  0.313E+00  0.313E+00
  -5.546  0.315E+00  0.315E+00
  -5.536  0.317E+00  0.317E+00
  -5.526  0.319E+00  0.319E+00
  -5.516  0.320E+00  0.320E+00
  -5.506  0.321E+00  0.321E+00
  -5.496  0.322E+00  0.322E+00
  -5.486  0.322E+00  0.322E+00
  -5.476  0.323E+00  0.323E+00
  -5.466  0.323E+00  0.323E+00
  -5.456  0.323E+00  0.323E+00
  -5.446  0.323E+00  0.323E+00
  -5.436  0.322E+00  0.322E+00
  -5.426  0.322E+00  0.322E+00
  -5.416  0.321E+00  0.321E+00
  -5.406  0.320E+00  0.320E+00
  -5.396  0.318E+00  0.318E+00
  -5.386  0.317E+00  0.317E+00
  -5.376  0.315E+00  0.315E+00
  -5.366  0.313E+00  0.313E+00
  -5.356  0.311E+00  0.311E+00
  -5.346  0.309E+00  0.309E+00
  -5.336  0.306E+00  0.306E+00
  -5.326  0.303E+00  0.303E+00
  -5.316  0.300E+00  0.300E+00
  -5.306  0.297E+00  0.297E+00
  -5.296  0.294E+00  0.294E+00
  -5.286  0.291E+00  0.291E+00
  -5.276  0.287E+00  0.287E+00
  -5.266  0.283E+00  0.283E+00
  -5.256  0.279E+00  0.279E+00
  -5.246  0.275E+00  0.275E+00
  -5.236  0.271E+00  0.271E+00
  -5.226  0.267E+00  0.267E+00
  -5.216  0.263E+00  0.263E+00
  -5.206  0.258E+00  0.258E+00
  -5.196  0.254E+00  0.254E+00
  -5.186  0.249E+00  0.249E+00
  -5.176  0.244E+00  0.244E+00
  -5.166  0.239E+00  0.239E+00
  -5.156  0.234E+00  0.234E+00
  -5.146  0.229E+00  0.229E+00
  -5.136  0.224E+00  0.224E+00
  -5.126  0.219E+00  0.219E+00
  -5.116  0.214E+00  0.214E+00
  -5.106  0.209E+00  0.209E+00
  -5.096  0.204E+00  0.204E+00
  -5.086  0.198E+00  0.198E+00
  -5.076  0.193E+00  0.193E+00
  -5.066  0.188E+00  0.188E+00
  -5.056  0.183E+00  0.183E+00
  -5.046  0.178E+00  0.178E+00
  -5.036  0.172E+00  0.172E+00
  -5.026  0.167E+00  0.167E+00
  -5.016  0.162E+00  0.162E+00
  -5.006  0.157E+00  0.157E+00
  -4.996  0.152E+00  0.152E+00
  -4.986  0.147E+00  0.147E+00
  -4.976  0.142E+00  0.142E+00
  -4.966  0.137E+00  0.137E+00
  -4.956  0.132E+00  0.132E+00
  -4.946  0.127E+00  0.127E+00
  -4.936  0.123E+00  0.123E+00
  -4.926  0.118E+00  0.118E+00
  -4.916  0.114E+00  0.114E+00
  -4.906  0.109E+00  0.109E+00
  -4.896  0.105E+00  0.105E+00
  -4.886  0.101E+00  0.101E+00
  -4.876  0.966E-01  0.966E-01
  -4.866  0.926E-01  0.926E-01
  -4.856  0.887E-01  0.887E-01
  -4.846  0.849E-01  0.849E-01
  -4.836  0.812E-01  0.812E-01
  -4.826  0.776E-01  0.776E-01
  -4.816  0.741E-01  0.741E-01
  -4.806  0.708E-01  0.708E-01
  -4.796  0.676E-01  0.676E-01
  -4.786  0.644E-01  0.644E-01
  -4.776  0.614E-01  0.614E-01
  -4.766  0.585E-01  0.585E-01
  -4.756  0.558E-01  0.558E-01
  -4.746  0.531E-01  0.531E-01
  -4.736  0.506E-01  0.506E-01
  -4.726  0.482E-01  0.482E-01
  -4.716  0.459E-01  0.459E-01
  -4.706  0.438E-01  0.438E-01
  -4.696  0.417E-01  0.417E-01
  -4.686  0.398E-01  0.398E-01
  -4.676  0.379E-01  0.379E-01
  -4.666  0.362E-01  0.362E-01
  -4.656  0.346E-01  0.346E-01
  -4.646  0.331E-01  0.331E-01
  -4.636  0.317E-01  0.317E-01
  -4.626  0.304E-01  0.304E-01
  -4.616  0.293E-01  0.293E-01
  -4.606  0.282E-01  0.282E-01
  -4.596  0.272E-01  0.272E-01
  -4.586  0.263E-01  0.263E-01
  -4.576  0.255E-01  0.255E-01
  -4.566  0.248E-01  0.248E-01
  -4.556  0.242E-01  0.242E-01
  -4.546  0.236E-01  0.236E-01
  -4.536  0.232E-01  0.232E-01
  -4.526  0.228E-01  0.228E-01
  -4.516  0.225E-01  0.225E-01
  -4.506  0.223E-01  0.223E-01
  -4.496  0.222E-01  0.222E-01
  -4.486  0.221E-01  0.221E-01
  -4.476  0.221E-01  0.221E-01
  -4.466  0.222E-01  0.222E-01
  -4.456  0.223E-01  0.223E-01
  -4.446  0.225E-01  0.225E-01
  -4.436  0.227E-01  0.227E-01
  -4.426  0.230E-01  0.230E-01
  -4.416  0.233E-01  0.233E-01
  -4.406  0.237E-01  0.237E-01
  -4.396  0.242E-01  0.242E-01
  -4.386  0.246E-01  0.246E-01
  -4.376  0.252E-01  0.252E-01
  -4.366  0.257E-01  0.257E-01
  -4.356  0.263E-01  0.263E-01
  -4.346  0.270E-01  0.270E-01
  -4.336  0.277E-01  0.277E-01
  -4.326  0.284E-01  0.284E-01
  -4.316  0.291E-01  0.291E-01
  -4.306  0.299E-01  0.299E-01
  -4.296  0.307E-01  0.307E-01
  -4.286  0.315E-01  0.315E-01
  -4.276  0.323E-01  0.323E-01
  -4.266  0.332E-01  0.332E-01
  -4.256  0.341E-01  0.341E-01
  -4.246  0.350E-01  0.350E-01
  -4.236  0.360E-01  0.360E-01
  -4.226  0.369E-01  0.369E-01
  -4.216  0.379E-01  0.379E-01
  -4.206  0.389E-01  0.389E-01
  -4.196  0.399E-01  0.399E-01
  -4.186  0.409E-01  0.409E-01
  -4.176  0.419E-01  0.419E-01
  -4.166  0.430E-01  0.430E-01
  -4.156  0.440E-01  0.440E-01
  -4.146  0.451E-01  0.451E-01
  -4.136  0.462E-01  0.462E-01
  -4.126  0.472E-01  0.472E-01
  -4.116  0.483E-01  0.483E-01
  -4.106  0.494E-01  0.494E-01
  -4.096  0.506E-01  0.506E-01
  -4.086  0.517E-01  0.517E-01
  -4.076  0.528E-01  0.528E-01
  -4.066  0.540E-01  0.540E-01
  -4.056  0.551E-01  0.551E-01
  -4.046  0.563E-01  0.563E-01
  -4.036  0.574E-01  0.574E-01
  -4.026  0.586E-01  0.586E-01
  -4.016  0.597E-01  0.597E-01
  -4.006  0.609E-01  0.609E-01
  -3.996  0.621E-01  0.621E-01
  -3.986  0.633E-01  0.633E-01
  -3.976  0.645E-01  0.645E-01
  -3.966  0.657E-01  0.657E-01
  -3.956  0.668E-01  0.668E-01
  -3.946  0.680E-01  0.680E-01
  -3.936  0.692E-01  0.692E-01
  -3.926  0.704E-01  0.704E-01
  -3.916  0.716E-01  0.716E-01
  -3.906  0.728E-01  0.728E-01
  -3.896  0.740E-01  0.740E-01
  -3.886  0.752E-01  0.752E-01
  -3.876  0.764E-01  0.764E-01
  -3.866  0.776E-01  0.776E-01
  -3.856  0.788E-01  0.788E-01
  -3.846  0.800E-01  0.800E-01
  -3.836  0.812E-01  0.812E-01
  -3.826  0.824E-01  0.824E-01
  -3.816  0.836E-01  0.836E-01
  -3.806  0.847E-01  0.847E-01
  -3.796  0.859E-01  0.859E-01
  -3.786  0.870E-01  0.870E-01
  -3.776  0.882E-01  0.882E-01
  -3.766  0.893E-01  0.893E-01
  -3.756  0.905E-01  0.905E-01
  -3.746  0.916E-01  0.916E-01
  -3.736  0.927E-01  0.927E-01
  -3.726  0.938E-01  0.938E-01
  -3.716  0.948E-01  0.948E-01
  -3.706  0.959E-01  0.959E-01
  -3.696  0.969E-01  0.969E-01
  -3.686  0.980E-01  0.980E-01
  -3.676  0.990E-01  0.990E-01
  -3.666  0.999E-01  0.999E-01
  -3.656  0.101E+00  0.101E+00
  -3.646  0.102E+00  0.102E+00
  -3.636  0.103E+00  0.103E+00
  -3.626  0.104E+00  0.104E+00
  -3.616  0.105E+00  0.105E+00
  -3.606  0.105E+00  0.105E+00
  -3.596  0.106E+00  0.106E+00
  -3.586  0.107E+00  0.107E+00
  -3.576  0.108E+00  0.108E+00
  -3.566  0.109E+00  0.109E+00
  -3.556  0.109E+00  0.109E+00
  -3.546  0.110E+00  0.110E+00
  -3.536  0.111E+00  0.111E+00
  -3.526  0.111E+00  0.111E+00
  -3.516  0.112E+00  0.112E+00
  -3.506  0.112E+00  0.112E+00
  -3.496  0.113E+00  0.113E+00
  -3.486  0.113E+00  0.113E+00
  -3.476  0.114E+00  0.114E+00
  -3.466  0.114E+00  0.114E+00
  -3.456  0.114E+00  0.114E+00
  -3.446  0.115E+00  0.115E+00
  -3.436  0.115E+00  0.115E+00
  -3.426  0.115E+00  0.115E+00
  -3.416  0.115E+00  0.115E+00
  -3.406  0.116E+00  0.116E+00
  -3.396  0.116E+00  0.116E+00
  -3.386  0.116E+00  0.116E+00
  -3.376  0.116E+00  0.116E+00
  -3.366  0.116E+00  0.116E+00
  -3.356  0.116E+00  0.116E+00
  -3.346  0.116E+00  0.116E+00
  -3.336  0.115E+00  0.115E+00
  -3.326  0.115E+00  0.115E+00
  -3.316  0.115E+00  0.115E+00
  -3.306  0.115E+00  0.115E+00
  -3.296  0.115E+00  0.115E+00
  -3.286  0.114E+00  0.114E+00
  -3.276  0.114E+00  0.114E+00
  -3.266  0.113E+00  0.113E+00
  -3.256  0.113E+00  0.113E+00
  -3.246  0.113E+00  0.113E+00
  -3.236  0.112E+00  0.112E+00
  -3.226  0.112E+00  0.112E+00
  -3.216  0.111E+00  0.111E+00
  -3.206  0.110E+00  0.110E+00
  -3.196  0.110E+00  0.110E+00
  -3.186  0.109E+00  0.109E+00
  -3.176  0.108E+00  0.108E+00
  -3.166  0.108E+00  0.108E+00
  -3.156  0.107E+00  0.107E+00
  -3.146  0.106E+00  0.106E+00
  -3.136  0.105E+00  0.105E+00
  -3.126  0.105E+00  0.105E+00
  -3.116  0.104E+00  0.104E+00
  -3.106  0.103E+00  0.103E+00
  -3.096  0.102E+00  0.102E+00
  -3.086  0.101E+00  0.101E+00
  -3.076  0.101E+00  0.101E+00
  -3.066  0.998E-01  0.998E-01
  -3.056  0.990E-01  0.990E-01
  -3.046  0.981E-01  0.981E-01
  -3.036  0.973E-01  0.973E-01
  -3.026  0.965E-01  0.965E-01
  -3.016  0.957E-01  0.957E-01
  -3.006  0.949E-01  0.949E-01
  -2.996  0.941E-01  0.941E-01
  -2.986  0.933E-01  0.933E-01
  -2.976  0.926E-01  0.926E-01
  -2.966  0.919E-01  0.919E-01
  -2.956  0.912E-01  0.912E-01
  -2.946  0.905E-01  0.905E-01
  -2.936  0.899E-01  0.899E-01
  -2.926  0.893E-01  0.893E-01
  -2.916  0.888E-01  0.888E-01
  -2.906  0.883E-01  0.883E-01
  -2.896  0.878E-01  0.878E-01
  -2.886  0.874E-01  0.874E-01
  -2.876  0.870E-01  0.870E-01
  -2.866  0.867E-01  0.867E-01
  -2.856  0.864E-01  0.864E-01
  -2.846  0.862E-01  0.862E-01
  -2.836  0.860E-01  0.860E-01
  -2.826  0.860E-01  0.860E-01
  -2.816  0.859E-01  0.859E-01
  -2.806  0.860E-01  0.860E-01
  -2.796  0.861E-01  0.861E-01
  -2.786  0.863E-01  0.863E-01
  -2.776  0.866E-01  0.866E-01
  -2.766  0.869E-01  0.869E-01
  -2.756  0.873E-01  0.873E-01
  -2.746  0.878E-01  0.878E-01
  -2.736  0.884E-01  0.884E-01
  -2.726  0.891E-01  0.891E-01
  -2.716  0.898E-01  0.898E-01
  -2.706  0.906E-01  0.906E-01
  -2.696  0.916E-01  0.916E-01
  -2.686  0.926E-01  0.926E-01
  -2.676  0.937E-01  0.937E-01
  -2.666  0.948E-01  0.948E-01
  -2.656  0.961E-01  0.961E-01
  -2.646  0.975E-01  0.975E-01
  -2.636  0.989E-01  0.989E-01
  -2.626  0.100E+00  0.100E+00
  -2.616  0.102E+00  0.102E+00
  -2.606  0.104E+00  0.104E+00
  -2.596  0.106E+00  0.106E+00
  -2.586  0.108E+00  0.108E+00
  -2.576  0.110E+00  0.110E+00
  -2.566  0.112E+00  0.112E+00
  -2.556  0.114E+00  0.114E+00
  -2.546  0.116E+00  0.116E+00
  -2.536  0.118E+00  0.118E+00
  -2.526  0.121E+00  0.121E+00
  -2.516  0.123E+00  0.123E+00
  -2.506  0.126E+00  0.126E+00
  -2.496  0.128E+00  0.128E+00
  -2.486  0.131E+00  0.131E+00
  -2.476  0.134E+00  0.134E+00
  -2.466  0.136E+00  0.136E+00
  -2.456  0.139E+00  0.139E+00
  -2.446  0.142E+00  0.142E+00
  -2.436  0.145E+00  0.145E+00
  -2.426  0.148E+00  0.148E+00
  -2.416  0.151E+00  0.151E+00
  -2.406  0.154E+00  0.154E+00
  -2.396  0.157E+00  0.157E+00
  -2.386  0.161E+00  0.161E+00
  -2.376  0.164E+00  0.164E+00
  -2.366  0.167E+00  0.167E+00
  -2.356  0.170E+00  0.170E+00
  -2.346  0.173E+00  0.173E+00
  -2.336  0.176E+00  0.176E+00
  -2.326  0.180E+00  0.180E+00
  -2.316  0.183E+00  0.183E+00
  -2.306  0.186E+00  0.186E+00
  -2.296  0.189E+00  0.189E+00
  -2.286  0.192E+00  0.192E+00
  -2.276  0.195E+00  0.195E+00
  -2.266  0.198E+00  0.198E+00
  -2.256  0.201E+00  0.201E+00
  -2.246  0.204E+00  0.204E+00
  -2.236  0.207E+00  0.207E+00
  -2.226  0.210E+00  0.210E+00
  -2.216  0.213E+00  0.213E+00
  -2.206  0.216E+00  0.216E+00
  -2.196  0.218E+00  0.218E+00
  -2.186  0.221E+00  0.221E+00
  -2.176  0.223E+00  0.223E+00
  -2.166  0.226E+00  0.226E+00
  -2.156  0.228E+00  0.228E+00
  -2.146  0.230E+00  0.230E+00
  -2.136  0.232E+00  0.232E+00
  -2.126  0.234E+00  0.234E+00
  -2.116  0.236E+00  0.236E+00
  -2.106  0.238E+00  0.238E+00
  -2.096  0.239E+00  0.239E+00
  -2.086  0.241E+00  0.241E+00
  -2.076  0.242E+00  0.242E+00
  -2.066  0.243E+00  0.243E+00
  -2.056  0.245E+00  0.245E+00
  -2.046  0.245E+00  0.245E+00
  -2.036  0.246E+00  0.246E+00
  -2.026  0.247E+00  0.247E+00
  -2.016  0.247E+00  0.247E+00
  -2.006  0.248E+00  0.248E+00
  -1.996  0.248E+00  0.248E+00
  -1.986  0.248E+00  0.248E+00
  -1.976  0.248E+00  0.248E+00
  -1.966  0.248E+00  0.248E+00
  -1.956  0.247E+00  0.247E+00
  -1.946  0.247E+00  0.247E+00
  -1.936  0.246E+00  0.246E+00
  -1.926  0.245E+00  0.245E+00
  -1.916  0.244E+00  0.244E+00
  -1.906  0.243E+00  0.243E+00
  -1.896  0.242E+00  0.242E+00
  -1.886  0.241E+00  0.241E+00
  -1.876  0.239E+00  0.239E+00
  -1.866  0.237E+00  0.237E+00
  -1.856  0.235E+00  0.235E+00
  -1.846  0.233E+00  0.233E+00
  -1.836  0.231E+00  0.231E+00
  -1.826  0.229E+00  0.229E+00
  -1.816  0.227E+00  0.227E+00
  -1.806  0.224E+00  0.224E+00
  -1.796  0.221E+00  0.221E+00
  -1.786  0.219E+00  0.219E+00
  -1.776  0.216E+00  0.216E+00
  -1.766  0.213E+00  0.213E+00
  -1.756  0.210E+00  0.210E+00
  -1.746  0.206E+00  0.206E+00
  -1.736  0.203E+00  0.203E+00
  -1.726  0.200E+00  0.200E+00
  -1.716  0.196E+00  0.196E+00
  -1.706  0.193E+00  0.193E+00
  -1.696  0.189E+00  0.189E+00
  -1.686  0.185E+00  0.185E+00
  -1.676  0.182E+00  0.182E+00
  -1.666  0.178E+00  0.178E+00
  -1.656  0.174E+00  0.174E+00
  -1.646  0.170E+00  0.170E+00
  -1.636  0.166E+00  0.166E+00
  -1.626  0.162E+00  0.162E+00
  -1.616  0.158E+00  0.158E+00
  -1.606  0.154E+00  0.154E+00
  -1.596  0.150E+00  0.150E+00
  -1.586  0.146E+00  0.146E+00
  -1.576  0.141E+00  0.141E+00
  -1.566  0.137E+00  0.137E+00
  -1.556  0.133E+00  0.133E+00
  -1.546  0.129E+00  0.129E+00
  -1.536  0.125E+00  0.125E+00
  -1.526  0.121E+00  0.121E+00
  -1.516  0.117E+00  0.117E+00
  -1.506  0.113E+00  0.113E+00
  -1.496  0.108E+00  0.108E+00
  -1.486  0.104E+00  0.104E+00
  -1.476  0.100E+00  0.100E+00
  -1.466  0.965E-01  0.965E-01
  -1.456  0.925E-01  0.925E-01
  -1.446  0.886E-01  0.886E-01
  -1.436  0.848E-01  0.848E-01
  -1.426  0.810E-01  0.810E-01
  -1.416  0.773E-01  0.773E-01
  -1.406  0.736E-01  0.736E-01
  -1.396  0.700E-01  0.700E-01
  -1.386  0.664E-01  0.664E-01
  -1.376  0.630E-01  0.630E-01
  -1.366  0.595E-01  0.595E-01
  -1.356  0.562E-01  0.562E-01
  -1.346  0.529E-01  0.529E-01
  -1.336  0.497E-01  0.497E-01
  -1.326  0.466E-01  0.466E-01
  -1.316  0.436E-01  0.436E-01
  -1.306  0.406E-01  0.406E-01
  -1.296  0.377E-01  0.377E-01
  -1.286  0.349E-01  0.349E-01
  -1.276  0.322E-01  0.322E-01
  -1.266  0.296E-01  0.296E-01
  -1.256  0.270E-01  0.270E-01
  -1.246  0.245E-01  0.245E-01
  -1.236  0.221E-01  0.221E-01
  -1.226  0.198E-01  0.198E-01
  -1.216  0.176E-01  0.176E-01
  -1.206  0.155E-01  0.155E-01
  -1.196  0.134E-01  0.134E-01
  -1.186  0.115E-01  0.115E-01
  -1.176  0.961E-02  0.961E-02
  -1.166  0.782E-02  0.782E-02
  -1.156  0.611E-02  0.611E-02
  -1.146  0.448E-02  0.448E-02
  -1.136  0.294E-02  0.294E-02
  -1.126  0.148E-02  0.148E-02
  -1.116  0.993E-04  0.993E-04
  -1.106 -0.120E-02 -0.120E-02
  -1.096 -0.242E-02 -0.242E-02
  -1.086 -0.356E-02 -0.356E-02
  -1.076 -0.462E-02 -0.462E-02
  -1.066 -0.560E-02 -0.560E-02
  -1.056 -0.651E-02 -0.651E-02
  -1.046 -0.734E-02 -0.734E-02
  -1.036 -0.810E-02 -0.810E-02
  -1.026 -0.878E-02 -0.878E-02
  -1.016 -0.939E-02 -0.939E-02
  -1.006 -0.993E-02 -0.993E-02
  -0.996 -0.104E-01 -0.104E-01
  -0.986 -0.108E-01 -0.108E-01
  -0.976 -0.111E-01 -0.111E-01
  -0.966 -0.114E-01 -0.114E-01
  -0.956 -0.116E-01 -0.116E-01
  -0.946 -0.117E-01 -0.117E-01
  -0.936 -0.117E-01 -0.117E-01
  -0.926 -0.117E-01 -0.117E-01
  -0.916 -0.116E-01 -0.116E-01
  -0.906 -0.115E-01 -0.115E-01
  -0.896 -0.113E-01 -0.113E-01
  -0.886 -0.110E-01 -0.110E-01
  -0.876 -0.107E-01 -0.107E-01
  -0.866 -0.103E-01 -0.103E-01
  -0.856 -0.983E-02 -0.983E-02
  -0.846 -0.931E-02 -0.931E-02
  -0.836 -0.873E-02 -0.873E-02
  -0.826 -0.809E-02 -0.809E-02
  -0.816 -0.738E-02 -0.738E-02
  -0.806 -0.662E-02 -0.662E-02
  -0.796 -0.580E-02 -0.580E-02
  -0.786 -0.491E-02 -0.491E-02
  -0.776 -0.397E-02 -0.397E-02
  -0.766 -0.297E-02 -0.297E-02
  -0.756 -0.190E-02 -0.190E-02
  -0.746 -0.781E-03 -0.781E-03
  -0.736  0.400E-03  0.400E-03
  -0.726  0.164E-02  0.164E-02
  -0.716  0.294E-02  0.294E-02
  -0.706  0.430E-02  0.430E-02
  -0.696  0.571E-02  0.571E-02
  -0.686  0.719E-02  0.719E-02
  -0.676  0.872E-02  0.872E-02
  -0.666  0.103E-01  0.103E-01
  -0.656  0.120E-01  0.120E-01
  -0.646  0.137E-01  0.137E-01
  -0.636  0.154E-01  0.154E-01
  -0.626  0.172E-01  0.172E-01
  -0.616  0.191E-01  0.191E-01
  -0.606  0.211E-01  0.211E-01
  -0.596  0.230E-01  0.230E-01
  -0.586  0.251E-01  0.251E-01
  -0.576  0.272E-01  0.272E-01
  -0.566  0.293E-01  0.293E-01
  -0.556  0.315E-01  0.315E-01
  -0.546  0.338E-01  0.338E-01
  -0.536  0.361E-01  0.361E-01
  -0.526  0.385E-01  0.385E-01
  -0.516  0.409E-01  0.409E-01
  -0.506  0.433E-01  0.433E-01
  -0.496  0.458E-01  0.458E-01
  -0.486  0.484E-01  0.484E-01
  -0.476  0.510E-01  0.510E-01
  -0.466  0.536E-01  0.536E-01
  -0.456  0.563E-01  0.563E-01
  -0.446  0.590E-01  0.590E-01
  -0.436  0.618E-01  0.618E-01
  -0.426  0.646E-01  0.646E-01
  -0.416  0.674E-01  0.674E-01
  -0.406  0.703E-01  0.703E-01
  -0.396  0.732E-01  0.732E-01
  -0.386  0.761E-01  0.761E-01
  -0.376  0.791E-01  0.791E-01
  -0.366  0.821E-01  0.821E-01
  -0.356  0.851E-01  0.851E-01
  -0.346  0.881E-01  0.881E-01
  -0.336  0.911E-01  0.911E-01
  -0.326  0.942E-01  0.942E-01
  -0.316  0.972E-01  0.972E-01
  -0.306  0.100E+00  0.100E+00
  -0.296  0.103E+00  0.103E+00
  -0.286  0.106E+00  0.106E+00
  -0.276  0.110E+00  0.110E+00
  -0.266  0.113E+00  0.113E+00
  -0.256  0.116E+00  0.116E+00
  -0.246  0.119E+00  0.119E+00
  -0.236  0.122E+00  0.122E+00
  -0.226  0.125E+00  0.125E+00
  -0.216  0.128E+00  0.128E+00
  -0.206  0.131E+00  0.131E+00
  -0.196  0.134E+00  0.134E+00
  -0.186  0.137E+00  0.137E+00
  -0.176  0.140E+00  0.140E+00
  -0.166  0.142E+00  0.142E+00
  -0.156  0.145E+00  0.145E+00
  -0.146  0.148E+00  0.148E+00
  -0.136  0.151E+00  0.151E+00
  -0.126  0.153E+00  0.153E+00
  -0.116  0.156E+00  0.156E+00
  -0.106  0.158E+00  0.158E+00
  -0.096  0.161E+00  0.161E+00
  -0.086  0.163E+00  0.163E+00
  -0.076  0.166E+00  0.166E+00
  -0.066  0.168E+00  0.168E+00
  -0.056  0.170E+00  0.170E+00
  -0.046  0.172E+00  0.172E+00
  -0.036  0.174E+00  0.174E+00
  -0.026  0.176E+00  0.176E+00
  -0.016  0.178E+00  0.178E+00
  -0.006  0.180E+00  0.180E+00
   0.004  0.182E+00  0.182E+00
   0.014  0.183E+00  0.183E+00
   0.024  0.185E+00  0.185E+00
   0.034  0.186E+00  0.186E+00
   0.044  0.187E+00  0.187E+00
   0.054  0.189E+00  0.189E+00
   0.064  0.190E+00  0.190E+00
   0.074  0.191E+00  0.191E+00
   0.084  0.191E+00  0.191E+00
   0.094  0.192E+00  0.192E+00
   0.104  0.193E+00  0.193E+00
   0.114  0.193E+00  0.193E+00
   0.124  0.194E+00  0.194E+00
   0.134  0.194E+00  0.194E+00
   0.144  0.194E+00  0.194E+00
   0.154  0.194E+00  0.194E+00
   0.164  0.194E+00  0.194E+00
   0.174  0.194E+00  0.194E+00
   0.184  0.194E+00  0.194E+00
   0.194  0.193E+00  0.193E+00
   0.204  0.193E+00  0.193E+00
   0.214  0.192E+00  0.192E+00
   0.224  0.192E+00  0.192E+00
   0.234  0.191E+00  0.191E+00
   0.244  0.190E+00  0.190E+00
   0.254  0.189E+00  0.189E+00
   0.264  0.188E+00  0.188E+00
   0.274  0.186E+00  0.186E+00
   0.284  0.185E+00  0.185E+00
   0.294  0.184E+00  0.184E+00
   0.304  0.182E+00  0.182E+00
   0.314  0.180E+00  0.180E+00
   0.324  0.179E+00  0.179E+00
   0.334  0.177E+00  0.177E+00
   0.344  0.175E+00  0.175E+00
   0.354  0.173E+00  0.173E+00
   0.364  0.171E+00  0.171E+00
   0.374  0.169E+00  0.169E+00
   0.384  0.167E+00  0.167E+00
   0.394  0.164E+00  0.164E+00
   0.404  0.162E+00  0.162E+00
   0.414  0.160E+00  0.160E+00
   0.424  0.157E+00  0.157E+00
   0.434  0.154E+00  0.154E+00
   0.444  0.152E+00  0.152E+00
   0.454  0.149E+00  0.149E+00
   0.464  0.147E+00  0.147E+00
   0.474  0.144E+00  0.144E+00
   0.484  0.141E+00  0.141E+00
   0.494  0.138E+00  0.138E+00
   0.504  0.136E+00  0.136E+00
   0.514  0.133E+00  0.133E+00
   0.524  0.130E+00  0.130E+00
   0.534  0.127E+00  0.127E+00
   0.544  0.124E+00  0.124E+00
   0.554  0.121E+00  0.121E+00
   0.564  0.118E+00  0.118E+00
   0.574  0.115E+00  0.115E+00
   0.584  0.112E+00  0.112E+00
   0.594  0.110E+00  0.110E+00
   0.604  0.107E+00  0.107E+00
   0.614  0.104E+00  0.104E+00
   0.624  0.101E+00  0.101E+00
   0.634  0.981E-01  0.981E-01
   0.644  0.953E-01  0.953E-01
   0.654  0.925E-01  0.925E-01
   0.664  0.897E-01  0.897E-01
   0.674  0.870E-01  0.870E-01
   0.684  0.843E-01  0.843E-01
   0.694  0.817E-01  0.817E-01
   0.704  0.791E-01  0.791E-01
   0.714  0.765E-01  0.765E-01
   0.724  0.739E-01  0.739E-01
   0.734  0.715E-01  0.715E-01
   0.744  0.690E-01  0.690E-01
   0.754  0.666E-01  0.666E-01
   0.764  0.643E-01  0.643E-01
   0.774  0.620E-01  0.620E-01
   0.784  0.598E-01  0.598E-01
   0.794  0.576E-01  0.576E-01
   0.804  0.555E-01  0.555E-01
   0.814  0.535E-01  0.535E-01
   0.824  0.515E-01  0.515E-01
   0.834  0.495E-01  0.495E-01
   0.844  0.476E-01  0.476E-01
   0.854  0.458E-01  0.458E-01
   0.864  0.441E-01  0.441E-01
   0.874  0.424E-01  0.424E-01
   0.884  0.408E-01  0.408E-01
   0.894  0.392E-01  0.392E-01
   0.904  0.377E-01  0.377E-01
   0.914  0.362E-01  0.362E-01
   0.924  0.348E-01  0.348E-01
   0.934  0.335E-01  0.335E-01
   0.944  0.323E-01  0.323E-01
   0.954  0.310E-01  0.310E-01
   0.964  0.299E-01  0.299E-01
   0.974  0.288E-01  0.288E-01
   0.984  0.278E-01  0.278E-01
   0.994  0.268E-01  0.268E-01
   1.004  0.259E-01  0.259E-01
   1.014  0.250E-01  0.250E-01
   1.024  0.242E-01  0.242E-01
   1.034  0.234E-01  0.234E-01
   1.044  0.227E-01  0.227E-01
   1.054  0.220E-01  0.220E-01
   1.064  0.214E-01  0.214E-01
   1.074  0.208E-01  0.208E-01
   1.084  0.203E-01  0.203E-01
   1.094  0.198E-01  0.198E-01
   1.104  0.194E-01  0.194E-01
   1.114  0.190E-01  0.190E-01
   1.124  0.186E-01  0.186E-01
   1.134  0.183E-01  0.183E-01
   1.144  0.180E-01  0.180E-01
   1.154  0.177E-01  0.177E-01
   1.164  0.175E-01  0.175E-01
   1.174  0.173E-01  0.173E-01
   1.184  0.171E-01  0.171E-01
   1.194  0.170E-01  0.170E-01
   1.204  0.168E-01  0.168E-01
   1.214  0.167E-01  0.167E-01
   1.224  0.167E-01  0.167E-01
   1.234  0.166E-01  0.166E-01
   1.244  0.166E-01  0.166E-01
   1.254  0.166E-01  0.166E-01
   1.264  0.166E-01  0.166E-01
   1.274  0.166E-01  0.166E-01
   1.284  0.166E-01  0.166E-01
   1.294  0.167E-01  0.167E-01
   1.304  0.167E-01  0.167E-01
   1.314  0.168E-01  0.168E-01
   1.324  0.169E-01  0.169E-01
   1.334  0.170E-01  0.170E-01
   1.344  0.171E-01  0.171E-01
   1.354  0.172E-01  0.172E-01
   1.364  0.173E-01  0.173E-01
   1.374  0.174E-01  0.174E-01
   1.384  0.175E-01  0.175E-01
   1.394  0.177E-01  0.177E-01
   1.404  0.178E-01  0.178E-01
   1.414  0.179E-01  0.179E-01
   1.424  0.181E-01  0.181E-01
   1.434  0.182E-01  0.182E-01
   1.444  0.183E-01  0.183E-01
   1.454  0.185E-01  0.185E-01
   1.464  0.186E-01  0.186E-01
   1.474  0.188E-01  0.188E-01
   1.484  0.189E-01  0.189E-01
   1.494  0.190E-01  0.190E-01
   1.504  0.192E-01  0.192E-01
   1.514  0.193E-01  0.193E-01
   1.524  0.195E-01  0.195E-01
   1.534  0.196E-01  0.196E-01
   1.544  0.197E-01  0.197E-01
   1.554  0.199E-01  0.199E-01
   1.564  0.200E-01  0.200E-01
   1.574  0.201E-01  0.201E-01
   1.584  0.203E-01  0.203E-01
   1.594  0.204E-01  0.204E-01
   1.604  0.206E-01  0.206E-01
   1.614  0.207E-01  0.207E-01
   1.624  0.208E-01  0.208E-01
   1.634  0.210E-01  0.210E-01
   1.644  0.211E-01  0.211E-01
   1.654  0.213E-01  0.213E-01
   1.664  0.214E-01  0.214E-01
   1.674  0.216E-01  0.216E-01
   1.684  0.218E-01  0.218E-01
   1.694  0.220E-01  0.220E-01
   1.704  0.221E-01  0.221E-01
   1.714  0.223E-01  0.223E-01
   1.724  0.225E-01  0.225E-01
   1.734  0.227E-01  0.227E-01
   1.744  0.229E-01  0.229E-01
   1.754  0.232E-01  0.232E-01
   1.764  0.234E-01  0.234E-01
   1.774  0.236E-01  0.236E-01
   1.784  0.239E-01  0.239E-01
   1.794  0.242E-01  0.242E-01
   1.804  0.245E-01  0.245E-01
   1.814  0.248E-01  0.248E-01
   1.824  0.251E-01  0.251E-01
   1.834  0.254E-01  0.254E-01
   1.844  0.258E-01  0.258E-01
   1.854  0.262E-01  0.262E-01
   1.864  0.266E-01  0.266E-01
   1.874  0.270E-01  0.270E-01
   1.884  0.274E-01  0.274E-01
   1.894  0.279E-01  0.279E-01
   1.904  0.284E-01  0.284E-01
   1.914  0.289E-01  0.289E-01
   1.924  0.294E-01  0.294E-01
   1.934  0.300E-01  0.300E-01
   1.944  0.306E-01  0.306E-01
   1.954  0.312E-01  0.312E-01
   1.964  0.319E-01  0.319E-01
   1.974  0.325E-01  0.325E-01
   1.984  0.333E-01  0.333E-01
   1.994  0.340E-01  0.340E-01
   2.004  0.348E-01  0.348E-01
   2.014  0.356E-01  0.356E-01
   2.024  0.364E-01  0.364E-01
   2.034  0.373E-01  0.373E-01
   2.044  0.382E-01  0.382E-01
   2.054  0.391E-01  0.391E-01
   2.064  0.401E-01  0.401E-01
   2.074  0.411E-01  0.411E-01
   2.084  0.421E-01  0.421E-01
   2.094  0.432E-01  0.432E-01
   2.104  0.443E-01  0.443E-01
   2.114  0.455E-01  0.455E-01
   2.124  0.467E-01  0.467E-01
   2.134  0.479E-01  0.479E-01
   2.144  0.491E-01  0.491E-01
   2.154  0.504E-01  0.504E-01
   2.164  0.518E-01  0.518E-01
   2.174  0.531E-01  0.531E-01
   2.184  0.545E-01  0.545E-01
   2.194  0.559E-01  0.559E-01
   2.204  0.574E-01  0.574E-01
   2.214  0.589E-01  0.589E-01
   2.224  0.604E-01  0.604E-01
   2.234  0.620E-01  0.620E-01
   2.244  0.636E-01  0.636E-01
   2.254  0.652E-01  0.652E-01
   2.264  0.668E-01  0.668E-01
   2.274  0.685E-01  0.685E-01
   2.284  0.702E-01  0.702E-01
   2.294  0.719E-01  0.719E-01
   2.304  0.737E-01  0.737E-01
   2.314  0.754E-01  0.754E-01
   2.324  0.772E-01  0.772E-01
   2.334  0.790E-01  0.790E-01
   2.344  0.809E-01  0.809E-01
   2.354  0.827E-01  0.827E-01
   2.364  0.846E-01  0.846E-01
   2.374  0.864E-01  0.864E-01
   2.384  0.883E-01  0.883E-01
   2.394  0.902E-01  0.902E-01
   2.404  0.921E-01  0.921E-01
   2.414  0.940E-01  0.940E-01
   2.424  0.959E-01  0.959E-01
   2.434  0.978E-01  0.978E-01
   2.444  0.997E-01  0.997E-01
   2.454  0.102E+00  0.102E+00
   2.464  0.103E+00  0.103E+00
   2.474  0.105E+00  0.105E+00
   2.484  0.107E+00  0.107E+00
   2.494  0.109E+00  0.109E+00
   2.504  0.111E+00  0.111E+00
   2.514  0.113E+00  0.113E+00
   2.524  0.114E+00  0.114E+00
   2.534  0.116E+00  0.116E+00
   2.544  0.118E+00  0.118E+00
   2.554  0.120E+00  0.120E+00
   2.564  0.121E+00  0.121E+00
   2.574  0.123E+00  0.123E+00
   2.584  0.124E+00  0.124E+00
   2.594  0.126E+00  0.126E+00
   2.604  0.128E+00  0.128E+00
   2.614  0.129E+00  0.129E+00
   2.624  0.130E+00  0.130E+00
   2.634  0.132E+00  0.132E+00
   2.644  0.133E+00  0.133E+00
   2.654  0.134E+00  0.134E+00
   2.664  0.136E+00  0.136E+00
   2.674  0.137E+00  0.137E+00
   2.684  0.138E+00  0.138E+00
   2.694  0.139E+00  0.139E+00
   2.704  0.140E+00  0.140E+00
   2.714  0.141E+00  0.141E+00
   2.724  0.141E+00  0.141E+00
   2.734  0.142E+00  0.142E+00
   2.744  0.143E+00  0.143E+00
   2.754  0.144E+00  0.144E+00
   2.764  0.144E+00  0.144E+00
   2.774  0.145E+00  0.145E+00
   2.784  0.145E+00  0.145E+00
   2.794  0.145E+00  0.145E+00
   2.804  0.145E+00  0.145E+00
   2.814  0.146E+00  0.146E+00
   2.824  0.146E+00  0.146E+00
   2.834  0.146E+00  0.146E+00
   2.844  0.146E+00  0.146E+00
   2.854  0.145E+00  0.145E+00
   2.864  0.145E+00  0.145E+00
   2.874  0.145E+00  0.145E+00
   2.884  0.145E+00  0.145E+00
   2.894  0.144E+00  0.144E+00
   2.904  0.143E+00  0.143E+00
   2.914  0.143E+00  0.143E+00
   2.924  0.142E+00  0.142E+00
   2.934  0.141E+00  0.141E+00
   2.944  0.140E+00  0.140E+00
   2.954  0.140E+00  0.140E+00
   2.964  0.138E+00  0.138E+00
   2.974  0.137E+00  0.137E+00
   2.984  0.136E+00  0.136E+00
   2.994  0.135E+00  0.135E+00
   3.004  0.134E+00  0.134E+00
   3.014  0.132E+00  0.132E+00
   3.024  0.131E+00  0.131E+00
   3.034  0.129E+00  0.129E+00
   3.044  0.128E+00  0.128E+00
   3.054  0.126E+00  0.126E+00
   3.064  0.124E+00  0.124E+00
   3.074  0.123E+00  0.123E+00
   3.084  0.121E+00  0.121E+00
   3.094  0.119E+00  0.119E+00
   3.104  0.117E+00  0.117E+00
   3.114  0.115E+00  0.115E+00
   3.124  0.113E+00  0.113E+00
   3.134  0.111E+00  0.111E+00
   3.144  0.109E+00  0.109E+00
   3.154  0.107E+00  0.107E+00
   3.164  0.105E+00  0.105E+00
   3.174  0.103E+00  0.103E+00
   3.184  0.101E+00  0.101E+00
   3.194  0.985E-01  0.985E-01
   3.204  0.963E-01  0.963E-01
   3.214  0.940E-01  0.940E-01
   3.224  0.918E-01  0.918E-01
   3.234  0.895E-01  0.895E-01
   3.244  0.872E-01  0.872E-01
   3.254  0.849E-01  0.849E-01
   3.264  0.826E-01  0.826E-01
   3.274  0.803E-01  0.803E-01
   3.284  0.780E-01  0.780E-01
   3.294  0.757E-01  0.757E-01
   3.304  0.734E-01  0.734E-01
   3.314  0.711E-01  0.711E-01
   3.324  0.688E-01  0.688E-01
   3.334  0.666E-01  0.666E-01
   3.344  0.643E-01  0.643E-01
   3.354  0.621E-01  0.621E-01
   3.364  0.598E-01  0.598E-01
   3.374  0.576E-01  0.576E-01
   3.384  0.555E-01  0.555E-01
   3.394  0.533E-01  0.533E-01
   3.404  0.512E-01  0.512E-01
   3.414  0.491E-01  0.491E-01
   3.424  0.470E-01  0.470E-01
   3.434  0.450E-01  0.450E-01
   3.444  0.430E-01  0.430E-01
   3.454  0.410E-01  0.410E-01
   3.464  0.391E-01  0.391E-01
   3.474  0.372E-01  0.372E-01
   3.484  0.353E-01  0.353E-01
   3.494  0.335E-01  0.335E-01
   3.504  0.317E-01  0.317E-01
   3.514  0.300E-01  0.300E-01
   3.524  0.283E-01  0.283E-01
   3.534  0.266E-01  0.266E-01
   3.544  0.250E-01  0.250E-01
   3.554  0.234E-01  0.234E-01
   3.564  0.219E-01  0.219E-01
   3.574  0.204E-01  0.204E-01
   3.584  0.190E-01  0.190E-01
   3.594  0.176E-01  0.176E-01
   3.604  0.162E-01  0.162E-01
   3.614  0.149E-01  0.149E-01
   3.624  0.137E-01  0.137E-01
   3.634  0.125E-01  0.125E-01
   3.644  0.113E-01  0.113E-01
   3.654  0.102E-01  0.102E-01
   3.664  0.908E-02  0.908E-02
   3.674  0.804E-02  0.804E-02
   3.684  0.704E-02  0.704E-02
   3.694  0.609E-02  0.609E-02
   3.704  0.518E-02  0.518E-02
   3.714  0.432E-02  0.432E-02
   3.724  0.349E-02  0.349E-02
   3.734  0.270E-02  0.270E-02
   3.744  0.196E-02  0.196E-02
   3.754  0.125E-02  0.125E-02
   3.764  0.581E-03  0.581E-03
   3.774 -0.507E-04 -0.507E-04
   3.784 -0.646E-03 -0.646E-03
   3.794 -0.121E-02 -0.121E-02
   3.804 -0.173E-02 -0.173E-02
   3.814 -0.222E-02 -0.222E-02
   3.824 -0.268E-02 -0.268E-02
   3.834 -0.311E-02 -0.311E-02
   3.844 -0.350E-02 -0.350E-02
   3.854 -0.387E-02 -0.387E-02
   3.864 -0.421E-02 -0.421E-02
   3.874 -0.451E-02 -0.451E-02
   3.884 -0.480E-02 -0.480E-02
   3.894 -0.505E-02 -0.505E-02
   3.904 -0.528E-02 -0.528E-02
   3.914 -0.549E-02 -0.549E-02
   3.924 -0.567E-02 -0.567E-02
   3.934 -0.584E-02 -0.584E-02
   3.944 -0.598E-02 -0.598E-02
   3.954 -0.610E-02 -0.610E-02
   3.964 -0.620E-02 -0.620E-02
   3.974 -0.628E-02 -0.628E-02
   3.984 -0.635E-02 -0.635E-02
   3.994 -0.640E-02 -0.640E-02
   4.004 -0.643E-02 -0.643E-02
   4.014 -0.645E-02 -0.645E-02
   4.024 -0.646E-02 -0.646E-02
   4.034 -0.645E-02 -0.645E-02
   4.044 -0.643E-02 -0.643E-02
   4.054 -0.640E-02 -0.640E-02
   4.064 -0.636E-02 -0.636E-02
   4.074 -0.631E-02 -0.631E-02
   4.084 -0.625E-02 -0.625E-02
   4.094 -0.618E-02 -0.618E-02
   4.104 -0.611E-02 -0.611E-02
   4.114 -0.603E-02 -0.603E-02
   4.124 -0.594E-02 -0.594E-02
   4.134 -0.584E-02 -0.584E-02
   4.144 -0.574E-02 -0.574E-02
   4.154 -0.564E-02 -0.564E-02
   4.164 -0.553E-02 -0.553E-02
   4.174 -0.542E-02 -0.542E-02
   4.184 -0.530E-02 -0.530E-02
   4.194 -0.518E-02 -0.518E-02
   4.204 -0.506E-02 -0.506E-02
   4.214 -0.494E-02 -0.494E-02
   4.224 -0.481E-02 -0.481E-02
   4.234 -0.469E-02 -0.469E-02
   4.244 -0.456E-02 -0.456E-02
   4.254 -0.444E-02 -0.444E-02
   4.264 -0.431E-02 -0.431E-02
   4.274 -0.418E-02 -0.418E-02
   4.284 -0.406E-02 -0.406E-02
   4.294 -0.393E-02 -0.393E-02
   4.304 -0.381E-02 -0.381E-02
   4.314 -0.369E-02 -0.369E-02
   4.324 -0.356E-02 -0.356E-02
   4.334 -0.344E-02 -0.344E-02
   4.344 -0.333E-02 -0.333E-02
   4.354 -0.321E-02 -0.321E-02
   4.364 -0.309E-02 -0.309E-02
   4.374 -0.298E-02 -0.298E-02
   4.384 -0.287E-02 -0.287E-02
   4.394 -0.276E-02 -0.276E-02
   4.404 -0.266E-02 -0.266E-02
   4.414 -0.255E-02 -0.255E-02
   4.424 -0.245E-02 -0.245E-02
   4.434 -0.235E-02 -0.235E-02
   4.444 -0.226E-02 -0.226E-02
   4.454 -0.216E-02 -0.216E-02
   4.464 -0.207E-02 -0.207E-02
   4.474 -0.198E-02 -0.198E-02
   4.484 -0.190E-02 -0.190E-02
   4.494 -0.181E-02 -0.181E-02
   4.504 -0.173E-02 -0.173E-02
   4.514 -0.166E-02 -0.166E-02
   4.524 -0.158E-02 -0.158E-02
   4.534 -0.151E-02 -0.151E-02
   4.544 -0.144E-02 -0.144E-02
   4.554 -0.137E-02 -0.137E-02
   4.564 -0.131E-02 -0.131E-02
   4.574 -0.124E-02 -0.124E-02
   4.584 -0.118E-02 -0.118E-02
   4.594 -0.112E-02 -0.112E-02
   4.604 -0.107E-02 -0.107E-02
   4.614 -0.101E-02 -0.101E-02
   4.624 -0.962E-03 -0.962E-03
   4.634 -0.913E-03 -0.913E-03
   4.644 -0.866E-03 -0.866E-03
   4.654 -0.820E-03 -0.820E-03
   4.664 -0.777E-03 -0.777E-03
   4.674 -0.736E-03 -0.736E-03
   4.684 -0.696E-03 -0.696E-03
   4.694 -0.658E-03 -0.658E-03
   4.704 -0.622E-03 -0.622E-03
   4.714 -0.588E-03 -0.588E-03
   4.724 -0.555E-03 -0.555E-03
   4.734 -0.524E-03 -0.524E-03
   4.744 -0.494E-03 -0.494E-03
   4.754 -0.466E-03 -0.466E-03
   4.764 -0.439E-03 -0.439E-03
   4.774 -0.413E-03 -0.413E-03
   4.784 -0.389E-03 -0.389E-03
   4.794 -0.366E-03 -0.366E-03
   4.804 -0.344E-03 -0.344E-03
   4.814 -0.324E-03 -0.324E-03
   4.824 -0.304E-03 -0.304E-03
   4.834 -0.286E-03 -0.286E-03
   4.844 -0.268E-03 -0.268E-03
   4.854 -0.251E-03 -0.251E-03
   4.864 -0.236E-03 -0.236E-03
   4.874 -0.221E-03 -0.221E-03
   4.884 -0.207E-03 -0.207E-03
   4.894 -0.194E-03 -0.194E-03
   4.904 -0.181E-03 -0.181E-03
   4.914 -0.170E-03 -0.170E-03
   4.924 -0.159E-03 -0.159E-03
   4.934 -0.148E-03 -0.148E-03
   4.944 -0.138E-03 -0.138E-03
   4.954 -0.129E-03 -0.129E-03
   4.964 -0.121E-03 -0.121E-03
   4.974 -0.113E-03 -0.113E-03
   4.984 -0.105E-03 -0.105E-03
   4.994 -0.978E-04 -0.978E-04
   5.004 -0.911E-04 -0.911E-04
   5.014 -0.848E-04 -0.848E-04
   5.024 -0.789E-04 -0.789E-04
   5.034 -0.734E-04 -0.734E-04
   5.044 -0.682E-04 -0.682E-04
   5.054 -0.634E-04 -0.634E-04
   5.064 -0.589E-04 -0.589E-04
   5.074 -0.547E-04 -0.547E-04
   5.084 -0.508E-04 -0.508E-04
   5.094 -0.471E-04 -0.471E-04
   5.104 -0.436E-04 -0.436E-04
   5.114 -0.404E-04 -0.404E-04
   5.124 -0.375E-04 -0.375E-04
   5.134 -0.347E-04 -0.347E-04
   5.144 -0.321E-04 -0.321E-04
   5.154 -0.297E-04 -0.297E-04
   5.164 -0.275E-04 -0.275E-04
   5.174 -0.254E-04 -0.254E-04
   5.184 -0.234E-04 -0.234E-04
   5.194 -0.216E-04 -0.216E-04
   5.204 -0.200E-04 -0.200E-04
   5.214 -0.184E-04 -0.184E-04
   5.224 -0.170E-04 -0.170E-04
   5.234 -0.157E-04 -0.157E-04
   5.244 -0.144E-04 -0.144E-04
   5.254 -0.133E-04 -0.133E-04
   5.264 -0.122E-04 -0.122E-04
   5.274 -0.113E-04 -0.113E-04
   5.284 -0.104E-04 -0.104E-04
   5.294 -0.951E-05 -0.951E-05
