# E (eV)   ldos(E)   pdos(E)   
 -27.116 -0.558E-06 -0.558E-06
 -27.106 -0.602E-06 -0.602E-06
 -27.096 -0.649E-06 -0.649E-06
 -27.086 -0.700E-06 -0.700E-06
 -27.076 -0.754E-06 -0.754E-06
 -27.066 -0.812E-06 -0.812E-06
 -27.056 -0.874E-06 -0.874E-06
 -27.046 -0.941E-06 -0.941E-06
 -27.036 -0.101E-05 -0.101E-05
 -27.026 -0.109E-05 -0.109E-05
 -27.016 -0.117E-05 -0.117E-05
 -27.006 -0.125E-05 -0.125E-05
 -26.996 -0.134E-05 -0.134E-05
 -26.986 -0.144E-05 -0.144E-05
 -26.976 -0.155E-05 -0.155E-05
 -26.966 -0.166E-05 -0.166E-05
 -26.956 -0.177E-05 -0.177E-05
 -26.946 -0.190E-05 -0.190E-05
 -26.936 -0.203E-05 -0.203E-05
 -26.926 -0.217E-05 -0.217E-05
 -26.916 -0.232E-05 -0.232E-05
 -26.906 -0.247E-05 -0.247E-05
 -26.896 -0.264E-05 -0.264E-05
 -26.886 -0.282E-05 -0.282E-05
 -26.876 -0.300E-05 -0.300E-05
 -26.866 -0.320E-05 -0.320E-05
 -26.856 -0.341E-05 -0.341E-05
 -26.846 -0.363E-05 -0.363E-05
 -26.836 -0.386E-05 -0.386E-05
 -26.826 -0.410E-05 -0.410E-05
 -26.816 -0.436E-05 -0.436E-05
 -26.806 -0.463E-05 -0.463E-05
 -26.796 -0.491E-05 -0.491E-05
 -26.786 -0.521E-05 -0.521E-05
 -26.776 -0.552E-05 -0.552E-05
 -26.766 -0.585E-05 -0.585E-05
 -26.756 -0.619E-05 -0.619E-05
 -26.746 -0.655E-05 -0.655E-05
 -26.736 -0.693E-05 -0.693E-05
 -26.726 -0.733E-05 -0.733E-05
 -26.716 -0.774E-05 -0.774E-05
 -26.706 -0.817E-05 -0.817E-05
 -26.696 -0.862E-05 -0.862E-05
 -26.686 -0.909E-05 -0.909E-05
 -26.676 -0.958E-05 -0.958E-05
 -26.666 -0.101E-04 -0.101E-04
 -26.656 -0.106E-04 -0.106E-04
 -26.646 -0.112E-04 -0.112E-04
 -26.636 -0.117E-04 -0.117E-04
 -26.626 -0.123E-04 -0.123E-04
 -26.616 -0.129E-04 -0.129E-04
 -26.606 -0.136E-04 -0.136E-04
 -26.596 -0.142E-04 -0.142E-04
 -26.586 -0.149E-04 -0.149E-04
 -26.576 -0.156E-04 -0.156E-04
 -26.566 -0.163E-04 -0.163E-04
 -26.556 -0.171E-04 -0.171E-04
 -26.546 -0.178E-04 -0.178E-04
 -26.536 -0.186E-04 -0.186E-04
 -26.526 -0.194E-04 -0.194E-04
 -26.516 -0.203E-04 -0.203E-04
 -26.506 -0.211E-04 -0.211E-04
 -26.496 -0.220E-04 -0.220E-04
 -26.486 -0.229E-04 -0.229E-04
 -26.476 -0.238E-04 -0.238E-04
 -26.466 -0.247E-04 -0.247E-04
 -26.456 -0.256E-04 -0.256E-04
 -26.446 -0.266E-04 -0.266E-04
 -26.436 -0.276E-04 -0.276E-04
 -26.426 -0.285E-04 -0.285E-04
 -26.416 -0.295E-04 -0.295E-04
 -26.406 -0.305E-04 -0.305E-04
 -26.396 -0.315E-04 -0.315E-04
 -26.386 -0.325E-04 -0.325E-04
 -26.376 -0.336E-04 -0.336E-04
 -26.366 -0.346E-04 -0.346E-04
 -26.356 -0.356E-04 -0.356E-04
 -26.346 -0.366E-04 -0.366E-04
 -26.336 -0.376E-04 -0.376E-04
 -26.326 -0.386E-04 -0.386E-04
 -26.316 -0.395E-04 -0.395E-04
 -26.306 -0.405E-04 -0.405E-04
 -26.296 -0.414E-04 -0.414E-04
 -26.286 -0.423E-04 -0.423E-04
 -26.276 -0.432E-04 -0.432E-04
 -26.266 -0.440E-04 -0.440E-04
 -26.256 -0.448E-04 -0.448E-04
 -26.246 -0.456E-04 -0.456E-04
 -26.236 -0.463E-04 -0.463E-04
 -26.226 -0.469E-04 -0.469E-04
 -26.216 -0.475E-04 -0.475E-04
 -26.206 -0.480E-04 -0.480E-04
 -26.196 -0.485E-04 -0.485E-04
 -26.186 -0.489E-04 -0.489E-04
 -26.176 -0.491E-04 -0.491E-04
 -26.166 -0.493E-04 -0.493E-04
 -26.156 -0.495E-04 -0.495E-04
 -26.146 -0.495E-04 -0.495E-04
 -26.136 -0.493E-04 -0.493E-04
 -26.126 -0.491E-04 -0.491E-04
 -26.116 -0.488E-04 -0.488E-04
 -26.106 -0.483E-04 -0.483E-04
 -26.096 -0.477E-04 -0.477E-04
 -26.086 -0.469E-04 -0.469E-04
 -26.076 -0.460E-04 -0.460E-04
 -26.066 -0.449E-04 -0.449E-04
 -26.056 -0.436E-04 -0.436E-04
 -26.046 -0.422E-04 -0.422E-04
 -26.036 -0.406E-04 -0.406E-04
 -26.026 -0.388E-04 -0.388E-04
 -26.016 -0.367E-04 -0.367E-04
 -26.006 -0.345E-04 -0.345E-04
 -25.996 -0.321E-04 -0.321E-04
 -25.986 -0.294E-04 -0.294E-04
 -25.976 -0.265E-04 -0.265E-04
 -25.966 -0.233E-04 -0.233E-04
 -25.956 -0.199E-04 -0.199E-04
 -25.946 -0.162E-04 -0.162E-04
 -25.936 -0.123E-04 -0.123E-04
 -25.926 -0.811E-05 -0.811E-05
 -25.916 -0.363E-05 -0.363E-05
 -25.906  0.113E-05  0.113E-05
 -25.896  0.619E-05  0.619E-05
 -25.886  0.115E-04  0.115E-04
 -25.876  0.172E-04  0.172E-04
 -25.866  0.232E-04  0.232E-04
 -25.856  0.295E-04  0.295E-04
 -25.846  0.361E-04  0.361E-04
 -25.836  0.430E-04  0.430E-04
 -25.826  0.502E-04  0.502E-04
 -25.816  0.578E-04  0.578E-04
 -25.806  0.657E-04  0.657E-04
 -25.796  0.740E-04  0.740E-04
 -25.786  0.825E-04  0.825E-04
 -25.776  0.915E-04  0.915E-04
 -25.766  0.101E-03  0.101E-03
 -25.756  0.110E-03  0.110E-03
 -25.746  0.120E-03  0.120E-03
 -25.736  0.130E-03  0.130E-03
 -25.726  0.141E-03  0.141E-03
 -25.716  0.152E-03  0.152E-03
 -25.706  0.163E-03  0.163E-03
 -25.696  0.175E-03  0.175E-03
 -25.686  0.187E-03  0.187E-03
 -25.676  0.199E-03  0.199E-03
 -25.666  0.211E-03  0.211E-03
 -25.656  0.224E-03  0.224E-03
 -25.646  0.237E-03  0.237E-03
 -25.636  0.251E-03  0.251E-03
 -25.626  0.264E-03  0.264E-03
 -25.616  0.278E-03  0.278E-03
 -25.606  0.292E-03  0.292E-03
 -25.596  0.306E-03  0.306E-03
 -25.586  0.321E-03  0.321E-03
 -25.576  0.336E-03  0.336E-03
 -25.566  0.351E-03  0.351E-03
 -25.556  0.366E-03  0.366E-03
 -25.546  0.381E-03  0.381E-03
 -25.536  0.396E-03  0.396E-03
 -25.526  0.412E-03  0.412E-03
 -25.516  0.428E-03  0.428E-03
 -25.506  0.443E-03  0.443E-03
 -25.496  0.459E-03  0.459E-03
 -25.486  0.475E-03  0.475E-03
 -25.476  0.491E-03  0.491E-03
 -25.466  0.507E-03  0.507E-03
 -25.456  0.523E-03  0.523E-03
 -25.446  0.539E-03  0.539E-03
 -25.436  0.554E-03  0.554E-03
 -25.426  0.570E-03  0.570E-03
 -25.416  0.586E-03  0.586E-03
 -25.406  0.601E-03  0.601E-03
 -25.396  0.616E-03  0.616E-03
 -25.386  0.632E-03  0.632E-03
 -25.376  0.646E-03  0.646E-03
 -25.366  0.661E-03  0.661E-03
 -25.356  0.676E-03  0.676E-03
 -25.346  0.690E-03  0.690E-03
 -25.336  0.704E-03  0.704E-03
 -25.326  0.718E-03  0.718E-03
 -25.316  0.731E-03  0.731E-03
 -25.306  0.744E-03  0.744E-03
 -25.296  0.756E-03  0.756E-03
 -25.286  0.769E-03  0.769E-03
 -25.276  0.780E-03  0.780E-03
 -25.266  0.792E-03  0.792E-03
 -25.256  0.803E-03  0.803E-03
 -25.246  0.813E-03  0.813E-03
 -25.236  0.823E-03  0.823E-03
 -25.226  0.832E-03  0.832E-03
 -25.216  0.841E-03  0.841E-03
 -25.206  0.850E-03  0.850E-03
 -25.196  0.857E-03  0.857E-03
 -25.186  0.865E-03  0.865E-03
 -25.176  0.871E-03  0.871E-03
 -25.166  0.877E-03  0.877E-03
 -25.156  0.883E-03  0.883E-03
 -25.146  0.888E-03  0.888E-03
 -25.136  0.892E-03  0.892E-03
 -25.126  0.896E-03  0.896E-03
 -25.116  0.899E-03  0.899E-03
 -25.106  0.901E-03  0.901E-03
 -25.096  0.903E-03  0.903E-03
 -25.086  0.904E-03  0.904E-03
 -25.076  0.904E-03  0.904E-03
 -25.066  0.904E-03  0.904E-03
 -25.056  0.903E-03  0.903E-03
 -25.046  0.901E-03  0.901E-03
 -25.036  0.899E-03  0.899E-03
 -25.026  0.896E-03  0.896E-03
 -25.016  0.893E-03  0.893E-03
 -25.006  0.889E-03  0.889E-03
 -24.996  0.884E-03  0.884E-03
 -24.986  0.878E-03  0.878E-03
 -24.976  0.872E-03  0.872E-03
 -24.966  0.866E-03  0.866E-03
 -24.956  0.859E-03  0.859E-03
 -24.946  0.851E-03  0.851E-03
 -24.936  0.843E-03  0.843E-03
 -24.926  0.834E-03  0.834E-03
 -24.916  0.825E-03  0.825E-03
 -24.906  0.815E-03  0.815E-03
 -24.896  0.804E-03  0.804E-03
 -24.886  0.794E-03  0.794E-03
 -24.876  0.782E-03  0.782E-03
 -24.866  0.771E-03  0.771E-03
 -24.856  0.759E-03  0.759E-03
 -24.846  0.746E-03  0.746E-03
 -24.836  0.733E-03  0.733E-03
 -24.826  0.720E-03  0.720E-03
 -24.816  0.706E-03  0.706E-03
 -24.806  0.692E-03  0.692E-03
 -24.796  0.678E-03  0.678E-03
 -24.786  0.664E-03  0.664E-03
 -24.776  0.649E-03  0.649E-03
 -24.766  0.634E-03  0.634E-03
 -24.756  0.619E-03  0.619E-03
 -24.746  0.604E-03  0.604E-03
 -24.736  0.588E-03  0.588E-03
 -24.726  0.573E-03  0.573E-03
 -24.716  0.557E-03  0.557E-03
 -24.706  0.541E-03  0.541E-03
 -24.696  0.525E-03  0.525E-03
 -24.686  0.510E-03  0.510E-03
 -24.676  0.494E-03  0.494E-03
 -24.666  0.478E-03  0.478E-03
 -24.656  0.462E-03  0.462E-03
 -24.646  0.446E-03  0.446E-03
 -24.636  0.430E-03  0.430E-03
 -24.626  0.415E-03  0.415E-03
 -24.616  0.399E-03  0.399E-03
 -24.606  0.384E-03  0.384E-03
 -24.596  0.368E-03  0.368E-03
 -24.586  0.353E-03  0.353E-03
 -24.576  0.338E-03  0.338E-03
 -24.566  0.323E-03  0.323E-03
 -24.556  0.309E-03  0.309E-03
 -24.546  0.295E-03  0.295E-03
 -24.536  0.280E-03  0.280E-03
 -24.526  0.266E-03  0.266E-03
 -24.516  0.253E-03  0.253E-03
 -24.506  0.239E-03  0.239E-03
 -24.496  0.226E-03  0.226E-03
 -24.486  0.214E-03  0.214E-03
 -24.476  0.201E-03  0.201E-03
 -24.466  0.189E-03  0.189E-03
 -24.456  0.177E-03  0.177E-03
 -24.446  0.165E-03  0.165E-03
 -24.436  0.154E-03  0.154E-03
 -24.426  0.143E-03  0.143E-03
 -24.416  0.132E-03  0.132E-03
 -24.406  0.122E-03  0.122E-03
 -24.396  0.112E-03  0.112E-03
 -24.386  0.102E-03  0.102E-03
 -24.376  0.930E-04  0.930E-04
 -24.366  0.840E-04  0.840E-04
 -24.356  0.754E-04  0.754E-04
 -24.346  0.671E-04  0.671E-04
 -24.336  0.591E-04  0.591E-04
 -24.326  0.515E-04  0.515E-04
 -24.316  0.442E-04  0.442E-04
 -24.306  0.372E-04  0.372E-04
 -24.296  0.306E-04  0.306E-04
 -24.286  0.242E-04  0.242E-04
 -24.276  0.182E-04  0.182E-04
 -24.266  0.125E-04  0.125E-04
 -24.256  0.708E-05  0.708E-05
 -24.246  0.197E-05  0.197E-05
 -24.236 -0.284E-05 -0.284E-05
 -24.226 -0.737E-05 -0.737E-05
 -24.216 -0.116E-04 -0.116E-04
 -24.206 -0.156E-04 -0.156E-04
 -24.196 -0.193E-04 -0.193E-04
 -24.186 -0.227E-04 -0.227E-04
 -24.176 -0.259E-04 -0.259E-04
 -24.166 -0.289E-04 -0.289E-04
 -24.156 -0.316E-04 -0.316E-04
 -24.146 -0.341E-04 -0.341E-04
 -24.136 -0.364E-04 -0.364E-04
 -24.126 -0.384E-04 -0.384E-04
 -24.116 -0.403E-04 -0.403E-04
 -24.106 -0.419E-04 -0.419E-04
 -24.096 -0.434E-04 -0.434E-04
 -24.086 -0.447E-04 -0.447E-04
 -24.076 -0.458E-04 -0.458E-04
 -24.066 -0.468E-04 -0.468E-04
 -24.056 -0.475E-04 -0.475E-04
 -24.046 -0.482E-04 -0.482E-04
 -24.036 -0.487E-04 -0.487E-04
 -24.026 -0.491E-04 -0.491E-04
 -24.016 -0.493E-04 -0.493E-04
 -24.006 -0.494E-04 -0.494E-04
 -23.996 -0.495E-04 -0.495E-04
 -23.986 -0.494E-04 -0.494E-04
 -23.976 -0.492E-04 -0.492E-04
 -23.966 -0.489E-04 -0.489E-04
 -23.956 -0.485E-04 -0.485E-04
 -23.946 -0.481E-04 -0.481E-04
 -23.936 -0.476E-04 -0.476E-04
 -23.926 -0.470E-04 -0.470E-04
 -23.916 -0.464E-04 -0.464E-04
 -23.906 -0.457E-04 -0.457E-04
 -23.896 -0.449E-04 -0.449E-04
 -23.886 -0.442E-04 -0.442E-04
 -23.876 -0.433E-04 -0.433E-04
 -23.866 -0.425E-04 -0.425E-04
 -23.856 -0.416E-04 -0.416E-04
 -23.846 -0.406E-04 -0.406E-04
 -23.836 -0.397E-04 -0.397E-04
 -23.826 -0.387E-04 -0.387E-04
 -23.816 -0.377E-04 -0.377E-04
 -23.806 -0.368E-04 -0.368E-04
 -23.796 -0.358E-04 -0.358E-04
 -23.786 -0.347E-04 -0.347E-04
 -23.776 -0.337E-04 -0.337E-04
 -23.766 -0.327E-04 -0.327E-04
 -23.756 -0.317E-04 -0.317E-04
 -23.746 -0.307E-04 -0.307E-04
 -23.736 -0.297E-04 -0.297E-04
 -23.726 -0.287E-04 -0.287E-04
 -23.716 -0.277E-04 -0.277E-04
 -23.706 -0.268E-04 -0.268E-04
 -23.696 -0.258E-04 -0.258E-04
 -23.686 -0.249E-04 -0.249E-04
 -23.676 -0.239E-04 -0.239E-04
 -23.666 -0.230E-04 -0.230E-04
 -23.656 -0.221E-04 -0.221E-04
 -23.646 -0.213E-04 -0.213E-04
 -23.636 -0.204E-04 -0.204E-04
 -23.626 -0.196E-04 -0.196E-04
 -23.616 -0.188E-04 -0.188E-04
 -23.606 -0.180E-04 -0.180E-04
 -23.596 -0.172E-04 -0.172E-04
 -23.586 -0.165E-04 -0.165E-04
 -23.576 -0.157E-04 -0.157E-04
 -23.566 -0.150E-04 -0.150E-04
 -23.556 -0.143E-04 -0.143E-04
 -23.546 -0.137E-04 -0.137E-04
 -23.536 -0.130E-04 -0.130E-04
 -23.526 -0.124E-04 -0.124E-04
 -23.516 -0.118E-04 -0.118E-04
 -23.506 -0.113E-04 -0.113E-04
 -23.496 -0.107E-04 -0.107E-04
 -23.486 -0.102E-04 -0.102E-04
 -23.476 -0.966E-05 -0.966E-05
 -23.466 -0.917E-05 -0.917E-05
 -23.456 -0.870E-05 -0.870E-05
 -23.446 -0.825E-05 -0.825E-05
 -23.436 -0.781E-05 -0.781E-05
 -23.426 -0.740E-05 -0.740E-05
 -23.416 -0.700E-05 -0.700E-05
 -23.406 -0.662E-05 -0.662E-05
 -23.396 -0.625E-05 -0.625E-05
 -23.386 -0.591E-05 -0.591E-05
 -23.376 -0.558E-05 -0.558E-05
 -23.366 -0.526E-05 -0.526E-05
 -23.356 -0.496E-05 -0.496E-05
 -23.346 -0.467E-05 -0.467E-05
 -23.336 -0.440E-05 -0.440E-05
 -23.326 -0.414E-05 -0.414E-05
 -23.316 -0.390E-05 -0.390E-05
 -23.306 -0.367E-05 -0.367E-05
 -23.296 -0.344E-05 -0.344E-05
 -23.286 -0.324E-05 -0.324E-05
 -23.276 -0.304E-05 -0.304E-05
 -23.266 -0.285E-05 -0.285E-05
 -23.256 -0.267E-05 -0.267E-05
 -23.246 -0.250E-05 -0.250E-05
 -23.236 -0.234E-05 -0.234E-05
 -23.226 -0.219E-05 -0.219E-05
 -23.216 -0.205E-05 -0.205E-05
 -23.206 -0.192E-05 -0.192E-05
 -23.196 -0.179E-05 -0.179E-05
 -23.186 -0.168E-05 -0.168E-05
 -23.176 -0.156E-05 -0.156E-05
 -23.166 -0.146E-05 -0.146E-05
 -23.156 -0.136E-05 -0.136E-05
 -23.146 -0.127E-05 -0.127E-05
 -23.136 -0.118E-05 -0.118E-05
 -23.126 -0.110E-05 -0.110E-05
 -23.116 -0.102E-05 -0.102E-05
 -23.106 -0.953E-06 -0.953E-06
 -23.096 -0.886E-06 -0.886E-06
 -23.086 -0.824E-06 -0.824E-06
 -23.076 -0.765E-06 -0.765E-06
 -23.066 -0.711E-06 -0.711E-06
 -23.056 -0.659E-06 -0.659E-06
 -23.046 -0.612E-06 -0.612E-06
 -23.036 -0.567E-06 -0.567E-06
 -23.026 -0.526E-06 -0.526E-06
 -23.016 -0.487E-06 -0.487E-06
 -23.006 -0.452E-06 -0.452E-06
 -22.996 -0.418E-06 -0.418E-06
 -22.986 -0.387E-06 -0.387E-06
 -22.976 -0.358E-06 -0.358E-06
 -22.966 -0.332E-06 -0.332E-06
 -22.956 -0.307E-06 -0.307E-06
 -22.946 -0.284E-06 -0.284E-06
 -22.936 -0.263E-06 -0.263E-06
 -22.926 -0.244E-06 -0.244E-06
 -22.916 -0.226E-06 -0.226E-06
 -22.906 -0.210E-06 -0.210E-06
 -22.896 -0.195E-06 -0.195E-06
 -22.886 -0.181E-06 -0.181E-06
 -22.876 -0.169E-06 -0.169E-06
 -22.866 -0.157E-06 -0.157E-06
 -22.856 -0.147E-06 -0.147E-06
 -22.846 -0.138E-06 -0.138E-06
 -22.836 -0.130E-06 -0.130E-06
 -22.826 -0.122E-06 -0.122E-06
 -22.816 -0.116E-06 -0.116E-06
 -22.806 -0.111E-06 -0.111E-06
 -22.796 -0.106E-06 -0.106E-06
 -22.786 -0.102E-06 -0.102E-06
 -22.776 -0.995E-07 -0.995E-07
 -22.766 -0.974E-07 -0.974E-07
 -22.756 -0.961E-07 -0.961E-07
 -22.746 -0.956E-07 -0.956E-07
 -22.736 -0.959E-07 -0.959E-07
 -22.726 -0.970E-07 -0.970E-07
 -22.716 -0.989E-07 -0.989E-07
 -22.706 -0.102E-06 -0.102E-06
 -22.696 -0.105E-06 -0.105E-06
 -22.686 -0.110E-06 -0.110E-06
 -22.676 -0.115E-06 -0.115E-06
 -22.666 -0.121E-06 -0.121E-06
 -22.656 -0.129E-06 -0.129E-06
 -22.646 -0.137E-06 -0.137E-06
 -22.636 -0.147E-06 -0.147E-06
 -22.626 -0.157E-06 -0.157E-06
 -22.616 -0.169E-06 -0.169E-06
 -22.606 -0.183E-06 -0.183E-06
 -22.596 -0.197E-06 -0.197E-06
 -22.586 -0.214E-06 -0.214E-06
 -22.576 -0.231E-06 -0.231E-06
 -22.566 -0.251E-06 -0.251E-06
 -22.556 -0.272E-06 -0.272E-06
 -22.546 -0.296E-06 -0.296E-06
 -22.536 -0.321E-06 -0.321E-06
 -22.526 -0.349E-06 -0.349E-06
 -22.516 -0.379E-06 -0.379E-06
 -22.506 -0.412E-06 -0.412E-06
 -22.496 -0.448E-06 -0.448E-06
 -22.486 -0.487E-06 -0.487E-06
 -22.476 -0.529E-06 -0.529E-06
 -22.466 -0.574E-06 -0.574E-06
 -22.456 -0.623E-06 -0.623E-06
 -22.446 -0.676E-06 -0.676E-06
 -22.436 -0.734E-06 -0.734E-06
 -22.426 -0.796E-06 -0.796E-06
 -22.416 -0.863E-06 -0.863E-06
 -22.406 -0.935E-06 -0.935E-06
 -22.396 -0.101E-05 -0.101E-05
 -22.386 -0.110E-05 -0.110E-05
 -22.376 -0.119E-05 -0.119E-05
 -22.366 -0.128E-05 -0.128E-05
 -22.356 -0.139E-05 -0.139E-05
 -22.346 -0.150E-05 -0.150E-05
 -22.336 -0.162E-05 -0.162E-05
 -22.326 -0.175E-05 -0.175E-05
 -22.316 -0.188E-05 -0.188E-05
 -22.306 -0.203E-05 -0.203E-05
 -22.296 -0.219E-05 -0.219E-05
 -22.286 -0.236E-05 -0.236E-05
 -22.276 -0.254E-05 -0.254E-05
 -22.266 -0.273E-05 -0.273E-05
 -22.256 -0.294E-05 -0.294E-05
 -22.246 -0.316E-05 -0.316E-05
 -22.236 -0.340E-05 -0.340E-05
 -22.226 -0.365E-05 -0.365E-05
 -22.216 -0.392E-05 -0.392E-05
 -22.206 -0.420E-05 -0.420E-05
 -22.196 -0.451E-05 -0.451E-05
 -22.186 -0.483E-05 -0.483E-05
 -22.176 -0.517E-05 -0.517E-05
 -22.166 -0.554E-05 -0.554E-05
 -22.156 -0.592E-05 -0.592E-05
 -22.146 -0.633E-05 -0.633E-05
 -22.136 -0.677E-05 -0.677E-05
 -22.126 -0.723E-05 -0.723E-05
 -22.116 -0.772E-05 -0.772E-05
 -22.106 -0.824E-05 -0.824E-05
 -22.096 -0.879E-05 -0.879E-05
 -22.086 -0.937E-05 -0.937E-05
 -22.076 -0.998E-05 -0.998E-05
 -22.066 -0.106E-04 -0.106E-04
 -22.056 -0.113E-04 -0.113E-04
 -22.046 -0.120E-04 -0.120E-04
 -22.036 -0.128E-04 -0.128E-04
 -22.026 -0.136E-04 -0.136E-04
 -22.016 -0.144E-04 -0.144E-04
 -22.006 -0.153E-04 -0.153E-04
 -21.996 -0.162E-04 -0.162E-04
 -21.986 -0.172E-04 -0.172E-04
 -21.976 -0.182E-04 -0.182E-04
 -21.966 -0.193E-04 -0.193E-04
 -21.956 -0.204E-04 -0.204E-04
 -21.946 -0.216E-04 -0.216E-04
 -21.936 -0.228E-04 -0.228E-04
 -21.926 -0.241E-04 -0.241E-04
 -21.916 -0.254E-04 -0.254E-04
 -21.906 -0.268E-04 -0.268E-04
 -21.896 -0.283E-04 -0.283E-04
 -21.886 -0.298E-04 -0.298E-04
 -21.876 -0.313E-04 -0.313E-04
 -21.866 -0.330E-04 -0.330E-04
 -21.856 -0.347E-04 -0.347E-04
 -21.846 -0.365E-04 -0.365E-04
 -21.836 -0.383E-04 -0.383E-04
 -21.826 -0.402E-04 -0.402E-04
 -21.816 -0.421E-04 -0.421E-04
 -21.806 -0.442E-04 -0.442E-04
 -21.796 -0.463E-04 -0.463E-04
 -21.786 -0.484E-04 -0.484E-04
 -21.776 -0.507E-04 -0.507E-04
 -21.766 -0.530E-04 -0.530E-04
 -21.756 -0.554E-04 -0.554E-04
 -21.746 -0.578E-04 -0.578E-04
 -21.736 -0.603E-04 -0.603E-04
 -21.726 -0.628E-04 -0.628E-04
 -21.716 -0.655E-04 -0.655E-04
 -21.706 -0.681E-04 -0.681E-04
 -21.696 -0.709E-04 -0.709E-04
 -21.686 -0.737E-04 -0.737E-04
 -21.676 -0.765E-04 -0.765E-04
 -21.666 -0.794E-04 -0.794E-04
 -21.656 -0.824E-04 -0.824E-04
 -21.646 -0.853E-04 -0.853E-04
 -21.636 -0.883E-04 -0.883E-04
 -21.626 -0.914E-04 -0.914E-04
 -21.616 -0.945E-04 -0.945E-04
 -21.606 -0.976E-04 -0.976E-04
 -21.596 -0.101E-03 -0.101E-03
 -21.586 -0.104E-03 -0.104E-03
 -21.576 -0.107E-03 -0.107E-03
 -21.566 -0.110E-03 -0.110E-03
 -21.556 -0.113E-03 -0.113E-03
 -21.546 -0.116E-03 -0.116E-03
 -21.536 -0.119E-03 -0.119E-03
 -21.526 -0.122E-03 -0.122E-03
 -21.516 -0.125E-03 -0.125E-03
 -21.506 -0.128E-03 -0.128E-03
 -21.496 -0.131E-03 -0.131E-03
 -21.486 -0.133E-03 -0.133E-03
 -21.476 -0.136E-03 -0.136E-03
 -21.466 -0.138E-03 -0.138E-03
 -21.456 -0.141E-03 -0.141E-03
 -21.446 -0.143E-03 -0.143E-03
 -21.436 -0.145E-03 -0.145E-03
 -21.426 -0.147E-03 -0.147E-03
 -21.416 -0.148E-03 -0.148E-03
 -21.406 -0.150E-03 -0.150E-03
 -21.396 -0.151E-03 -0.151E-03
 -21.386 -0.152E-03 -0.152E-03
 -21.376 -0.152E-03 -0.152E-03
 -21.366 -0.153E-03 -0.153E-03
 -21.356 -0.153E-03 -0.153E-03
 -21.346 -0.152E-03 -0.152E-03
 -21.336 -0.152E-03 -0.152E-03
 -21.326 -0.151E-03 -0.151E-03
 -21.316 -0.149E-03 -0.149E-03
 -21.306 -0.147E-03 -0.147E-03
 -21.296 -0.145E-03 -0.145E-03
 -21.286 -0.142E-03 -0.142E-03
 -21.276 -0.139E-03 -0.139E-03
 -21.266 -0.135E-03 -0.135E-03
 -21.256 -0.131E-03 -0.131E-03
 -21.246 -0.126E-03 -0.126E-03
 -21.236 -0.121E-03 -0.121E-03
 -21.226 -0.115E-03 -0.115E-03
 -21.216 -0.108E-03 -0.108E-03
 -21.206 -0.101E-03 -0.101E-03
 -21.196 -0.931E-04 -0.931E-04
 -21.186 -0.844E-04 -0.844E-04
 -21.176 -0.751E-04 -0.751E-04
 -21.166 -0.650E-04 -0.650E-04
 -21.156 -0.542E-04 -0.542E-04
 -21.146 -0.426E-04 -0.426E-04
 -21.136 -0.302E-04 -0.302E-04
 -21.126 -0.170E-04 -0.170E-04
 -21.116 -0.303E-05 -0.303E-05
 -21.106  0.118E-04  0.118E-04
 -21.096  0.275E-04  0.275E-04
 -21.086  0.440E-04  0.440E-04
 -21.076  0.615E-04  0.615E-04
 -21.066  0.798E-04  0.798E-04
 -21.056  0.990E-04  0.990E-04
 -21.046  0.119E-03  0.119E-03
 -21.036  0.140E-03  0.140E-03
 -21.026  0.162E-03  0.162E-03
 -21.016  0.185E-03  0.185E-03
 -21.006  0.208E-03  0.208E-03
 -20.996  0.233E-03  0.233E-03
 -20.986  0.259E-03  0.259E-03
 -20.976  0.285E-03  0.285E-03
 -20.966  0.312E-03  0.312E-03
 -20.956  0.340E-03  0.340E-03
 -20.946  0.369E-03  0.369E-03
 -20.936  0.399E-03  0.399E-03
 -20.926  0.430E-03  0.430E-03
 -20.916  0.461E-03  0.461E-03
 -20.906  0.493E-03  0.493E-03
 -20.896  0.526E-03  0.526E-03
 -20.886  0.560E-03  0.560E-03
 -20.876  0.594E-03  0.594E-03
 -20.866  0.629E-03  0.629E-03
 -20.856  0.664E-03  0.664E-03
 -20.846  0.700E-03  0.700E-03
 -20.836  0.737E-03  0.737E-03
 -20.826  0.774E-03  0.774E-03
 -20.816  0.811E-03  0.811E-03
 -20.806  0.849E-03  0.849E-03
 -20.796  0.887E-03  0.887E-03
 -20.786  0.926E-03  0.926E-03
 -20.776  0.964E-03  0.964E-03
 -20.766  0.100E-02  0.100E-02
 -20.756  0.104E-02  0.104E-02
 -20.746  0.108E-02  0.108E-02
 -20.736  0.112E-02  0.112E-02
 -20.726  0.116E-02  0.116E-02
 -20.716  0.120E-02  0.120E-02
 -20.706  0.123E-02  0.123E-02
 -20.696  0.127E-02  0.127E-02
 -20.686  0.131E-02  0.131E-02
 -20.676  0.134E-02  0.134E-02
 -20.666  0.138E-02  0.138E-02
 -20.656  0.141E-02  0.141E-02
 -20.646  0.145E-02  0.145E-02
 -20.636  0.148E-02  0.148E-02
 -20.626  0.151E-02  0.151E-02
 -20.616  0.155E-02  0.155E-02
 -20.606  0.158E-02  0.158E-02
 -20.596  0.160E-02  0.160E-02
 -20.586  0.163E-02  0.163E-02
 -20.576  0.166E-02  0.166E-02
 -20.566  0.168E-02  0.168E-02
 -20.556  0.171E-02  0.171E-02
 -20.546  0.173E-02  0.173E-02
 -20.536  0.175E-02  0.175E-02
 -20.526  0.177E-02  0.177E-02
 -20.516  0.178E-02  0.178E-02
 -20.506  0.180E-02  0.180E-02
 -20.496  0.181E-02  0.181E-02
 -20.486  0.182E-02  0.182E-02
 -20.476  0.183E-02  0.183E-02
 -20.466  0.184E-02  0.184E-02
 -20.456  0.184E-02  0.184E-02
 -20.446  0.184E-02  0.184E-02
 -20.436  0.184E-02  0.184E-02
 -20.426  0.184E-02  0.184E-02
 -20.416  0.183E-02  0.183E-02
 -20.406  0.183E-02  0.183E-02
 -20.396  0.182E-02  0.182E-02
 -20.386  0.180E-02  0.180E-02
 -20.376  0.179E-02  0.179E-02
 -20.366  0.177E-02  0.177E-02
 -20.356  0.175E-02  0.175E-02
 -20.346  0.173E-02  0.173E-02
 -20.336  0.171E-02  0.171E-02
 -20.326  0.168E-02  0.168E-02
 -20.316  0.166E-02  0.166E-02
 -20.306  0.163E-02  0.163E-02
 -20.296  0.159E-02  0.159E-02
 -20.286  0.156E-02  0.156E-02
 -20.276  0.153E-02  0.153E-02
 -20.266  0.149E-02  0.149E-02
 -20.256  0.145E-02  0.145E-02
 -20.246  0.141E-02  0.141E-02
 -20.236  0.137E-02  0.137E-02
 -20.226  0.133E-02  0.133E-02
 -20.216  0.128E-02  0.128E-02
 -20.206  0.124E-02  0.124E-02
 -20.196  0.119E-02  0.119E-02
 -20.186  0.115E-02  0.115E-02
 -20.176  0.110E-02  0.110E-02
 -20.166  0.105E-02  0.105E-02
 -20.156  0.101E-02  0.101E-02
 -20.146  0.961E-03  0.961E-03
 -20.136  0.915E-03  0.915E-03
 -20.126  0.871E-03  0.871E-03
 -20.116  0.827E-03  0.827E-03
 -20.106  0.785E-03  0.785E-03
 -20.096  0.745E-03  0.745E-03
 -20.086  0.706E-03  0.706E-03
 -20.076  0.670E-03  0.670E-03
 -20.066  0.636E-03  0.636E-03
 -20.056  0.605E-03  0.605E-03
 -20.046  0.576E-03  0.576E-03
 -20.036  0.552E-03  0.552E-03
 -20.026  0.531E-03  0.531E-03
 -20.016  0.514E-03  0.514E-03
 -20.006  0.501E-03  0.501E-03
 -19.996  0.493E-03  0.493E-03
 -19.986  0.491E-03  0.491E-03
 -19.976  0.493E-03  0.493E-03
 -19.966  0.502E-03  0.502E-03
 -19.956  0.516E-03  0.516E-03
 -19.946  0.537E-03  0.537E-03
 -19.936  0.565E-03  0.565E-03
 -19.926  0.599E-03  0.599E-03
 -19.916  0.642E-03  0.642E-03
 -19.906  0.692E-03  0.692E-03
 -19.896  0.750E-03  0.750E-03
 -19.886  0.816E-03  0.816E-03
 -19.876  0.892E-03  0.892E-03
 -19.866  0.976E-03  0.976E-03
 -19.856  0.107E-02  0.107E-02
 -19.846  0.117E-02  0.117E-02
 -19.836  0.129E-02  0.129E-02
 -19.826  0.141E-02  0.141E-02
 -19.816  0.154E-02  0.154E-02
 -19.806  0.169E-02  0.169E-02
 -19.796  0.185E-02  0.185E-02
 -19.786  0.201E-02  0.201E-02
 -19.776  0.219E-02  0.219E-02
 -19.766  0.238E-02  0.238E-02
 -19.756  0.258E-02  0.258E-02
 -19.746  0.280E-02  0.280E-02
 -19.736  0.302E-02  0.302E-02
 -19.726  0.326E-02  0.326E-02
 -19.716  0.351E-02  0.351E-02
 -19.706  0.377E-02  0.377E-02
 -19.696  0.405E-02  0.405E-02
 -19.686  0.433E-02  0.433E-02
 -19.676  0.463E-02  0.463E-02
 -19.666  0.494E-02  0.494E-02
 -19.656  0.527E-02  0.527E-02
 -19.646  0.560E-02  0.560E-02
 -19.636  0.595E-02  0.595E-02
 -19.626  0.631E-02  0.631E-02
 -19.616  0.668E-02  0.668E-02
 -19.606  0.706E-02  0.706E-02
 -19.596  0.746E-02  0.746E-02
 -19.586  0.786E-02  0.786E-02
 -19.576  0.828E-02  0.828E-02
 -19.566  0.871E-02  0.871E-02
 -19.556  0.914E-02  0.914E-02
 -19.546  0.959E-02  0.959E-02
 -19.536  0.100E-01  0.100E-01
 -19.526  0.105E-01  0.105E-01
 -19.516  0.110E-01  0.110E-01
 -19.506  0.115E-01  0.115E-01
 -19.496  0.119E-01  0.119E-01
 -19.486  0.124E-01  0.124E-01
 -19.476  0.129E-01  0.129E-01
 -19.466  0.135E-01  0.135E-01
 -19.456  0.140E-01  0.140E-01
 -19.446  0.145E-01  0.145E-01
 -19.436  0.150E-01  0.150E-01
 -19.426  0.155E-01  0.155E-01
 -19.416  0.160E-01  0.160E-01
 -19.406  0.166E-01  0.166E-01
 -19.396  0.171E-01  0.171E-01
 -19.386  0.176E-01  0.176E-01
 -19.376  0.182E-01  0.182E-01
 -19.366  0.187E-01  0.187E-01
 -19.356  0.192E-01  0.192E-01
 -19.346  0.197E-01  0.197E-01
 -19.336  0.203E-01  0.203E-01
 -19.326  0.208E-01  0.208E-01
 -19.316  0.213E-01  0.213E-01
 -19.306  0.218E-01  0.218E-01
 -19.296  0.223E-01  0.223E-01
 -19.286  0.228E-01  0.228E-01
 -19.276  0.232E-01  0.232E-01
 -19.266  0.237E-01  0.237E-01
 -19.256  0.242E-01  0.242E-01
 -19.246  0.246E-01  0.246E-01
 -19.236  0.251E-01  0.251E-01
 -19.226  0.255E-01  0.255E-01
 -19.216  0.259E-01  0.259E-01
 -19.206  0.263E-01  0.263E-01
 -19.196  0.267E-01  0.267E-01
 -19.186  0.271E-01  0.271E-01
 -19.176  0.274E-01  0.274E-01
 -19.166  0.278E-01  0.278E-01
 -19.156  0.281E-01  0.281E-01
 -19.146  0.284E-01  0.284E-01
 -19.136  0.287E-01  0.287E-01
 -19.126  0.289E-01  0.289E-01
 -19.116  0.292E-01  0.292E-01
 -19.106  0.294E-01  0.294E-01
 -19.096  0.296E-01  0.296E-01
 -19.086  0.298E-01  0.298E-01
 -19.076  0.300E-01  0.300E-01
 -19.066  0.301E-01  0.301E-01
 -19.056  0.303E-01  0.303E-01
 -19.046  0.304E-01  0.304E-01
 -19.036  0.305E-01  0.305E-01
 -19.026  0.305E-01  0.305E-01
 -19.016  0.306E-01  0.306E-01
 -19.006  0.306E-01  0.306E-01
 -18.996  0.306E-01  0.306E-01
 -18.986  0.305E-01  0.305E-01
 -18.976  0.305E-01  0.305E-01
 -18.966  0.304E-01  0.304E-01
 -18.956  0.303E-01  0.303E-01
 -18.946  0.302E-01  0.302E-01
 -18.936  0.301E-01  0.301E-01
 -18.926  0.299E-01  0.299E-01
 -18.916  0.297E-01  0.297E-01
 -18.906  0.295E-01  0.295E-01
 -18.896  0.293E-01  0.293E-01
 -18.886  0.291E-01  0.291E-01
 -18.876  0.288E-01  0.288E-01
 -18.866  0.285E-01  0.285E-01
 -18.856  0.282E-01  0.282E-01
 -18.846  0.279E-01  0.279E-01
 -18.836  0.276E-01  0.276E-01
 -18.826  0.272E-01  0.272E-01
 -18.816  0.269E-01  0.269E-01
 -18.806  0.265E-01  0.265E-01
 -18.796  0.261E-01  0.261E-01
 -18.786  0.257E-01  0.257E-01
 -18.776  0.253E-01  0.253E-01
 -18.766  0.248E-01  0.248E-01
 -18.756  0.244E-01  0.244E-01
 -18.746  0.239E-01  0.239E-01
 -18.736  0.235E-01  0.235E-01
 -18.726  0.230E-01  0.230E-01
 -18.716  0.225E-01  0.225E-01
 -18.706  0.220E-01  0.220E-01
 -18.696  0.215E-01  0.215E-01
 -18.686  0.210E-01  0.210E-01
 -18.676  0.205E-01  0.205E-01
 -18.666  0.199E-01  0.199E-01
 -18.656  0.194E-01  0.194E-01
 -18.646  0.189E-01  0.189E-01
 -18.636  0.183E-01  0.183E-01
 -18.626  0.178E-01  0.178E-01
 -18.616  0.173E-01  0.173E-01
 -18.606  0.167E-01  0.167E-01
 -18.596  0.162E-01  0.162E-01
 -18.586  0.156E-01  0.156E-01
 -18.576  0.151E-01  0.151E-01
 -18.566  0.146E-01  0.146E-01
 -18.556  0.140E-01  0.140E-01
 -18.546  0.135E-01  0.135E-01
 -18.536  0.130E-01  0.130E-01
 -18.526  0.124E-01  0.124E-01
 -18.516  0.119E-01  0.119E-01
 -18.506  0.114E-01  0.114E-01
 -18.496  0.109E-01  0.109E-01
 -18.486  0.104E-01  0.104E-01
 -18.476  0.992E-02  0.992E-02
 -18.466  0.944E-02  0.944E-02
 -18.456  0.896E-02  0.896E-02
 -18.446  0.849E-02  0.849E-02
 -18.436  0.803E-02  0.803E-02
 -18.426  0.758E-02  0.758E-02
 -18.416  0.714E-02  0.714E-02
 -18.406  0.671E-02  0.671E-02
 -18.396  0.629E-02  0.629E-02
 -18.386  0.588E-02  0.588E-02
 -18.376  0.547E-02  0.547E-02
 -18.366  0.508E-02  0.508E-02
 -18.356  0.470E-02  0.470E-02
 -18.346  0.434E-02  0.434E-02
 -18.336  0.398E-02  0.398E-02
 -18.326  0.363E-02  0.363E-02
 -18.316  0.329E-02  0.329E-02
 -18.306  0.297E-02  0.297E-02
 -18.296  0.266E-02  0.266E-02
 -18.286  0.235E-02  0.235E-02
 -18.276  0.206E-02  0.206E-02
 -18.266  0.178E-02  0.178E-02
 -18.256  0.151E-02  0.151E-02
 -18.246  0.125E-02  0.125E-02
 -18.236  0.101E-02  0.101E-02
 -18.226  0.769E-03  0.769E-03
 -18.216  0.543E-03  0.543E-03
 -18.206  0.327E-03  0.327E-03
 -18.196  0.122E-03  0.122E-03
 -18.186 -0.735E-04 -0.735E-04
 -18.176 -0.259E-03 -0.259E-03
 -18.166 -0.435E-03 -0.435E-03
 -18.156 -0.601E-03 -0.601E-03
 -18.146 -0.758E-03 -0.758E-03
 -18.136 -0.906E-03 -0.906E-03
 -18.126 -0.105E-02 -0.105E-02
 -18.116 -0.118E-02 -0.118E-02
 -18.106 -0.130E-02 -0.130E-02
 -18.096 -0.141E-02 -0.141E-02
 -18.086 -0.152E-02 -0.152E-02
 -18.076 -0.162E-02 -0.162E-02
 -18.066 -0.171E-02 -0.171E-02
 -18.056 -0.179E-02 -0.179E-02
 -18.046 -0.187E-02 -0.187E-02
 -18.036 -0.194E-02 -0.194E-02
 -18.026 -0.200E-02 -0.200E-02
 -18.016 -0.206E-02 -0.206E-02
 -18.006 -0.211E-02 -0.211E-02
 -17.996 -0.216E-02 -0.216E-02
 -17.986 -0.220E-02 -0.220E-02
 -17.976 -0.224E-02 -0.224E-02
 -17.966 -0.227E-02 -0.227E-02
 -17.956 -0.229E-02 -0.229E-02
 -17.946 -0.232E-02 -0.232E-02
 -17.936 -0.233E-02 -0.233E-02
 -17.926 -0.235E-02 -0.235E-02
 -17.916 -0.236E-02 -0.236E-02
 -17.906 -0.237E-02 -0.237E-02
 -17.896 -0.237E-02 -0.237E-02
 -17.886 -0.237E-02 -0.237E-02
 -17.876 -0.237E-02 -0.237E-02
 -17.866 -0.236E-02 -0.236E-02
 -17.856 -0.235E-02 -0.235E-02
 -17.846 -0.234E-02 -0.234E-02
 -17.836 -0.233E-02 -0.233E-02
 -17.826 -0.231E-02 -0.231E-02
 -17.816 -0.230E-02 -0.230E-02
 -17.806 -0.228E-02 -0.228E-02
 -17.796 -0.226E-02 -0.226E-02
 -17.786 -0.224E-02 -0.224E-02
 -17.776 -0.221E-02 -0.221E-02
 -17.766 -0.219E-02 -0.219E-02
 -17.756 -0.216E-02 -0.216E-02
 -17.746 -0.214E-02 -0.214E-02
 -17.736 -0.211E-02 -0.211E-02
 -17.726 -0.208E-02 -0.208E-02
 -17.716 -0.205E-02 -0.205E-02
 -17.706 -0.202E-02 -0.202E-02
 -17.696 -0.199E-02 -0.199E-02
 -17.686 -0.195E-02 -0.195E-02
 -17.676 -0.192E-02 -0.192E-02
 -17.666 -0.189E-02 -0.189E-02
 -17.656 -0.185E-02 -0.185E-02
 -17.646 -0.182E-02 -0.182E-02
 -17.636 -0.179E-02 -0.179E-02
 -17.626 -0.175E-02 -0.175E-02
 -17.616 -0.172E-02 -0.172E-02
 -17.606 -0.168E-02 -0.168E-02
 -17.596 -0.164E-02 -0.164E-02
 -17.586 -0.161E-02 -0.161E-02
 -17.576 -0.157E-02 -0.157E-02
 -17.566 -0.153E-02 -0.153E-02
 -17.556 -0.150E-02 -0.150E-02
 -17.546 -0.146E-02 -0.146E-02
 -17.536 -0.142E-02 -0.142E-02
 -17.526 -0.138E-02 -0.138E-02
 -17.516 -0.134E-02 -0.134E-02
 -17.506 -0.131E-02 -0.131E-02
 -17.496 -0.127E-02 -0.127E-02
 -17.486 -0.123E-02 -0.123E-02
 -17.476 -0.119E-02 -0.119E-02
 -17.466 -0.114E-02 -0.114E-02
 -17.456 -0.110E-02 -0.110E-02
 -17.446 -0.106E-02 -0.106E-02
 -17.436 -0.102E-02 -0.102E-02
 -17.426 -0.972E-03 -0.972E-03
 -17.416 -0.927E-03 -0.927E-03
 -17.406 -0.880E-03 -0.880E-03
 -17.396 -0.832E-03 -0.832E-03
 -17.386 -0.782E-03 -0.782E-03
 -17.376 -0.731E-03 -0.731E-03
 -17.366 -0.678E-03 -0.678E-03
 -17.356 -0.623E-03 -0.623E-03
 -17.346 -0.566E-03 -0.566E-03
 -17.336 -0.507E-03 -0.507E-03
 -17.326 -0.445E-03 -0.445E-03
 -17.316 -0.381E-03 -0.381E-03
 -17.306 -0.313E-03 -0.313E-03
 -17.296 -0.242E-03 -0.242E-03
 -17.286 -0.168E-03 -0.168E-03
 -17.276 -0.898E-04 -0.898E-04
 -17.266 -0.762E-05 -0.762E-05
 -17.256  0.790E-04  0.790E-04
 -17.246  0.170E-03  0.170E-03
 -17.236  0.267E-03  0.267E-03
 -17.226  0.368E-03  0.368E-03
 -17.216  0.476E-03  0.476E-03
 -17.206  0.590E-03  0.590E-03
 -17.196  0.710E-03  0.710E-03
 -17.186  0.838E-03  0.838E-03
 -17.176  0.973E-03  0.973E-03
 -17.166  0.112E-02  0.112E-02
 -17.156  0.127E-02  0.127E-02
 -17.146  0.143E-02  0.143E-02
 -17.136  0.160E-02  0.160E-02
 -17.126  0.178E-02  0.178E-02
 -17.116  0.197E-02  0.197E-02
 -17.106  0.217E-02  0.217E-02
 -17.096  0.238E-02  0.238E-02
 -17.086  0.260E-02  0.260E-02
 -17.076  0.284E-02  0.284E-02
 -17.066  0.309E-02  0.309E-02
 -17.056  0.335E-02  0.335E-02
 -17.046  0.363E-02  0.363E-02
 -17.036  0.393E-02  0.393E-02
 -17.026  0.423E-02  0.423E-02
 -17.016  0.456E-02  0.456E-02
 -17.006  0.490E-02  0.490E-02
 -16.996  0.526E-02  0.526E-02
 -16.986  0.564E-02  0.564E-02
 -16.976  0.603E-02  0.603E-02
 -16.966  0.645E-02  0.645E-02
 -16.956  0.688E-02  0.688E-02
 -16.946  0.734E-02  0.734E-02
 -16.936  0.781E-02  0.781E-02
 -16.926  0.831E-02  0.831E-02
 -16.916  0.883E-02  0.883E-02
 -16.906  0.937E-02  0.937E-02
 -16.896  0.993E-02  0.993E-02
 -16.886  0.105E-01  0.105E-01
 -16.876  0.111E-01  0.111E-01
 -16.866  0.118E-01  0.118E-01
 -16.856  0.124E-01  0.124E-01
 -16.846  0.131E-01  0.131E-01
 -16.836  0.138E-01  0.138E-01
 -16.826  0.146E-01  0.146E-01
 -16.816  0.153E-01  0.153E-01
 -16.806  0.161E-01  0.161E-01
 -16.796  0.169E-01  0.169E-01
 -16.786  0.177E-01  0.177E-01
 -16.776  0.186E-01  0.186E-01
 -16.766  0.195E-01  0.195E-01
 -16.756  0.204E-01  0.204E-01
 -16.746  0.213E-01  0.213E-01
 -16.736  0.223E-01  0.223E-01
 -16.726  0.233E-01  0.233E-01
 -16.716  0.243E-01  0.243E-01
 -16.706  0.253E-01  0.253E-01
 -16.696  0.264E-01  0.264E-01
 -16.686  0.275E-01  0.275E-01
 -16.676  0.286E-01  0.286E-01
 -16.666  0.297E-01  0.297E-01
 -16.656  0.309E-01  0.309E-01
 -16.646  0.320E-01  0.320E-01
 -16.636  0.332E-01  0.332E-01
 -16.626  0.344E-01  0.344E-01
 -16.616  0.356E-01  0.356E-01
 -16.606  0.369E-01  0.369E-01
 -16.596  0.381E-01  0.381E-01
 -16.586  0.394E-01  0.394E-01
 -16.576  0.407E-01  0.407E-01
 -16.566  0.420E-01  0.420E-01
 -16.556  0.433E-01  0.433E-01
 -16.546  0.446E-01  0.446E-01
 -16.536  0.459E-01  0.459E-01
 -16.526  0.472E-01  0.472E-01
 -16.516  0.486E-01  0.486E-01
 -16.506  0.499E-01  0.499E-01
 -16.496  0.512E-01  0.512E-01
 -16.486  0.525E-01  0.525E-01
 -16.476  0.539E-01  0.539E-01
 -16.466  0.552E-01  0.552E-01
 -16.456  0.565E-01  0.565E-01
 -16.446  0.578E-01  0.578E-01
 -16.436  0.591E-01  0.591E-01
 -16.426  0.604E-01  0.604E-01
 -16.416  0.616E-01  0.616E-01
 -16.406  0.629E-01  0.629E-01
 -16.396  0.641E-01  0.641E-01
 -16.386  0.653E-01  0.653E-01
 -16.376  0.665E-01  0.665E-01
 -16.366  0.676E-01  0.676E-01
 -16.356  0.688E-01  0.688E-01
 -16.346  0.699E-01  0.699E-01
 -16.336  0.710E-01  0.710E-01
 -16.326  0.720E-01  0.720E-01
 -16.316  0.730E-01  0.730E-01
 -16.306  0.740E-01  0.740E-01
 -16.296  0.749E-01  0.749E-01
 -16.286  0.758E-01  0.758E-01
 -16.276  0.767E-01  0.767E-01
 -16.266  0.775E-01  0.775E-01
 -16.256  0.783E-01  0.783E-01
 -16.246  0.790E-01  0.790E-01
 -16.236  0.797E-01  0.797E-01
 -16.226  0.803E-01  0.803E-01
 -16.216  0.809E-01  0.809E-01
 -16.206  0.814E-01  0.814E-01
 -16.196  0.819E-01  0.819E-01
 -16.186  0.823E-01  0.823E-01
 -16.176  0.827E-01  0.827E-01
 -16.166  0.830E-01  0.830E-01
 -16.156  0.832E-01  0.832E-01
 -16.146  0.834E-01  0.834E-01
 -16.136  0.836E-01  0.836E-01
 -16.126  0.837E-01  0.837E-01
 -16.116  0.837E-01  0.837E-01
 -16.106  0.837E-01  0.837E-01
 -16.096  0.836E-01  0.836E-01
 -16.086  0.835E-01  0.835E-01
 -16.076  0.833E-01  0.833E-01
 -16.066  0.831E-01  0.831E-01
 -16.056  0.827E-01  0.827E-01
 -16.046  0.824E-01  0.824E-01
 -16.036  0.820E-01  0.820E-01
 -16.026  0.815E-01  0.815E-01
 -16.016  0.810E-01  0.810E-01
 -16.006  0.804E-01  0.804E-01
 -15.996  0.798E-01  0.798E-01
 -15.986  0.791E-01  0.791E-01
 -15.976  0.783E-01  0.783E-01
 -15.966  0.775E-01  0.775E-01
 -15.956  0.767E-01  0.767E-01
 -15.946  0.758E-01  0.758E-01
 -15.936  0.749E-01  0.749E-01
 -15.926  0.739E-01  0.739E-01
 -15.916  0.729E-01  0.729E-01
 -15.906  0.719E-01  0.719E-01
 -15.896  0.708E-01  0.708E-01
 -15.886  0.697E-01  0.697E-01
 -15.876  0.685E-01  0.685E-01
 -15.866  0.673E-01  0.673E-01
 -15.856  0.661E-01  0.661E-01
 -15.846  0.648E-01  0.648E-01
 -15.836  0.635E-01  0.635E-01
 -15.826  0.622E-01  0.622E-01
 -15.816  0.609E-01  0.609E-01
 -15.806  0.595E-01  0.595E-01
 -15.796  0.582E-01  0.582E-01
 -15.786  0.568E-01  0.568E-01
 -15.776  0.554E-01  0.554E-01
 -15.766  0.539E-01  0.539E-01
 -15.756  0.525E-01  0.525E-01
 -15.746  0.511E-01  0.511E-01
 -15.736  0.496E-01  0.496E-01
 -15.726  0.482E-01  0.482E-01
 -15.716  0.467E-01  0.467E-01
 -15.706  0.452E-01  0.452E-01
 -15.696  0.438E-01  0.438E-01
 -15.686  0.423E-01  0.423E-01
 -15.676  0.409E-01  0.409E-01
 -15.666  0.394E-01  0.394E-01
 -15.656  0.380E-01  0.380E-01
 -15.646  0.366E-01  0.366E-01
 -15.636  0.351E-01  0.351E-01
 -15.626  0.337E-01  0.337E-01
 -15.616  0.323E-01  0.323E-01
 -15.606  0.310E-01  0.310E-01
 -15.596  0.296E-01  0.296E-01
 -15.586  0.283E-01  0.283E-01
 -15.576  0.270E-01  0.270E-01
 -15.566  0.257E-01  0.257E-01
 -15.556  0.244E-01  0.244E-01
 -15.546  0.231E-01  0.231E-01
 -15.536  0.219E-01  0.219E-01
 -15.526  0.207E-01  0.207E-01
 -15.516  0.195E-01  0.195E-01
 -15.506  0.184E-01  0.184E-01
 -15.496  0.172E-01  0.172E-01
 -15.486  0.161E-01  0.161E-01
 -15.476  0.151E-01  0.151E-01
 -15.466  0.140E-01  0.140E-01
 -15.456  0.130E-01  0.130E-01
 -15.446  0.120E-01  0.120E-01
 -15.436  0.111E-01  0.111E-01
 -15.426  0.102E-01  0.102E-01
 -15.416  0.927E-02  0.927E-02
 -15.406  0.841E-02  0.841E-02
 -15.396  0.758E-02  0.758E-02
 -15.386  0.678E-02  0.678E-02
 -15.376  0.601E-02  0.601E-02
 -15.366  0.527E-02  0.527E-02
 -15.356  0.457E-02  0.457E-02
 -15.346  0.389E-02  0.389E-02
 -15.336  0.324E-02  0.324E-02
 -15.326  0.262E-02  0.262E-02
 -15.316  0.203E-02  0.203E-02
 -15.306  0.147E-02  0.147E-02
 -15.296  0.939E-03  0.939E-03
 -15.286  0.434E-03  0.434E-03
 -15.276 -0.448E-04 -0.448E-04
 -15.266 -0.497E-03 -0.497E-03
 -15.256 -0.924E-03 -0.924E-03
 -15.246 -0.132E-02 -0.132E-02
 -15.236 -0.170E-02 -0.170E-02
 -15.226 -0.205E-02 -0.205E-02
 -15.216 -0.238E-02 -0.238E-02
 -15.206 -0.269E-02 -0.269E-02
 -15.196 -0.298E-02 -0.298E-02
 -15.186 -0.324E-02 -0.324E-02
 -15.176 -0.348E-02 -0.348E-02
 -15.166 -0.371E-02 -0.371E-02
 -15.156 -0.391E-02 -0.391E-02
 -15.146 -0.410E-02 -0.410E-02
 -15.136 -0.427E-02 -0.427E-02
 -15.126 -0.443E-02 -0.443E-02
 -15.116 -0.456E-02 -0.456E-02
 -15.106 -0.469E-02 -0.469E-02
 -15.096 -0.479E-02 -0.479E-02
 -15.086 -0.489E-02 -0.489E-02
 -15.076 -0.497E-02 -0.497E-02
 -15.066 -0.504E-02 -0.504E-02
 -15.056 -0.510E-02 -0.510E-02
 -15.046 -0.515E-02 -0.515E-02
 -15.036 -0.519E-02 -0.519E-02
 -15.026 -0.521E-02 -0.521E-02
 -15.016 -0.523E-02 -0.523E-02
 -15.006 -0.525E-02 -0.525E-02
 -14.996 -0.525E-02 -0.525E-02
 -14.986 -0.525E-02 -0.525E-02
 -14.976 -0.524E-02 -0.524E-02
 -14.966 -0.522E-02 -0.522E-02
 -14.956 -0.520E-02 -0.520E-02
 -14.946 -0.518E-02 -0.518E-02
 -14.936 -0.515E-02 -0.515E-02
 -14.926 -0.512E-02 -0.512E-02
 -14.916 -0.508E-02 -0.508E-02
 -14.906 -0.504E-02 -0.504E-02
 -14.896 -0.500E-02 -0.500E-02
 -14.886 -0.496E-02 -0.496E-02
 -14.876 -0.491E-02 -0.491E-02
 -14.866 -0.486E-02 -0.486E-02
 -14.856 -0.482E-02 -0.482E-02
 -14.846 -0.477E-02 -0.477E-02
 -14.836 -0.472E-02 -0.472E-02
 -14.826 -0.467E-02 -0.467E-02
 -14.816 -0.462E-02 -0.462E-02
 -14.806 -0.457E-02 -0.457E-02
 -14.796 -0.452E-02 -0.452E-02
 -14.786 -0.447E-02 -0.447E-02
 -14.776 -0.442E-02 -0.442E-02
 -14.766 -0.437E-02 -0.437E-02
 -14.756 -0.432E-02 -0.432E-02
 -14.746 -0.428E-02 -0.428E-02
 -14.736 -0.423E-02 -0.423E-02
 -14.726 -0.418E-02 -0.418E-02
 -14.716 -0.414E-02 -0.414E-02
 -14.706 -0.410E-02 -0.410E-02
 -14.696 -0.405E-02 -0.405E-02
 -14.686 -0.401E-02 -0.401E-02
 -14.676 -0.397E-02 -0.397E-02
 -14.666 -0.392E-02 -0.392E-02
 -14.656 -0.388E-02 -0.388E-02
 -14.646 -0.384E-02 -0.384E-02
 -14.636 -0.380E-02 -0.380E-02
 -14.626 -0.375E-02 -0.375E-02
 -14.616 -0.371E-02 -0.371E-02
 -14.606 -0.367E-02 -0.367E-02
 -14.596 -0.362E-02 -0.362E-02
 -14.586 -0.358E-02 -0.358E-02
 -14.576 -0.353E-02 -0.353E-02
 -14.566 -0.348E-02 -0.348E-02
 -14.556 -0.343E-02 -0.343E-02
 -14.546 -0.338E-02 -0.338E-02
 -14.536 -0.332E-02 -0.332E-02
 -14.526 -0.327E-02 -0.327E-02
 -14.516 -0.320E-02 -0.320E-02
 -14.506 -0.314E-02 -0.314E-02
 -14.496 -0.307E-02 -0.307E-02
 -14.486 -0.300E-02 -0.300E-02
 -14.476 -0.292E-02 -0.292E-02
 -14.466 -0.283E-02 -0.283E-02
 -14.456 -0.274E-02 -0.274E-02
 -14.446 -0.265E-02 -0.265E-02
 -14.436 -0.255E-02 -0.255E-02
 -14.426 -0.244E-02 -0.244E-02
 -14.416 -0.233E-02 -0.233E-02
 -14.406 -0.220E-02 -0.220E-02
 -14.396 -0.207E-02 -0.207E-02
 -14.386 -0.193E-02 -0.193E-02
 -14.376 -0.179E-02 -0.179E-02
 -14.366 -0.163E-02 -0.163E-02
 -14.356 -0.146E-02 -0.146E-02
 -14.346 -0.128E-02 -0.128E-02
 -14.336 -0.110E-02 -0.110E-02
 -14.326 -0.899E-03 -0.899E-03
 -14.316 -0.689E-03 -0.689E-03
 -14.306 -0.467E-03 -0.467E-03
 -14.296 -0.233E-03 -0.233E-03
 -14.286  0.136E-04  0.136E-04
 -14.276  0.273E-03  0.273E-03
 -14.266  0.546E-03  0.546E-03
 -14.256  0.832E-03  0.832E-03
 -14.246  0.113E-02  0.113E-02
 -14.236  0.145E-02  0.145E-02
 -14.226  0.178E-02  0.178E-02
 -14.216  0.212E-02  0.212E-02
 -14.206  0.248E-02  0.248E-02
 -14.196  0.286E-02  0.286E-02
 -14.186  0.325E-02  0.325E-02
 -14.176  0.366E-02  0.366E-02
 -14.166  0.408E-02  0.408E-02
 -14.156  0.452E-02  0.452E-02
 -14.146  0.498E-02  0.498E-02
 -14.136  0.545E-02  0.545E-02
 -14.126  0.594E-02  0.594E-02
 -14.116  0.645E-02  0.645E-02
 -14.106  0.697E-02  0.697E-02
 -14.096  0.751E-02  0.751E-02
 -14.086  0.807E-02  0.807E-02
 -14.076  0.864E-02  0.864E-02
 -14.066  0.923E-02  0.923E-02
 -14.056  0.984E-02  0.984E-02
 -14.046  0.105E-01  0.105E-01
 -14.036  0.111E-01  0.111E-01
 -14.026  0.118E-01  0.118E-01
 -14.016  0.124E-01  0.124E-01
 -14.006  0.131E-01  0.131E-01
 -13.996  0.138E-01  0.138E-01
 -13.986  0.145E-01  0.145E-01
 -13.976  0.153E-01  0.153E-01
 -13.966  0.160E-01  0.160E-01
 -13.956  0.168E-01  0.168E-01
 -13.946  0.175E-01  0.175E-01
 -13.936  0.183E-01  0.183E-01
 -13.926  0.191E-01  0.191E-01
 -13.916  0.199E-01  0.199E-01
 -13.906  0.207E-01  0.207E-01
 -13.896  0.216E-01  0.216E-01
 -13.886  0.224E-01  0.224E-01
 -13.876  0.232E-01  0.232E-01
 -13.866  0.241E-01  0.241E-01
 -13.856  0.250E-01  0.250E-01
 -13.846  0.258E-01  0.258E-01
 -13.836  0.267E-01  0.267E-01
 -13.826  0.275E-01  0.275E-01
 -13.816  0.284E-01  0.284E-01
 -13.806  0.293E-01  0.293E-01
 -13.796  0.302E-01  0.302E-01
 -13.786  0.310E-01  0.310E-01
 -13.776  0.319E-01  0.319E-01
 -13.766  0.328E-01  0.328E-01
 -13.756  0.337E-01  0.337E-01
 -13.746  0.345E-01  0.345E-01
 -13.736  0.354E-01  0.354E-01
 -13.726  0.362E-01  0.362E-01
 -13.716  0.371E-01  0.371E-01
 -13.706  0.379E-01  0.379E-01
 -13.696  0.387E-01  0.387E-01
 -13.686  0.395E-01  0.395E-01
 -13.676  0.403E-01  0.403E-01
 -13.666  0.411E-01  0.411E-01
 -13.656  0.419E-01  0.419E-01
 -13.646  0.426E-01  0.426E-01
 -13.636  0.434E-01  0.434E-01
 -13.626  0.441E-01  0.441E-01
 -13.616  0.448E-01  0.448E-01
 -13.606  0.455E-01  0.455E-01
 -13.596  0.461E-01  0.461E-01
 -13.586  0.468E-01  0.468E-01
 -13.576  0.474E-01  0.474E-01
 -13.566  0.480E-01  0.480E-01
 -13.556  0.485E-01  0.485E-01
 -13.546  0.491E-01  0.491E-01
 -13.536  0.496E-01  0.496E-01
 -13.526  0.500E-01  0.500E-01
 -13.516  0.505E-01  0.505E-01
 -13.506  0.509E-01  0.509E-01
 -13.496  0.513E-01  0.513E-01
 -13.486  0.517E-01  0.517E-01
 -13.476  0.520E-01  0.520E-01
 -13.466  0.523E-01  0.523E-01
 -13.456  0.526E-01  0.526E-01
 -13.446  0.528E-01  0.528E-01
 -13.436  0.530E-01  0.530E-01
 -13.426  0.532E-01  0.532E-01
 -13.416  0.533E-01  0.533E-01
 -13.406  0.535E-01  0.535E-01
 -13.396  0.535E-01  0.535E-01
 -13.386  0.536E-01  0.536E-01
 -13.376  0.536E-01  0.536E-01
 -13.366  0.535E-01  0.535E-01
 -13.356  0.535E-01  0.535E-01
 -13.346  0.534E-01  0.534E-01
 -13.336  0.532E-01  0.532E-01
 -13.326  0.531E-01  0.531E-01
 -13.316  0.529E-01  0.529E-01
 -13.306  0.526E-01  0.526E-01
 -13.296  0.524E-01  0.524E-01
 -13.286  0.521E-01  0.521E-01
 -13.276  0.518E-01  0.518E-01
 -13.266  0.514E-01  0.514E-01
 -13.256  0.510E-01  0.510E-01
 -13.246  0.506E-01  0.506E-01
 -13.236  0.502E-01  0.502E-01
 -13.226  0.497E-01  0.497E-01
 -13.216  0.492E-01  0.492E-01
 -13.206  0.487E-01  0.487E-01
 -13.196  0.481E-01  0.481E-01
 -13.186  0.475E-01  0.475E-01
 -13.176  0.469E-01  0.469E-01
 -13.166  0.463E-01  0.463E-01
 -13.156  0.456E-01  0.456E-01
 -13.146  0.450E-01  0.450E-01
 -13.136  0.443E-01  0.443E-01
 -13.126  0.436E-01  0.436E-01
 -13.116  0.428E-01  0.428E-01
 -13.106  0.421E-01  0.421E-01
 -13.096  0.413E-01  0.413E-01
 -13.086  0.405E-01  0.405E-01
 -13.076  0.397E-01  0.397E-01
 -13.066  0.389E-01  0.389E-01
 -13.056  0.381E-01  0.381E-01
 -13.046  0.373E-01  0.373E-01
 -13.036  0.364E-01  0.364E-01
 -13.026  0.356E-01  0.356E-01
 -13.016  0.347E-01  0.347E-01
 -13.006  0.339E-01  0.339E-01
 -12.996  0.330E-01  0.330E-01
 -12.986  0.321E-01  0.321E-01
 -12.976  0.312E-01  0.312E-01
 -12.966  0.304E-01  0.304E-01
 -12.956  0.295E-01  0.295E-01
 -12.946  0.286E-01  0.286E-01
 -12.936  0.277E-01  0.277E-01
 -12.926  0.268E-01  0.268E-01
 -12.916  0.259E-01  0.259E-01
 -12.906  0.250E-01  0.250E-01
 -12.896  0.242E-01  0.242E-01
 -12.886  0.233E-01  0.233E-01
 -12.876  0.224E-01  0.224E-01
 -12.866  0.215E-01  0.215E-01
 -12.856  0.207E-01  0.207E-01
 -12.846  0.198E-01  0.198E-01
 -12.836  0.190E-01  0.190E-01
 -12.826  0.181E-01  0.181E-01
 -12.816  0.173E-01  0.173E-01
 -12.806  0.165E-01  0.165E-01
 -12.796  0.156E-01  0.156E-01
 -12.786  0.148E-01  0.148E-01
 -12.776  0.140E-01  0.140E-01
 -12.766  0.133E-01  0.133E-01
 -12.756  0.125E-01  0.125E-01
 -12.746  0.117E-01  0.117E-01
 -12.736  0.110E-01  0.110E-01
 -12.726  0.102E-01  0.102E-01
 -12.716  0.948E-02  0.948E-02
 -12.706  0.876E-02  0.876E-02
 -12.696  0.805E-02  0.805E-02
 -12.686  0.735E-02  0.735E-02
 -12.676  0.667E-02  0.667E-02
 -12.666  0.599E-02  0.599E-02
 -12.656  0.533E-02  0.533E-02
 -12.646  0.469E-02  0.469E-02
 -12.636  0.405E-02  0.405E-02
 -12.626  0.343E-02  0.343E-02
 -12.616  0.282E-02  0.282E-02
 -12.606  0.222E-02  0.222E-02
 -12.596  0.163E-02  0.163E-02
 -12.586  0.106E-02  0.106E-02
 -12.576  0.499E-03  0.499E-03
 -12.566 -0.497E-04 -0.497E-04
 -12.556 -0.586E-03 -0.586E-03
 -12.546 -0.111E-02 -0.111E-02
 -12.536 -0.162E-02 -0.162E-02
 -12.526 -0.212E-02 -0.212E-02
 -12.516 -0.260E-02 -0.260E-02
 -12.506 -0.308E-02 -0.308E-02
 -12.496 -0.354E-02 -0.354E-02
 -12.486 -0.399E-02 -0.399E-02
 -12.476 -0.442E-02 -0.442E-02
 -12.466 -0.485E-02 -0.485E-02
 -12.456 -0.526E-02 -0.526E-02
 -12.446 -0.566E-02 -0.566E-02
 -12.436 -0.604E-02 -0.604E-02
 -12.426 -0.641E-02 -0.641E-02
 -12.416 -0.677E-02 -0.677E-02
 -12.406 -0.712E-02 -0.712E-02
 -12.396 -0.745E-02 -0.745E-02
 -12.386 -0.776E-02 -0.776E-02
 -12.376 -0.807E-02 -0.807E-02
 -12.366 -0.835E-02 -0.835E-02
 -12.356 -0.863E-02 -0.863E-02
 -12.346 -0.888E-02 -0.888E-02
 -12.336 -0.912E-02 -0.912E-02
 -12.326 -0.935E-02 -0.935E-02
 -12.316 -0.956E-02 -0.956E-02
 -12.306 -0.975E-02 -0.975E-02
 -12.296 -0.992E-02 -0.992E-02
 -12.286 -0.101E-01 -0.101E-01
 -12.276 -0.102E-01 -0.102E-01
 -12.266 -0.103E-01 -0.103E-01
 -12.256 -0.104E-01 -0.104E-01
 -12.246 -0.105E-01 -0.105E-01
 -12.236 -0.105E-01 -0.105E-01
 -12.226 -0.105E-01 -0.105E-01
 -12.216 -0.105E-01 -0.105E-01
 -12.206 -0.105E-01 -0.105E-01
 -12.196 -0.105E-01 -0.105E-01
 -12.186 -0.104E-01 -0.104E-01
 -12.176 -0.103E-01 -0.103E-01
 -12.166 -0.101E-01 -0.101E-01
 -12.156 -0.995E-02 -0.995E-02
 -12.146 -0.975E-02 -0.975E-02
 -12.136 -0.951E-02 -0.951E-02
 -12.126 -0.924E-02 -0.924E-02
 -12.116 -0.893E-02 -0.893E-02
 -12.106 -0.859E-02 -0.859E-02
 -12.096 -0.821E-02 -0.821E-02
 -12.086 -0.779E-02 -0.779E-02
 -12.076 -0.733E-02 -0.733E-02
 -12.066 -0.683E-02 -0.683E-02
 -12.056 -0.629E-02 -0.629E-02
 -12.046 -0.571E-02 -0.571E-02
 -12.036 -0.508E-02 -0.508E-02
 -12.026 -0.440E-02 -0.440E-02
 -12.016 -0.368E-02 -0.368E-02
 -12.006 -0.290E-02 -0.290E-02
 -11.996 -0.208E-02 -0.208E-02
 -11.986 -0.121E-02 -0.121E-02
 -11.976 -0.293E-03 -0.293E-03
 -11.966  0.680E-03  0.680E-03
 -11.956  0.171E-02  0.171E-02
 -11.946  0.278E-02  0.278E-02
 -11.936  0.392E-02  0.392E-02
 -11.926  0.511E-02  0.511E-02
 -11.916  0.635E-02  0.635E-02
 -11.906  0.765E-02  0.765E-02
 -11.896  0.900E-02  0.900E-02
 -11.886  0.104E-01  0.104E-01
 -11.876  0.119E-01  0.119E-01
 -11.866  0.134E-01  0.134E-01
 -11.856  0.150E-01  0.150E-01
 -11.846  0.166E-01  0.166E-01
 -11.836  0.183E-01  0.183E-01
 -11.826  0.201E-01  0.201E-01
 -11.816  0.219E-01  0.219E-01
 -11.806  0.238E-01  0.238E-01
 -11.796  0.257E-01  0.257E-01
 -11.786  0.277E-01  0.277E-01
 -11.776  0.297E-01  0.297E-01
 -11.766  0.318E-01  0.318E-01
 -11.756  0.339E-01  0.339E-01
 -11.746  0.361E-01  0.361E-01
 -11.736  0.383E-01  0.383E-01
 -11.726  0.406E-01  0.406E-01
 -11.716  0.429E-01  0.429E-01
 -11.706  0.453E-01  0.453E-01
 -11.696  0.477E-01  0.477E-01
 -11.686  0.502E-01  0.502E-01
 -11.676  0.527E-01  0.527E-01
 -11.666  0.552E-01  0.552E-01
 -11.656  0.578E-01  0.578E-01
 -11.646  0.604E-01  0.604E-01
 -11.636  0.630E-01  0.630E-01
 -11.626  0.656E-01  0.656E-01
 -11.616  0.683E-01  0.683E-01
 -11.606  0.710E-01  0.710E-01
 -11.596  0.737E-01  0.737E-01
 -11.586  0.764E-01  0.764E-01
 -11.576  0.792E-01  0.792E-01
 -11.566  0.819E-01  0.819E-01
 -11.556  0.846E-01  0.846E-01
 -11.546  0.874E-01  0.874E-01
 -11.536  0.901E-01  0.901E-01
 -11.526  0.929E-01  0.929E-01
 -11.516  0.956E-01  0.956E-01
 -11.506  0.983E-01  0.983E-01
 -11.496  0.101E+00  0.101E+00
 -11.486  0.104E+00  0.104E+00
 -11.476  0.106E+00  0.106E+00
 -11.466  0.109E+00  0.109E+00
 -11.456  0.112E+00  0.112E+00
 -11.446  0.114E+00  0.114E+00
 -11.436  0.117E+00  0.117E+00
 -11.426  0.119E+00  0.119E+00
 -11.416  0.121E+00  0.121E+00
 -11.406  0.124E+00  0.124E+00
 -11.396  0.126E+00  0.126E+00
 -11.386  0.128E+00  0.128E+00
 -11.376  0.131E+00  0.131E+00
 -11.366  0.133E+00  0.133E+00
 -11.356  0.135E+00  0.135E+00
 -11.346  0.137E+00  0.137E+00
 -11.336  0.139E+00  0.139E+00
 -11.326  0.141E+00  0.141E+00
 -11.316  0.142E+00  0.142E+00
 -11.306  0.144E+00  0.144E+00
 -11.296  0.146E+00  0.146E+00
 -11.286  0.147E+00  0.147E+00
 -11.276  0.149E+00  0.149E+00
 -11.266  0.150E+00  0.150E+00
 -11.256  0.151E+00  0.151E+00
 -11.246  0.152E+00  0.152E+00
 -11.236  0.153E+00  0.153E+00
 -11.226  0.154E+00  0.154E+00
 -11.216  0.155E+00  0.155E+00
 -11.206  0.156E+00  0.156E+00
 -11.196  0.157E+00  0.157E+00
 -11.186  0.157E+00  0.157E+00
 -11.176  0.158E+00  0.158E+00
 -11.166  0.158E+00  0.158E+00
 -11.156  0.158E+00  0.158E+00
 -11.146  0.158E+00  0.158E+00
 -11.136  0.158E+00  0.158E+00
 -11.126  0.158E+00  0.158E+00
 -11.116  0.158E+00  0.158E+00
 -11.106  0.158E+00  0.158E+00
 -11.096  0.158E+00  0.158E+00
 -11.086  0.157E+00  0.157E+00
 -11.076  0.157E+00  0.157E+00
 -11.066  0.156E+00  0.156E+00
 -11.056  0.155E+00  0.155E+00
 -11.046  0.154E+00  0.154E+00
 -11.036  0.153E+00  0.153E+00
 -11.026  0.152E+00  0.152E+00
 -11.016  0.151E+00  0.151E+00
 -11.006  0.150E+00  0.150E+00
 -10.996  0.149E+00  0.149E+00
 -10.986  0.147E+00  0.147E+00
 -10.976  0.146E+00  0.146E+00
 -10.966  0.145E+00  0.145E+00
 -10.956  0.143E+00  0.143E+00
 -10.946  0.141E+00  0.141E+00
 -10.936  0.140E+00  0.140E+00
 -10.926  0.138E+00  0.138E+00
 -10.916  0.136E+00  0.136E+00
 -10.906  0.134E+00  0.134E+00
 -10.896  0.132E+00  0.132E+00
 -10.886  0.130E+00  0.130E+00
 -10.876  0.128E+00  0.128E+00
 -10.866  0.126E+00  0.126E+00
 -10.856  0.124E+00  0.124E+00
 -10.846  0.122E+00  0.122E+00
 -10.836  0.120E+00  0.120E+00
 -10.826  0.118E+00  0.118E+00
 -10.816  0.116E+00  0.116E+00
 -10.806  0.113E+00  0.113E+00
 -10.796  0.111E+00  0.111E+00
 -10.786  0.109E+00  0.109E+00
 -10.776  0.107E+00  0.107E+00
 -10.766  0.104E+00  0.104E+00
 -10.756  0.102E+00  0.102E+00
 -10.746  0.999E-01  0.999E-01
 -10.736  0.976E-01  0.976E-01
 -10.726  0.953E-01  0.953E-01
 -10.716  0.930E-01  0.930E-01
 -10.706  0.908E-01  0.908E-01
 -10.696  0.885E-01  0.885E-01
 -10.686  0.863E-01  0.863E-01
 -10.676  0.841E-01  0.841E-01
 -10.666  0.819E-01  0.819E-01
 -10.656  0.797E-01  0.797E-01
 -10.646  0.775E-01  0.775E-01
 -10.636  0.754E-01  0.754E-01
 -10.626  0.733E-01  0.733E-01
 -10.616  0.712E-01  0.712E-01
 -10.606  0.692E-01  0.692E-01
 -10.596  0.671E-01  0.671E-01
 -10.586  0.651E-01  0.651E-01
 -10.576  0.632E-01  0.632E-01
 -10.566  0.612E-01  0.612E-01
 -10.556  0.593E-01  0.593E-01
 -10.546  0.575E-01  0.575E-01
 -10.536  0.557E-01  0.557E-01
 -10.526  0.539E-01  0.539E-01
 -10.516  0.521E-01  0.521E-01
 -10.506  0.504E-01  0.504E-01
 -10.496  0.487E-01  0.487E-01
 -10.486  0.471E-01  0.471E-01
 -10.476  0.455E-01  0.455E-01
 -10.466  0.439E-01  0.439E-01
 -10.456  0.424E-01  0.424E-01
 -10.446  0.409E-01  0.409E-01
 -10.436  0.394E-01  0.394E-01
 -10.426  0.380E-01  0.380E-01
 -10.416  0.366E-01  0.366E-01
 -10.406  0.353E-01  0.353E-01
 -10.396  0.340E-01  0.340E-01
 -10.386  0.327E-01  0.327E-01
 -10.376  0.315E-01  0.315E-01
 -10.366  0.303E-01  0.303E-01
 -10.356  0.291E-01  0.291E-01
 -10.346  0.280E-01  0.280E-01
 -10.336  0.269E-01  0.269E-01
 -10.326  0.258E-01  0.258E-01
 -10.316  0.248E-01  0.248E-01
 -10.306  0.238E-01  0.238E-01
 -10.296  0.228E-01  0.228E-01
 -10.286  0.218E-01  0.218E-01
 -10.276  0.209E-01  0.209E-01
 -10.266  0.200E-01  0.200E-01
 -10.256  0.191E-01  0.191E-01
 -10.246  0.183E-01  0.183E-01
 -10.236  0.175E-01  0.175E-01
 -10.226  0.167E-01  0.167E-01
 -10.216  0.159E-01  0.159E-01
 -10.206  0.151E-01  0.151E-01
 -10.196  0.144E-01  0.144E-01
 -10.186  0.137E-01  0.137E-01
 -10.176  0.130E-01  0.130E-01
 -10.166  0.123E-01  0.123E-01
 -10.156  0.117E-01  0.117E-01
 -10.146  0.110E-01  0.110E-01
 -10.136  0.104E-01  0.104E-01
 -10.126  0.980E-02  0.980E-02
 -10.116  0.920E-02  0.920E-02
 -10.106  0.862E-02  0.862E-02
 -10.096  0.806E-02  0.806E-02
 -10.086  0.751E-02  0.751E-02
 -10.076  0.697E-02  0.697E-02
 -10.066  0.644E-02  0.644E-02
 -10.056  0.592E-02  0.592E-02
 -10.046  0.542E-02  0.542E-02
 -10.036  0.492E-02  0.492E-02
 -10.026  0.443E-02  0.443E-02
 -10.016  0.396E-02  0.396E-02
 -10.006  0.349E-02  0.349E-02
  -9.996  0.303E-02  0.303E-02
  -9.986  0.258E-02  0.258E-02
  -9.976  0.213E-02  0.213E-02
  -9.966  0.170E-02  0.170E-02
  -9.956  0.127E-02  0.127E-02
  -9.946  0.846E-03  0.846E-03
  -9.936  0.429E-03  0.429E-03
  -9.926  0.185E-04  0.185E-04
  -9.916 -0.386E-03 -0.386E-03
  -9.906 -0.785E-03 -0.785E-03
  -9.896 -0.118E-02 -0.118E-02
  -9.886 -0.157E-02 -0.157E-02
  -9.876 -0.195E-02 -0.195E-02
  -9.866 -0.233E-02 -0.233E-02
  -9.856 -0.270E-02 -0.270E-02
  -9.846 -0.307E-02 -0.307E-02
  -9.836 -0.344E-02 -0.344E-02
  -9.826 -0.380E-02 -0.380E-02
  -9.816 -0.415E-02 -0.415E-02
  -9.806 -0.450E-02 -0.450E-02
  -9.796 -0.485E-02 -0.485E-02
  -9.786 -0.519E-02 -0.519E-02
  -9.776 -0.553E-02 -0.553E-02
  -9.766 -0.586E-02 -0.586E-02
  -9.756 -0.619E-02 -0.619E-02
  -9.746 -0.651E-02 -0.651E-02
  -9.736 -0.683E-02 -0.683E-02
  -9.726 -0.714E-02 -0.714E-02
  -9.716 -0.745E-02 -0.745E-02
  -9.706 -0.774E-02 -0.774E-02
  -9.696 -0.804E-02 -0.804E-02
  -9.686 -0.832E-02 -0.832E-02
  -9.676 -0.860E-02 -0.860E-02
  -9.666 -0.887E-02 -0.887E-02
  -9.656 -0.913E-02 -0.913E-02
  -9.646 -0.938E-02 -0.938E-02
  -9.636 -0.962E-02 -0.962E-02
  -9.626 -0.985E-02 -0.985E-02
  -9.616 -0.101E-01 -0.101E-01
  -9.606 -0.103E-01 -0.103E-01
  -9.596 -0.105E-01 -0.105E-01
  -9.586 -0.107E-01 -0.107E-01
  -9.576 -0.108E-01 -0.108E-01
  -9.566 -0.110E-01 -0.110E-01
  -9.556 -0.111E-01 -0.111E-01
  -9.546 -0.112E-01 -0.112E-01
  -9.536 -0.113E-01 -0.113E-01
  -9.526 -0.114E-01 -0.114E-01
  -9.516 -0.114E-01 -0.114E-01
  -9.506 -0.114E-01 -0.114E-01
  -9.496 -0.114E-01 -0.114E-01
  -9.486 -0.114E-01 -0.114E-01
  -9.476 -0.114E-01 -0.114E-01
  -9.466 -0.113E-01 -0.113E-01
  -9.456 -0.111E-01 -0.111E-01
  -9.446 -0.110E-01 -0.110E-01
  -9.436 -0.108E-01 -0.108E-01
  -9.426 -0.106E-01 -0.106E-01
  -9.416 -0.103E-01 -0.103E-01
  -9.406 -0.998E-02 -0.998E-02
  -9.396 -0.963E-02 -0.963E-02
  -9.386 -0.922E-02 -0.922E-02
  -9.376 -0.877E-02 -0.877E-02
  -9.366 -0.826E-02 -0.826E-02
  -9.356 -0.770E-02 -0.770E-02
  -9.346 -0.708E-02 -0.708E-02
  -9.336 -0.641E-02 -0.641E-02
  -9.326 -0.567E-02 -0.567E-02
  -9.316 -0.487E-02 -0.487E-02
  -9.306 -0.400E-02 -0.400E-02
  -9.296 -0.306E-02 -0.306E-02
  -9.286 -0.205E-02 -0.205E-02
  -9.276 -0.972E-03 -0.972E-03
  -9.266  0.188E-03  0.188E-03
  -9.256  0.143E-02  0.143E-02
  -9.246  0.275E-02  0.275E-02
  -9.236  0.415E-02  0.415E-02
  -9.226  0.565E-02  0.565E-02
  -9.216  0.723E-02  0.723E-02
  -9.206  0.890E-02  0.890E-02
  -9.196  0.107E-01  0.107E-01
  -9.186  0.125E-01  0.125E-01
  -9.176  0.145E-01  0.145E-01
  -9.166  0.166E-01  0.166E-01
  -9.156  0.187E-01  0.187E-01
  -9.146  0.210E-01  0.210E-01
  -9.136  0.234E-01  0.234E-01
  -9.126  0.258E-01  0.258E-01
  -9.116  0.284E-01  0.284E-01
  -9.106  0.311E-01  0.311E-01
  -9.096  0.340E-01  0.340E-01
  -9.086  0.369E-01  0.369E-01
  -9.076  0.399E-01  0.399E-01
  -9.066  0.431E-01  0.431E-01
  -9.056  0.464E-01  0.464E-01
  -9.046  0.498E-01  0.498E-01
  -9.036  0.533E-01  0.533E-01
  -9.026  0.569E-01  0.569E-01
  -9.016  0.606E-01  0.606E-01
  -9.006  0.645E-01  0.645E-01
  -8.996  0.685E-01  0.685E-01
  -8.986  0.725E-01  0.725E-01
  -8.976  0.767E-01  0.767E-01
  -8.966  0.811E-01  0.811E-01
  -8.956  0.855E-01  0.855E-01
  -8.946  0.900E-01  0.900E-01
  -8.936  0.946E-01  0.946E-01
  -8.926  0.994E-01  0.994E-01
  -8.916  0.104E+00  0.104E+00
  -8.906  0.109E+00  0.109E+00
  -8.896  0.114E+00  0.114E+00
  -8.886  0.119E+00  0.119E+00
  -8.876  0.125E+00  0.125E+00
  -8.866  0.130E+00  0.130E+00
  -8.856  0.135E+00  0.135E+00
  -8.846  0.141E+00  0.141E+00
  -8.836  0.146E+00  0.146E+00
  -8.826  0.152E+00  0.152E+00
  -8.816  0.157E+00  0.157E+00
  -8.806  0.163E+00  0.163E+00
  -8.796  0.169E+00  0.169E+00
  -8.786  0.175E+00  0.175E+00
  -8.776  0.181E+00  0.181E+00
  -8.766  0.186E+00  0.186E+00
  -8.756  0.192E+00  0.192E+00
  -8.746  0.198E+00  0.198E+00
  -8.736  0.204E+00  0.204E+00
  -8.726  0.210E+00  0.210E+00
  -8.716  0.216E+00  0.216E+00
  -8.706  0.222E+00  0.222E+00
  -8.696  0.228E+00  0.228E+00
  -8.686  0.234E+00  0.234E+00
  -8.676  0.239E+00  0.239E+00
  -8.666  0.245E+00  0.245E+00
  -8.656  0.251E+00  0.251E+00
  -8.646  0.257E+00  0.257E+00
  -8.636  0.262E+00  0.262E+00
  -8.626  0.268E+00  0.268E+00
  -8.616  0.273E+00  0.273E+00
  -8.606  0.279E+00  0.279E+00
  -8.596  0.284E+00  0.284E+00
  -8.586  0.289E+00  0.289E+00
  -8.576  0.294E+00  0.294E+00
  -8.566  0.299E+00  0.299E+00
  -8.556  0.304E+00  0.304E+00
  -8.546  0.309E+00  0.309E+00
  -8.536  0.313E+00  0.313E+00
  -8.526  0.318E+00  0.318E+00
  -8.516  0.322E+00  0.322E+00
  -8.506  0.326E+00  0.326E+00
  -8.496  0.330E+00  0.330E+00
  -8.486  0.334E+00  0.334E+00
  -8.476  0.337E+00  0.337E+00
  -8.466  0.341E+00  0.341E+00
  -8.456  0.344E+00  0.344E+00
  -8.446  0.347E+00  0.347E+00
  -8.436  0.350E+00  0.350E+00
  -8.426  0.352E+00  0.352E+00
  -8.416  0.355E+00  0.355E+00
  -8.406  0.357E+00  0.357E+00
  -8.396  0.359E+00  0.359E+00
  -8.386  0.360E+00  0.360E+00
  -8.376  0.362E+00  0.362E+00
  -8.366  0.363E+00  0.363E+00
  -8.356  0.364E+00  0.364E+00
  -8.346  0.365E+00  0.365E+00
  -8.336  0.365E+00  0.365E+00
  -8.326  0.366E+00  0.366E+00
  -8.316  0.366E+00  0.366E+00
  -8.306  0.365E+00  0.365E+00
  -8.296  0.365E+00  0.365E+00
  -8.286  0.364E+00  0.364E+00
  -8.276  0.363E+00  0.363E+00
  -8.266  0.362E+00  0.362E+00
  -8.256  0.361E+00  0.361E+00
  -8.246  0.359E+00  0.359E+00
  -8.236  0.358E+00  0.358E+00
  -8.226  0.356E+00  0.356E+00
  -8.216  0.353E+00  0.353E+00
  -8.206  0.351E+00  0.351E+00
  -8.196  0.348E+00  0.348E+00
  -8.186  0.345E+00  0.345E+00
  -8.176  0.342E+00  0.342E+00
  -8.166  0.339E+00  0.339E+00
  -8.156  0.335E+00  0.335E+00
  -8.146  0.332E+00  0.332E+00
  -8.136  0.328E+00  0.328E+00
  -8.126  0.324E+00  0.324E+00
  -8.116  0.319E+00  0.319E+00
  -8.106  0.315E+00  0.315E+00
  -8.096  0.310E+00  0.310E+00
  -8.086  0.306E+00  0.306E+00
  -8.076  0.301E+00  0.301E+00
  -8.066  0.296E+00  0.296E+00
  -8.056  0.291E+00  0.291E+00
  -8.046  0.285E+00  0.285E+00
  -8.036  0.280E+00  0.280E+00
  -8.026  0.275E+00  0.275E+00
  -8.016  0.269E+00  0.269E+00
  -8.006  0.263E+00  0.263E+00
  -7.996  0.258E+00  0.258E+00
  -7.986  0.252E+00  0.252E+00
  -7.976  0.246E+00  0.246E+00
  -7.966  0.240E+00  0.240E+00
  -7.956  0.234E+00  0.234E+00
  -7.946  0.228E+00  0.228E+00
  -7.936  0.222E+00  0.222E+00
  -7.926  0.216E+00  0.216E+00
  -7.916  0.210E+00  0.210E+00
  -7.906  0.204E+00  0.204E+00
  -7.896  0.197E+00  0.197E+00
  -7.886  0.191E+00  0.191E+00
  -7.876  0.185E+00  0.185E+00
  -7.866  0.179E+00  0.179E+00
  -7.856  0.173E+00  0.173E+00
  -7.846  0.167E+00  0.167E+00
  -7.836  0.161E+00  0.161E+00
  -7.826  0.155E+00  0.155E+00
  -7.816  0.149E+00  0.149E+00
  -7.806  0.143E+00  0.143E+00
  -7.796  0.137E+00  0.137E+00
  -7.786  0.132E+00  0.132E+00
  -7.776  0.126E+00  0.126E+00
  -7.766  0.120E+00  0.120E+00
  -7.756  0.115E+00  0.115E+00
  -7.746  0.110E+00  0.110E+00
  -7.736  0.104E+00  0.104E+00
  -7.726  0.990E-01  0.990E-01
  -7.716  0.939E-01  0.939E-01
  -7.706  0.889E-01  0.889E-01
  -7.696  0.839E-01  0.839E-01
  -7.686  0.791E-01  0.791E-01
  -7.676  0.744E-01  0.744E-01
  -7.666  0.698E-01  0.698E-01
  -7.656  0.653E-01  0.653E-01
  -7.646  0.609E-01  0.609E-01
  -7.636  0.567E-01  0.567E-01
  -7.626  0.525E-01  0.525E-01
  -7.616  0.485E-01  0.485E-01
  -7.606  0.446E-01  0.446E-01
  -7.596  0.408E-01  0.408E-01
  -7.586  0.372E-01  0.372E-01
  -7.576  0.336E-01  0.336E-01
  -7.566  0.302E-01  0.302E-01
  -7.556  0.269E-01  0.269E-01
  -7.546  0.238E-01  0.238E-01
  -7.536  0.207E-01  0.207E-01
  -7.526  0.178E-01  0.178E-01
  -7.516  0.150E-01  0.150E-01
  -7.506  0.123E-01  0.123E-01
  -7.496  0.972E-02  0.972E-02
  -7.486  0.727E-02  0.727E-02
  -7.476  0.492E-02  0.492E-02
  -7.466  0.270E-02  0.270E-02
  -7.456  0.581E-03  0.581E-03
  -7.446 -0.142E-02 -0.142E-02
  -7.436 -0.332E-02 -0.332E-02
  -7.426 -0.511E-02 -0.511E-02
  -7.416 -0.679E-02 -0.679E-02
  -7.406 -0.837E-02 -0.837E-02
  -7.396 -0.984E-02 -0.984E-02
  -7.386 -0.112E-01 -0.112E-01
  -7.376 -0.125E-01 -0.125E-01
  -7.366 -0.137E-01 -0.137E-01
  -7.356 -0.148E-01 -0.148E-01
  -7.346 -0.158E-01 -0.158E-01
  -7.336 -0.167E-01 -0.167E-01
  -7.326 -0.175E-01 -0.175E-01
  -7.316 -0.182E-01 -0.182E-01
  -7.306 -0.188E-01 -0.188E-01
  -7.296 -0.194E-01 -0.194E-01
  -7.286 -0.199E-01 -0.199E-01
  -7.276 -0.203E-01 -0.203E-01
  -7.266 -0.206E-01 -0.206E-01
  -7.256 -0.208E-01 -0.208E-01
  -7.246 -0.210E-01 -0.210E-01
  -7.236 -0.211E-01 -0.211E-01
  -7.226 -0.211E-01 -0.211E-01
  -7.216 -0.210E-01 -0.210E-01
  -7.206 -0.209E-01 -0.209E-01
  -7.196 -0.207E-01 -0.207E-01
  -7.186 -0.204E-01 -0.204E-01
  -7.176 -0.201E-01 -0.201E-01
  -7.166 -0.197E-01 -0.197E-01
  -7.156 -0.192E-01 -0.192E-01
  -7.146 -0.187E-01 -0.187E-01
  -7.136 -0.181E-01 -0.181E-01
  -7.126 -0.174E-01 -0.174E-01
  -7.116 -0.167E-01 -0.167E-01
  -7.106 -0.159E-01 -0.159E-01
  -7.096 -0.151E-01 -0.151E-01
  -7.086 -0.142E-01 -0.142E-01
  -7.076 -0.132E-01 -0.132E-01
  -7.066 -0.122E-01 -0.122E-01
  -7.056 -0.111E-01 -0.111E-01
  -7.046 -0.995E-02 -0.995E-02
  -7.036 -0.874E-02 -0.874E-02
  -7.026 -0.748E-02 -0.748E-02
  -7.016 -0.616E-02 -0.616E-02
  -7.006 -0.478E-02 -0.478E-02
  -6.996 -0.334E-02 -0.334E-02
  -6.986 -0.185E-02 -0.185E-02
  -6.976 -0.297E-03 -0.297E-03
  -6.966  0.131E-02  0.131E-02
  -6.956  0.298E-02  0.298E-02
  -6.946  0.470E-02  0.470E-02
  -6.936  0.648E-02  0.648E-02
  -6.926  0.831E-02  0.831E-02
  -6.916  0.102E-01  0.102E-01
  -6.906  0.121E-01  0.121E-01
  -6.896  0.141E-01  0.141E-01
  -6.886  0.162E-01  0.162E-01
  -6.876  0.183E-01  0.183E-01
  -6.866  0.204E-01  0.204E-01
  -6.856  0.227E-01  0.227E-01
  -6.846  0.249E-01  0.249E-01
  -6.836  0.272E-01  0.272E-01
  -6.826  0.296E-01  0.296E-01
  -6.816  0.320E-01  0.320E-01
  -6.806  0.344E-01  0.344E-01
  -6.796  0.369E-01  0.369E-01
  -6.786  0.394E-01  0.394E-01
  -6.776  0.420E-01  0.420E-01
  -6.766  0.446E-01  0.446E-01
  -6.756  0.473E-01  0.473E-01
  -6.746  0.499E-01  0.499E-01
  -6.736  0.527E-01  0.527E-01
  -6.726  0.554E-01  0.554E-01
  -6.716  0.582E-01  0.582E-01
  -6.706  0.610E-01  0.610E-01
  -6.696  0.638E-01  0.638E-01
  -6.686  0.667E-01  0.667E-01
  -6.676  0.695E-01  0.695E-01
  -6.666  0.724E-01  0.724E-01
  -6.656  0.753E-01  0.753E-01
  -6.646  0.782E-01  0.782E-01
  -6.636  0.811E-01  0.811E-01
  -6.626  0.841E-01  0.841E-01
  -6.616  0.870E-01  0.870E-01
  -6.606  0.899E-01  0.899E-01
  -6.596  0.928E-01  0.928E-01
  -6.586  0.957E-01  0.957E-01
  -6.576  0.986E-01  0.986E-01
  -6.566  0.101E+00  0.101E+00
  -6.556  0.104E+00  0.104E+00
  -6.546  0.107E+00  0.107E+00
  -6.536  0.110E+00  0.110E+00
  -6.526  0.113E+00  0.113E+00
  -6.516  0.115E+00  0.115E+00
  -6.506  0.118E+00  0.118E+00
  -6.496  0.121E+00  0.121E+00
  -6.486  0.123E+00  0.123E+00
  -6.476  0.126E+00  0.126E+00
  -6.466  0.128E+00  0.128E+00
  -6.456  0.131E+00  0.131E+00
  -6.446  0.133E+00  0.133E+00
  -6.436  0.135E+00  0.135E+00
  -6.426  0.138E+00  0.138E+00
  -6.416  0.140E+00  0.140E+00
  -6.406  0.142E+00  0.142E+00
  -6.396  0.144E+00  0.144E+00
  -6.386  0.146E+00  0.146E+00
  -6.376  0.148E+00  0.148E+00
  -6.366  0.149E+00  0.149E+00
  -6.356  0.151E+00  0.151E+00
  -6.346  0.152E+00  0.152E+00
  -6.336  0.154E+00  0.154E+00
  -6.326  0.155E+00  0.155E+00
  -6.316  0.156E+00  0.156E+00
  -6.306  0.158E+00  0.158E+00
  -6.296  0.159E+00  0.159E+00
  -6.286  0.160E+00  0.160E+00
  -6.276  0.160E+00  0.160E+00
  -6.266  0.161E+00  0.161E+00
  -6.256  0.162E+00  0.162E+00
  -6.246  0.162E+00  0.162E+00
  -6.236  0.163E+00  0.163E+00
  -6.226  0.163E+00  0.163E+00
  -6.216  0.163E+00  0.163E+00
  -6.206  0.163E+00  0.163E+00
  -6.196  0.163E+00  0.163E+00
  -6.186  0.163E+00  0.163E+00
  -6.176  0.162E+00  0.162E+00
  -6.166  0.162E+00  0.162E+00
  -6.156  0.161E+00  0.161E+00
  -6.146  0.161E+00  0.161E+00
  -6.136  0.160E+00  0.160E+00
  -6.126  0.159E+00  0.159E+00
  -6.116  0.158E+00  0.158E+00
  -6.106  0.157E+00  0.157E+00
  -6.096  0.156E+00  0.156E+00
  -6.086  0.154E+00  0.154E+00
  -6.076  0.153E+00  0.153E+00
  -6.066  0.151E+00  0.151E+00
  -6.056  0.150E+00  0.150E+00
  -6.046  0.148E+00  0.148E+00
  -6.036  0.146E+00  0.146E+00
  -6.026  0.144E+00  0.144E+00
  -6.016  0.143E+00  0.143E+00
  -6.006  0.140E+00  0.140E+00
  -5.996  0.138E+00  0.138E+00
  -5.986  0.136E+00  0.136E+00
  -5.976  0.134E+00  0.134E+00
  -5.966  0.132E+00  0.132E+00
  -5.956  0.129E+00  0.129E+00
  -5.946  0.127E+00  0.127E+00
  -5.936  0.124E+00  0.124E+00
  -5.926  0.122E+00  0.122E+00
  -5.916  0.119E+00  0.119E+00
  -5.906  0.116E+00  0.116E+00
  -5.896  0.114E+00  0.114E+00
  -5.886  0.111E+00  0.111E+00
  -5.876  0.108E+00  0.108E+00
  -5.866  0.106E+00  0.106E+00
  -5.856  0.103E+00  0.103E+00
  -5.846  0.100E+00  0.100E+00
  -5.836  0.971E-01  0.971E-01
  -5.826  0.943E-01  0.943E-01
  -5.816  0.915E-01  0.915E-01
  -5.806  0.886E-01  0.886E-01
  -5.796  0.858E-01  0.858E-01
  -5.786  0.829E-01  0.829E-01
  -5.776  0.801E-01  0.801E-01
  -5.766  0.773E-01  0.773E-01
  -5.756  0.745E-01  0.745E-01
  -5.746  0.717E-01  0.717E-01
  -5.736  0.689E-01  0.689E-01
  -5.726  0.662E-01  0.662E-01
  -5.716  0.635E-01  0.635E-01
  -5.706  0.608E-01  0.608E-01
  -5.696  0.581E-01  0.581E-01
  -5.686  0.555E-01  0.555E-01
  -5.676  0.530E-01  0.530E-01
  -5.666  0.504E-01  0.504E-01
  -5.656  0.479E-01  0.479E-01
  -5.646  0.455E-01  0.455E-01
  -5.636  0.431E-01  0.431E-01
  -5.626  0.408E-01  0.408E-01
  -5.616  0.385E-01  0.385E-01
  -5.606  0.362E-01  0.362E-01
  -5.596  0.340E-01  0.340E-01
  -5.586  0.319E-01  0.319E-01
  -5.576  0.298E-01  0.298E-01
  -5.566  0.278E-01  0.278E-01
  -5.556  0.259E-01  0.259E-01
  -5.546  0.240E-01  0.240E-01
  -5.536  0.222E-01  0.222E-01
  -5.526  0.204E-01  0.204E-01
  -5.516  0.187E-01  0.187E-01
  -5.506  0.170E-01  0.170E-01
  -5.496  0.154E-01  0.154E-01
  -5.486  0.139E-01  0.139E-01
  -5.476  0.125E-01  0.125E-01
  -5.466  0.111E-01  0.111E-01
  -5.456  0.973E-02  0.973E-02
  -5.446  0.846E-02  0.846E-02
  -5.436  0.725E-02  0.725E-02
  -5.426  0.611E-02  0.611E-02
  -5.416  0.502E-02  0.502E-02
  -5.406  0.399E-02  0.399E-02
  -5.396  0.303E-02  0.303E-02
  -5.386  0.212E-02  0.212E-02
  -5.376  0.128E-02  0.128E-02
  -5.366  0.488E-03  0.488E-03
  -5.356 -0.244E-03 -0.244E-03
  -5.346 -0.920E-03 -0.920E-03
  -5.336 -0.154E-02 -0.154E-02
  -5.326 -0.211E-02 -0.211E-02
  -5.316 -0.262E-02 -0.262E-02
  -5.306 -0.308E-02 -0.308E-02
  -5.296 -0.349E-02 -0.349E-02
  -5.286 -0.385E-02 -0.385E-02
  -5.276 -0.417E-02 -0.417E-02
  -5.266 -0.443E-02 -0.443E-02
  -5.256 -0.465E-02 -0.465E-02
  -5.246 -0.482E-02 -0.482E-02
  -5.236 -0.495E-02 -0.495E-02
  -5.226 -0.504E-02 -0.504E-02
  -5.216 -0.508E-02 -0.508E-02
  -5.206 -0.509E-02 -0.509E-02
  -5.196 -0.505E-02 -0.505E-02
  -5.186 -0.498E-02 -0.498E-02
  -5.176 -0.487E-02 -0.487E-02
  -5.166 -0.473E-02 -0.473E-02
  -5.156 -0.455E-02 -0.455E-02
  -5.146 -0.434E-02 -0.434E-02
  -5.136 -0.409E-02 -0.409E-02
  -5.126 -0.382E-02 -0.382E-02
  -5.116 -0.352E-02 -0.352E-02
  -5.106 -0.318E-02 -0.318E-02
  -5.096 -0.282E-02 -0.282E-02
  -5.086 -0.244E-02 -0.244E-02
  -5.076 -0.203E-02 -0.203E-02
  -5.066 -0.159E-02 -0.159E-02
  -5.056 -0.113E-02 -0.113E-02
  -5.046 -0.655E-03 -0.655E-03
  -5.036 -0.155E-03 -0.155E-03
  -5.026  0.365E-03  0.365E-03
  -5.016  0.903E-03  0.903E-03
  -5.006  0.146E-02  0.146E-02
  -4.996  0.203E-02  0.203E-02
  -4.986  0.262E-02  0.262E-02
  -4.976  0.322E-02  0.322E-02
  -4.966  0.384E-02  0.384E-02
  -4.956  0.447E-02  0.447E-02
  -4.946  0.511E-02  0.511E-02
  -4.936  0.576E-02  0.576E-02
  -4.926  0.642E-02  0.642E-02
  -4.916  0.709E-02  0.709E-02
  -4.906  0.777E-02  0.777E-02
  -4.896  0.845E-02  0.845E-02
  -4.886  0.914E-02  0.914E-02
  -4.876  0.983E-02  0.983E-02
  -4.866  0.105E-01  0.105E-01
  -4.856  0.112E-01  0.112E-01
  -4.846  0.119E-01  0.119E-01
  -4.836  0.126E-01  0.126E-01
  -4.826  0.134E-01  0.134E-01
  -4.816  0.141E-01  0.141E-01
  -4.806  0.148E-01  0.148E-01
  -4.796  0.155E-01  0.155E-01
  -4.786  0.162E-01  0.162E-01
  -4.776  0.169E-01  0.169E-01
  -4.766  0.175E-01  0.175E-01
  -4.756  0.182E-01  0.182E-01
  -4.746  0.189E-01  0.189E-01
  -4.736  0.196E-01  0.196E-01
  -4.726  0.202E-01  0.202E-01
  -4.716  0.209E-01  0.209E-01
  -4.706  0.215E-01  0.215E-01
  -4.696  0.222E-01  0.222E-01
  -4.686  0.228E-01  0.228E-01
  -4.676  0.234E-01  0.234E-01
  -4.666  0.240E-01  0.240E-01
  -4.656  0.246E-01  0.246E-01
  -4.646  0.251E-01  0.251E-01
  -4.636  0.257E-01  0.257E-01
  -4.626  0.262E-01  0.262E-01
  -4.616  0.267E-01  0.267E-01
  -4.606  0.272E-01  0.272E-01
  -4.596  0.277E-01  0.277E-01
  -4.586  0.282E-01  0.282E-01
  -4.576  0.286E-01  0.286E-01
  -4.566  0.291E-01  0.291E-01
  -4.556  0.295E-01  0.295E-01
  -4.546  0.298E-01  0.298E-01
  -4.536  0.302E-01  0.302E-01
  -4.526  0.305E-01  0.305E-01
  -4.516  0.309E-01  0.309E-01
  -4.506  0.312E-01  0.312E-01
  -4.496  0.314E-01  0.314E-01
  -4.486  0.317E-01  0.317E-01
  -4.476  0.319E-01  0.319E-01
  -4.466  0.321E-01  0.321E-01
  -4.456  0.323E-01  0.323E-01
  -4.446  0.324E-01  0.324E-01
  -4.436  0.326E-01  0.326E-01
  -4.426  0.327E-01  0.327E-01
  -4.416  0.327E-01  0.327E-01
  -4.406  0.328E-01  0.328E-01
  -4.396  0.328E-01  0.328E-01
  -4.386  0.328E-01  0.328E-01
  -4.376  0.328E-01  0.328E-01
  -4.366  0.328E-01  0.328E-01
  -4.356  0.327E-01  0.327E-01
  -4.346  0.326E-01  0.326E-01
  -4.336  0.325E-01  0.325E-01
  -4.326  0.323E-01  0.323E-01
  -4.316  0.322E-01  0.322E-01
  -4.306  0.320E-01  0.320E-01
  -4.296  0.318E-01  0.318E-01
  -4.286  0.316E-01  0.316E-01
  -4.276  0.313E-01  0.313E-01
  -4.266  0.310E-01  0.310E-01
  -4.256  0.307E-01  0.307E-01
  -4.246  0.304E-01  0.304E-01
  -4.236  0.301E-01  0.301E-01
  -4.226  0.297E-01  0.297E-01
  -4.216  0.294E-01  0.294E-01
  -4.206  0.290E-01  0.290E-01
  -4.196  0.286E-01  0.286E-01
  -4.186  0.282E-01  0.282E-01
  -4.176  0.277E-01  0.277E-01
  -4.166  0.273E-01  0.273E-01
  -4.156  0.268E-01  0.268E-01
  -4.146  0.263E-01  0.263E-01
  -4.136  0.259E-01  0.259E-01
  -4.126  0.254E-01  0.254E-01
  -4.116  0.249E-01  0.249E-01
  -4.106  0.243E-01  0.243E-01
  -4.096  0.238E-01  0.238E-01
  -4.086  0.233E-01  0.233E-01
  -4.076  0.227E-01  0.227E-01
  -4.066  0.222E-01  0.222E-01
  -4.056  0.216E-01  0.216E-01
  -4.046  0.211E-01  0.211E-01
  -4.036  0.205E-01  0.205E-01
  -4.026  0.199E-01  0.199E-01
  -4.016  0.194E-01  0.194E-01
  -4.006  0.188E-01  0.188E-01
  -3.996  0.182E-01  0.182E-01
  -3.986  0.177E-01  0.177E-01
  -3.976  0.171E-01  0.171E-01
  -3.966  0.165E-01  0.165E-01
  -3.956  0.159E-01  0.159E-01
  -3.946  0.154E-01  0.154E-01
  -3.936  0.148E-01  0.148E-01
  -3.926  0.143E-01  0.143E-01
  -3.916  0.137E-01  0.137E-01
  -3.906  0.132E-01  0.132E-01
  -3.896  0.126E-01  0.126E-01
  -3.886  0.121E-01  0.121E-01
  -3.876  0.116E-01  0.116E-01
  -3.866  0.110E-01  0.110E-01
  -3.856  0.105E-01  0.105E-01
  -3.846  0.100E-01  0.100E-01
  -3.836  0.953E-02  0.953E-02
  -3.826  0.905E-02  0.905E-02
  -3.816  0.857E-02  0.857E-02
  -3.806  0.811E-02  0.811E-02
  -3.796  0.765E-02  0.765E-02
  -3.786  0.721E-02  0.721E-02
  -3.776  0.677E-02  0.677E-02
  -3.766  0.635E-02  0.635E-02
  -3.756  0.594E-02  0.594E-02
  -3.746  0.554E-02  0.554E-02
  -3.736  0.515E-02  0.515E-02
  -3.726  0.478E-02  0.478E-02
  -3.716  0.441E-02  0.441E-02
  -3.706  0.406E-02  0.406E-02
  -3.696  0.372E-02  0.372E-02
  -3.686  0.339E-02  0.339E-02
  -3.676  0.308E-02  0.308E-02
  -3.666  0.277E-02  0.277E-02
  -3.656  0.248E-02  0.248E-02
  -3.646  0.220E-02  0.220E-02
  -3.636  0.193E-02  0.193E-02
  -3.626  0.167E-02  0.167E-02
  -3.616  0.142E-02  0.142E-02
  -3.606  0.119E-02  0.119E-02
  -3.596  0.967E-03  0.967E-03
  -3.586  0.754E-03  0.754E-03
  -3.576  0.553E-03  0.553E-03
  -3.566  0.362E-03  0.362E-03
  -3.556  0.182E-03  0.182E-03
  -3.546  0.124E-04  0.124E-04
  -3.536 -0.147E-03 -0.147E-03
  -3.526 -0.297E-03 -0.297E-03
  -3.516 -0.438E-03 -0.438E-03
  -3.506 -0.569E-03 -0.569E-03
  -3.496 -0.691E-03 -0.691E-03
  -3.486 -0.804E-03 -0.804E-03
  -3.476 -0.909E-03 -0.909E-03
  -3.466 -0.101E-02 -0.101E-02
  -3.456 -0.109E-02 -0.109E-02
  -3.446 -0.118E-02 -0.118E-02
  -3.436 -0.125E-02 -0.125E-02
  -3.426 -0.131E-02 -0.131E-02
  -3.416 -0.137E-02 -0.137E-02
  -3.406 -0.143E-02 -0.143E-02
  -3.396 -0.147E-02 -0.147E-02
  -3.386 -0.151E-02 -0.151E-02
  -3.376 -0.155E-02 -0.155E-02
  -3.366 -0.158E-02 -0.158E-02
  -3.356 -0.160E-02 -0.160E-02
  -3.346 -0.162E-02 -0.162E-02
  -3.336 -0.164E-02 -0.164E-02
  -3.326 -0.165E-02 -0.165E-02
  -3.316 -0.165E-02 -0.165E-02
  -3.306 -0.166E-02 -0.166E-02
  -3.296 -0.166E-02 -0.166E-02
  -3.286 -0.165E-02 -0.165E-02
  -3.276 -0.164E-02 -0.164E-02
  -3.266 -0.163E-02 -0.163E-02
  -3.256 -0.162E-02 -0.162E-02
  -3.246 -0.160E-02 -0.160E-02
  -3.236 -0.158E-02 -0.158E-02
  -3.226 -0.156E-02 -0.156E-02
  -3.216 -0.154E-02 -0.154E-02
  -3.206 -0.152E-02 -0.152E-02
  -3.196 -0.149E-02 -0.149E-02
  -3.186 -0.146E-02 -0.146E-02
  -3.176 -0.143E-02 -0.143E-02
  -3.166 -0.141E-02 -0.141E-02
  -3.156 -0.137E-02 -0.137E-02
  -3.146 -0.134E-02 -0.134E-02
  -3.136 -0.131E-02 -0.131E-02
  -3.126 -0.128E-02 -0.128E-02
  -3.116 -0.124E-02 -0.124E-02
  -3.106 -0.121E-02 -0.121E-02
  -3.096 -0.118E-02 -0.118E-02
  -3.086 -0.114E-02 -0.114E-02
  -3.076 -0.111E-02 -0.111E-02
  -3.066 -0.108E-02 -0.108E-02
  -3.056 -0.104E-02 -0.104E-02
  -3.046 -0.101E-02 -0.101E-02
  -3.036 -0.974E-03 -0.974E-03
  -3.026 -0.940E-03 -0.940E-03
  -3.016 -0.908E-03 -0.908E-03
  -3.006 -0.875E-03 -0.875E-03
  -2.996 -0.843E-03 -0.843E-03
  -2.986 -0.812E-03 -0.812E-03
  -2.976 -0.781E-03 -0.781E-03
  -2.966 -0.750E-03 -0.750E-03
  -2.956 -0.720E-03 -0.720E-03
  -2.946 -0.691E-03 -0.691E-03
  -2.936 -0.663E-03 -0.663E-03
  -2.926 -0.635E-03 -0.635E-03
  -2.916 -0.608E-03 -0.608E-03
  -2.906 -0.581E-03 -0.581E-03
  -2.896 -0.555E-03 -0.555E-03
  -2.886 -0.530E-03 -0.530E-03
  -2.876 -0.506E-03 -0.506E-03
  -2.866 -0.482E-03 -0.482E-03
  -2.856 -0.459E-03 -0.459E-03
  -2.846 -0.437E-03 -0.437E-03
  -2.836 -0.416E-03 -0.416E-03
  -2.826 -0.395E-03 -0.395E-03
  -2.816 -0.375E-03 -0.375E-03
  -2.806 -0.356E-03 -0.356E-03
  -2.796 -0.337E-03 -0.337E-03
  -2.786 -0.319E-03 -0.319E-03
  -2.776 -0.302E-03 -0.302E-03
  -2.766 -0.285E-03 -0.285E-03
  -2.756 -0.269E-03 -0.269E-03
  -2.746 -0.254E-03 -0.254E-03
  -2.736 -0.239E-03 -0.239E-03
  -2.726 -0.225E-03 -0.225E-03
  -2.716 -0.212E-03 -0.212E-03
  -2.706 -0.199E-03 -0.199E-03
  -2.696 -0.186E-03 -0.186E-03
  -2.686 -0.175E-03 -0.175E-03
  -2.676 -0.163E-03 -0.163E-03
  -2.666 -0.152E-03 -0.152E-03
  -2.656 -0.142E-03 -0.142E-03
  -2.646 -0.132E-03 -0.132E-03
  -2.636 -0.123E-03 -0.123E-03
  -2.626 -0.114E-03 -0.114E-03
  -2.616 -0.105E-03 -0.105E-03
  -2.606 -0.970E-04 -0.970E-04
  -2.596 -0.892E-04 -0.892E-04
  -2.586 -0.818E-04 -0.818E-04
  -2.576 -0.748E-04 -0.748E-04
  -2.566 -0.681E-04 -0.681E-04
  -2.556 -0.617E-04 -0.617E-04
  -2.546 -0.557E-04 -0.557E-04
  -2.536 -0.499E-04 -0.499E-04
  -2.526 -0.445E-04 -0.445E-04
  -2.516 -0.393E-04 -0.393E-04
  -2.506 -0.343E-04 -0.343E-04
  -2.496 -0.296E-04 -0.296E-04
  -2.486 -0.252E-04 -0.252E-04
  -2.476 -0.209E-04 -0.209E-04
  -2.466 -0.169E-04 -0.169E-04
  -2.456 -0.131E-04 -0.131E-04
  -2.446 -0.945E-05 -0.945E-05
  -2.436 -0.599E-05 -0.599E-05
  -2.426 -0.271E-05 -0.271E-05
  -2.416  0.420E-06  0.420E-06
  -2.406  0.340E-05  0.340E-05
  -2.396  0.623E-05  0.623E-05
  -2.386  0.893E-05  0.893E-05
  -2.376  0.115E-04  0.115E-04
  -2.366  0.140E-04  0.140E-04
  -2.356  0.163E-04  0.163E-04
  -2.346  0.185E-04  0.185E-04
  -2.336  0.207E-04  0.207E-04
  -2.326  0.227E-04  0.227E-04
  -2.316  0.247E-04  0.247E-04
  -2.306  0.266E-04  0.266E-04
  -2.296  0.284E-04  0.284E-04
  -2.286  0.301E-04  0.301E-04
  -2.276  0.318E-04  0.318E-04
  -2.266  0.334E-04  0.334E-04
  -2.256  0.349E-04  0.349E-04
  -2.246  0.364E-04  0.364E-04
  -2.236  0.379E-04  0.379E-04
  -2.226  0.393E-04  0.393E-04
  -2.216  0.406E-04  0.406E-04
  -2.206  0.419E-04  0.419E-04
  -2.196  0.432E-04  0.432E-04
  -2.186  0.444E-04  0.444E-04
  -2.176  0.456E-04  0.456E-04
  -2.166  0.467E-04  0.467E-04
  -2.156  0.479E-04  0.479E-04
  -2.146  0.490E-04  0.490E-04
  -2.136  0.500E-04  0.500E-04
  -2.126  0.511E-04  0.511E-04
  -2.116  0.521E-04  0.521E-04
  -2.106  0.530E-04  0.530E-04
  -2.096  0.540E-04  0.540E-04
  -2.086  0.549E-04  0.549E-04
  -2.076  0.558E-04  0.558E-04
  -2.066  0.567E-04  0.567E-04
  -2.056  0.576E-04  0.576E-04
  -2.046  0.584E-04  0.584E-04
  -2.036  0.592E-04  0.592E-04
  -2.026  0.600E-04  0.600E-04
  -2.016  0.607E-04  0.607E-04
  -2.006  0.615E-04  0.615E-04
  -1.996  0.622E-04  0.622E-04
  -1.986  0.629E-04  0.629E-04
  -1.976  0.635E-04  0.635E-04
  -1.966  0.642E-04  0.642E-04
  -1.956  0.648E-04  0.648E-04
  -1.946  0.654E-04  0.654E-04
  -1.936  0.660E-04  0.660E-04
  -1.926  0.665E-04  0.665E-04
  -1.916  0.670E-04  0.670E-04
  -1.906  0.675E-04  0.675E-04
  -1.896  0.680E-04  0.680E-04
  -1.886  0.684E-04  0.684E-04
  -1.876  0.688E-04  0.688E-04
  -1.866  0.692E-04  0.692E-04
  -1.856  0.695E-04  0.695E-04
  -1.846  0.699E-04  0.699E-04
  -1.836  0.702E-04  0.702E-04
  -1.826  0.704E-04  0.704E-04
  -1.816  0.707E-04  0.707E-04
  -1.806  0.709E-04  0.709E-04
  -1.796  0.711E-04  0.711E-04
  -1.786  0.712E-04  0.712E-04
  -1.776  0.714E-04  0.714E-04
  -1.766  0.715E-04  0.715E-04
  -1.756  0.716E-04  0.716E-04
  -1.746  0.716E-04  0.716E-04
  -1.736  0.716E-04  0.716E-04
  -1.726  0.716E-04  0.716E-04
  -1.716  0.716E-04  0.716E-04
  -1.706  0.715E-04  0.715E-04
  -1.696  0.714E-04  0.714E-04
  -1.686  0.713E-04  0.713E-04
  -1.676  0.711E-04  0.711E-04
  -1.666  0.710E-04  0.710E-04
  -1.656  0.708E-04  0.708E-04
  -1.646  0.706E-04  0.706E-04
  -1.636  0.703E-04  0.703E-04
  -1.626  0.700E-04  0.700E-04
  -1.616  0.697E-04  0.697E-04
  -1.606  0.694E-04  0.694E-04
  -1.596  0.691E-04  0.691E-04
  -1.586  0.687E-04  0.687E-04
  -1.576  0.684E-04  0.684E-04
  -1.566  0.680E-04  0.680E-04
  -1.556  0.675E-04  0.675E-04
  -1.546  0.671E-04  0.671E-04
  -1.536  0.666E-04  0.666E-04
  -1.526  0.662E-04  0.662E-04
  -1.516  0.657E-04  0.657E-04
  -1.506  0.652E-04  0.652E-04
  -1.496  0.647E-04  0.647E-04
  -1.486  0.641E-04  0.641E-04
  -1.476  0.636E-04  0.636E-04
  -1.466  0.630E-04  0.630E-04
  -1.456  0.625E-04  0.625E-04
  -1.446  0.619E-04  0.619E-04
  -1.436  0.613E-04  0.613E-04
  -1.426  0.607E-04  0.607E-04
  -1.416  0.601E-04  0.601E-04
  -1.406  0.594E-04  0.594E-04
  -1.396  0.588E-04  0.588E-04
  -1.386  0.582E-04  0.582E-04
  -1.376  0.576E-04  0.576E-04
  -1.366  0.569E-04  0.569E-04
  -1.356  0.563E-04  0.563E-04
  -1.346  0.556E-04  0.556E-04
  -1.336  0.549E-04  0.549E-04
  -1.326  0.543E-04  0.543E-04
  -1.316  0.536E-04  0.536E-04
  -1.306  0.530E-04  0.530E-04
  -1.296  0.523E-04  0.523E-04
  -1.286  0.516E-04  0.516E-04
  -1.276  0.510E-04  0.510E-04
  -1.266  0.503E-04  0.503E-04
  -1.256  0.496E-04  0.496E-04
  -1.246  0.489E-04  0.489E-04
  -1.236  0.483E-04  0.483E-04
  -1.226  0.476E-04  0.476E-04
  -1.216  0.469E-04  0.469E-04
  -1.206  0.463E-04  0.463E-04
  -1.196  0.456E-04  0.456E-04
  -1.186  0.449E-04  0.449E-04
  -1.176  0.443E-04  0.443E-04
  -1.166  0.436E-04  0.436E-04
  -1.156  0.430E-04  0.430E-04
  -1.146  0.423E-04  0.423E-04
  -1.136  0.417E-04  0.417E-04
  -1.126  0.410E-04  0.410E-04
  -1.116  0.404E-04  0.404E-04
  -1.106  0.398E-04  0.398E-04
  -1.096  0.391E-04  0.391E-04
  -1.086  0.385E-04  0.385E-04
  -1.076  0.379E-04  0.379E-04
  -1.066  0.373E-04  0.373E-04
  -1.056  0.367E-04  0.367E-04
  -1.046  0.361E-04  0.361E-04
  -1.036  0.355E-04  0.355E-04
  -1.026  0.349E-04  0.349E-04
  -1.016  0.344E-04  0.344E-04
  -1.006  0.338E-04  0.338E-04
  -0.996  0.333E-04  0.333E-04
  -0.986  0.328E-04  0.328E-04
  -0.976  0.322E-04  0.322E-04
  -0.966  0.317E-04  0.317E-04
  -0.956  0.313E-04  0.313E-04
  -0.946  0.308E-04  0.308E-04
  -0.936  0.303E-04  0.303E-04
  -0.926  0.299E-04  0.299E-04
  -0.916  0.295E-04  0.295E-04
  -0.906  0.291E-04  0.291E-04
  -0.896  0.288E-04  0.288E-04
  -0.886  0.284E-04  0.284E-04
  -0.876  0.281E-04  0.281E-04
  -0.866  0.278E-04  0.278E-04
  -0.856  0.276E-04  0.276E-04
  -0.846  0.274E-04  0.274E-04
  -0.836  0.272E-04  0.272E-04
  -0.826  0.271E-04  0.271E-04
  -0.816  0.270E-04  0.270E-04
  -0.806  0.269E-04  0.269E-04
  -0.796  0.269E-04  0.269E-04
  -0.786  0.269E-04  0.269E-04
  -0.776  0.270E-04  0.270E-04
  -0.766  0.271E-04  0.271E-04
  -0.756  0.273E-04  0.273E-04
  -0.746  0.275E-04  0.275E-04
  -0.736  0.278E-04  0.278E-04
  -0.726  0.282E-04  0.282E-04
  -0.716  0.286E-04  0.286E-04
  -0.706  0.291E-04  0.291E-04
  -0.696  0.296E-04  0.296E-04
  -0.686  0.302E-04  0.302E-04
  -0.676  0.309E-04  0.309E-04
  -0.666  0.317E-04  0.317E-04
  -0.656  0.325E-04  0.325E-04
  -0.646  0.335E-04  0.335E-04
  -0.636  0.345E-04  0.345E-04
  -0.626  0.356E-04  0.356E-04
  -0.616  0.367E-04  0.367E-04
  -0.606  0.380E-04  0.380E-04
  -0.596  0.394E-04  0.394E-04
  -0.586  0.408E-04  0.408E-04
  -0.576  0.424E-04  0.424E-04
  -0.566  0.440E-04  0.440E-04
  -0.556  0.458E-04  0.458E-04
  -0.546  0.476E-04  0.476E-04
  -0.536  0.495E-04  0.495E-04
  -0.526  0.516E-04  0.516E-04
  -0.516  0.537E-04  0.537E-04
  -0.506  0.560E-04  0.560E-04
  -0.496  0.583E-04  0.583E-04
  -0.486  0.608E-04  0.608E-04
  -0.476  0.634E-04  0.634E-04
  -0.466  0.660E-04  0.660E-04
  -0.456  0.688E-04  0.688E-04
  -0.446  0.717E-04  0.717E-04
  -0.436  0.747E-04  0.747E-04
  -0.426  0.778E-04  0.778E-04
  -0.416  0.809E-04  0.809E-04
  -0.406  0.842E-04  0.842E-04
  -0.396  0.876E-04  0.876E-04
  -0.386  0.911E-04  0.911E-04
  -0.376  0.947E-04  0.947E-04
  -0.366  0.984E-04  0.984E-04
  -0.356  0.102E-03  0.102E-03
  -0.346  0.106E-03  0.106E-03
  -0.336  0.110E-03  0.110E-03
  -0.326  0.114E-03  0.114E-03
  -0.316  0.118E-03  0.118E-03
  -0.306  0.122E-03  0.122E-03
  -0.296  0.126E-03  0.126E-03
  -0.286  0.131E-03  0.131E-03
  -0.276  0.135E-03  0.135E-03
  -0.266  0.139E-03  0.139E-03
  -0.256  0.144E-03  0.144E-03
  -0.246  0.148E-03  0.148E-03
  -0.236  0.153E-03  0.153E-03
  -0.226  0.157E-03  0.157E-03
  -0.216  0.162E-03  0.162E-03
  -0.206  0.167E-03  0.167E-03
  -0.196  0.171E-03  0.171E-03
  -0.186  0.176E-03  0.176E-03
  -0.176  0.180E-03  0.180E-03
  -0.166  0.185E-03  0.185E-03
  -0.156  0.190E-03  0.190E-03
  -0.146  0.194E-03  0.194E-03
  -0.136  0.199E-03  0.199E-03
  -0.126  0.203E-03  0.203E-03
  -0.116  0.207E-03  0.207E-03
  -0.106  0.212E-03  0.212E-03
  -0.096  0.216E-03  0.216E-03
  -0.086  0.220E-03  0.220E-03
  -0.076  0.224E-03  0.224E-03
  -0.066  0.228E-03  0.228E-03
  -0.056  0.232E-03  0.232E-03
  -0.046  0.236E-03  0.236E-03
  -0.036  0.239E-03  0.239E-03
  -0.026  0.243E-03  0.243E-03
  -0.016  0.246E-03  0.246E-03
  -0.006  0.249E-03  0.249E-03
   0.004  0.252E-03  0.252E-03
   0.014  0.255E-03  0.255E-03
   0.024  0.257E-03  0.257E-03
   0.034  0.259E-03  0.259E-03
   0.044  0.261E-03  0.261E-03
   0.054  0.263E-03  0.263E-03
   0.064  0.265E-03  0.265E-03
   0.074  0.266E-03  0.266E-03
   0.084  0.267E-03  0.267E-03
   0.094  0.268E-03  0.268E-03
   0.104  0.268E-03  0.268E-03
   0.114  0.268E-03  0.268E-03
   0.124  0.268E-03  0.268E-03
   0.134  0.267E-03  0.267E-03
   0.144  0.266E-03  0.266E-03
   0.154  0.265E-03  0.265E-03
   0.164  0.263E-03  0.263E-03
   0.174  0.261E-03  0.261E-03
   0.184  0.258E-03  0.258E-03
   0.194  0.255E-03  0.255E-03
   0.204  0.251E-03  0.251E-03
   0.214  0.247E-03  0.247E-03
   0.224  0.243E-03  0.243E-03
   0.234  0.238E-03  0.238E-03
   0.244  0.232E-03  0.232E-03
   0.254  0.226E-03  0.226E-03
   0.264  0.219E-03  0.219E-03
   0.274  0.212E-03  0.212E-03
   0.284  0.204E-03  0.204E-03
   0.294  0.195E-03  0.195E-03
   0.304  0.185E-03  0.185E-03
   0.314  0.175E-03  0.175E-03
   0.324  0.165E-03  0.165E-03
   0.334  0.153E-03  0.153E-03
   0.344  0.141E-03  0.141E-03
   0.354  0.128E-03  0.128E-03
   0.364  0.114E-03  0.114E-03
   0.374  0.988E-04  0.988E-04
   0.384  0.830E-04  0.830E-04
   0.394  0.664E-04  0.664E-04
   0.404  0.487E-04  0.487E-04
   0.414  0.301E-04  0.301E-04
   0.424  0.105E-04  0.105E-04
   0.434 -0.103E-04 -0.103E-04
   0.444 -0.321E-04 -0.321E-04
   0.454 -0.550E-04 -0.550E-04
   0.464 -0.792E-04 -0.792E-04
   0.474 -0.105E-03 -0.105E-03
   0.484 -0.131E-03 -0.131E-03
   0.494 -0.159E-03 -0.159E-03
   0.504 -0.188E-03 -0.188E-03
   0.514 -0.219E-03 -0.219E-03
   0.524 -0.251E-03 -0.251E-03
   0.534 -0.285E-03 -0.285E-03
   0.544 -0.320E-03 -0.320E-03
   0.554 -0.357E-03 -0.357E-03
   0.564 -0.395E-03 -0.395E-03
   0.574 -0.435E-03 -0.435E-03
   0.584 -0.477E-03 -0.477E-03
   0.594 -0.521E-03 -0.521E-03
   0.604 -0.566E-03 -0.566E-03
   0.614 -0.613E-03 -0.613E-03
   0.624 -0.663E-03 -0.663E-03
   0.634 -0.714E-03 -0.714E-03
   0.644 -0.767E-03 -0.767E-03
   0.654 -0.823E-03 -0.823E-03
   0.664 -0.880E-03 -0.880E-03
   0.674 -0.940E-03 -0.940E-03
   0.684 -0.100E-02 -0.100E-02
   0.694 -0.107E-02 -0.107E-02
   0.704 -0.113E-02 -0.113E-02
   0.714 -0.120E-02 -0.120E-02
   0.724 -0.127E-02 -0.127E-02
   0.734 -0.135E-02 -0.135E-02
   0.744 -0.143E-02 -0.143E-02
   0.754 -0.150E-02 -0.150E-02
   0.764 -0.159E-02 -0.159E-02
   0.774 -0.167E-02 -0.167E-02
   0.784 -0.176E-02 -0.176E-02
   0.794 -0.185E-02 -0.185E-02
   0.804 -0.194E-02 -0.194E-02
   0.814 -0.204E-02 -0.204E-02
   0.824 -0.214E-02 -0.214E-02
   0.834 -0.224E-02 -0.224E-02
   0.844 -0.234E-02 -0.234E-02
   0.854 -0.245E-02 -0.245E-02
   0.864 -0.256E-02 -0.256E-02
   0.874 -0.267E-02 -0.267E-02
   0.884 -0.279E-02 -0.279E-02
   0.894 -0.291E-02 -0.291E-02
   0.904 -0.303E-02 -0.303E-02
   0.914 -0.315E-02 -0.315E-02
   0.924 -0.328E-02 -0.328E-02
   0.934 -0.340E-02 -0.340E-02
   0.944 -0.353E-02 -0.353E-02
   0.954 -0.367E-02 -0.367E-02
   0.964 -0.380E-02 -0.380E-02
   0.974 -0.394E-02 -0.394E-02
   0.984 -0.408E-02 -0.408E-02
   0.994 -0.422E-02 -0.422E-02
   1.004 -0.436E-02 -0.436E-02
   1.014 -0.450E-02 -0.450E-02
   1.024 -0.465E-02 -0.465E-02
   1.034 -0.479E-02 -0.479E-02
   1.044 -0.494E-02 -0.494E-02
   1.054 -0.509E-02 -0.509E-02
   1.064 -0.523E-02 -0.523E-02
   1.074 -0.538E-02 -0.538E-02
   1.084 -0.552E-02 -0.552E-02
   1.094 -0.566E-02 -0.566E-02
   1.104 -0.581E-02 -0.581E-02
   1.114 -0.595E-02 -0.595E-02
   1.124 -0.608E-02 -0.608E-02
   1.134 -0.622E-02 -0.622E-02
   1.144 -0.635E-02 -0.635E-02
   1.154 -0.647E-02 -0.647E-02
   1.164 -0.660E-02 -0.660E-02
   1.174 -0.671E-02 -0.671E-02
   1.184 -0.682E-02 -0.682E-02
   1.194 -0.693E-02 -0.693E-02
   1.204 -0.702E-02 -0.702E-02
   1.214 -0.711E-02 -0.711E-02
   1.224 -0.719E-02 -0.719E-02
   1.234 -0.726E-02 -0.726E-02
   1.244 -0.732E-02 -0.732E-02
   1.254 -0.737E-02 -0.737E-02
   1.264 -0.740E-02 -0.740E-02
   1.274 -0.742E-02 -0.742E-02
   1.284 -0.743E-02 -0.743E-02
   1.294 -0.742E-02 -0.742E-02
   1.304 -0.740E-02 -0.740E-02
   1.314 -0.736E-02 -0.736E-02
   1.324 -0.729E-02 -0.729E-02
   1.334 -0.721E-02 -0.721E-02
   1.344 -0.711E-02 -0.711E-02
   1.354 -0.699E-02 -0.699E-02
   1.364 -0.684E-02 -0.684E-02
   1.374 -0.667E-02 -0.667E-02
   1.384 -0.647E-02 -0.647E-02
   1.394 -0.624E-02 -0.624E-02
   1.404 -0.599E-02 -0.599E-02
   1.414 -0.571E-02 -0.571E-02
   1.424 -0.539E-02 -0.539E-02
   1.434 -0.504E-02 -0.504E-02
   1.444 -0.466E-02 -0.466E-02
   1.454 -0.424E-02 -0.424E-02
   1.464 -0.379E-02 -0.379E-02
   1.474 -0.330E-02 -0.330E-02
   1.484 -0.276E-02 -0.276E-02
   1.494 -0.219E-02 -0.219E-02
   1.504 -0.157E-02 -0.157E-02
   1.514 -0.912E-03 -0.912E-03
   1.524 -0.207E-03 -0.207E-03
   1.534  0.545E-03  0.545E-03
   1.544  0.135E-02  0.135E-02
   1.554  0.219E-02  0.219E-02
   1.564  0.309E-02  0.309E-02
   1.574  0.405E-02  0.405E-02
   1.584  0.505E-02  0.505E-02
   1.594  0.611E-02  0.611E-02
   1.604  0.722E-02  0.722E-02
   1.614  0.839E-02  0.839E-02
   1.624  0.962E-02  0.962E-02
   1.634  0.109E-01  0.109E-01
   1.644  0.123E-01  0.123E-01
   1.654  0.137E-01  0.137E-01
   1.664  0.151E-01  0.151E-01
   1.674  0.167E-01  0.167E-01
   1.684  0.182E-01  0.182E-01
   1.694  0.199E-01  0.199E-01
   1.704  0.216E-01  0.216E-01
   1.714  0.234E-01  0.234E-01
   1.724  0.252E-01  0.252E-01
   1.734  0.271E-01  0.271E-01
   1.744  0.291E-01  0.291E-01
   1.754  0.311E-01  0.311E-01
   1.764  0.332E-01  0.332E-01
   1.774  0.354E-01  0.354E-01
   1.784  0.376E-01  0.376E-01
   1.794  0.399E-01  0.399E-01
   1.804  0.422E-01  0.422E-01
   1.814  0.447E-01  0.447E-01
   1.824  0.471E-01  0.471E-01
   1.834  0.496E-01  0.496E-01
   1.844  0.522E-01  0.522E-01
   1.854  0.549E-01  0.549E-01
   1.864  0.576E-01  0.576E-01
   1.874  0.603E-01  0.603E-01
   1.884  0.631E-01  0.631E-01
   1.894  0.659E-01  0.659E-01
   1.904  0.688E-01  0.688E-01
   1.914  0.718E-01  0.718E-01
   1.924  0.748E-01  0.748E-01
   1.934  0.778E-01  0.778E-01
   1.944  0.808E-01  0.808E-01
   1.954  0.839E-01  0.839E-01
   1.964  0.871E-01  0.871E-01
   1.974  0.902E-01  0.902E-01
   1.984  0.934E-01  0.934E-01
   1.994  0.966E-01  0.966E-01
   2.004  0.999E-01  0.999E-01
   2.014  0.103E+00  0.103E+00
   2.024  0.106E+00  0.106E+00
   2.034  0.110E+00  0.110E+00
   2.044  0.113E+00  0.113E+00
   2.054  0.116E+00  0.116E+00
   2.064  0.120E+00  0.120E+00
   2.074  0.123E+00  0.123E+00
   2.084  0.126E+00  0.126E+00
   2.094  0.129E+00  0.129E+00
   2.104  0.133E+00  0.133E+00
   2.114  0.136E+00  0.136E+00
   2.124  0.139E+00  0.139E+00
   2.134  0.142E+00  0.142E+00
   2.144  0.146E+00  0.146E+00
   2.154  0.149E+00  0.149E+00
   2.164  0.152E+00  0.152E+00
   2.174  0.155E+00  0.155E+00
   2.184  0.158E+00  0.158E+00
   2.194  0.161E+00  0.161E+00
   2.204  0.164E+00  0.164E+00
   2.214  0.167E+00  0.167E+00
   2.224  0.169E+00  0.169E+00
   2.234  0.172E+00  0.172E+00
   2.244  0.175E+00  0.175E+00
   2.254  0.178E+00  0.178E+00
   2.264  0.180E+00  0.180E+00
   2.274  0.183E+00  0.183E+00
   2.284  0.185E+00  0.185E+00
   2.294  0.187E+00  0.187E+00
   2.304  0.190E+00  0.190E+00
   2.314  0.192E+00  0.192E+00
   2.324  0.194E+00  0.194E+00
   2.334  0.196E+00  0.196E+00
   2.344  0.198E+00  0.198E+00
   2.354  0.200E+00  0.200E+00
   2.364  0.201E+00  0.201E+00
   2.374  0.203E+00  0.203E+00
   2.384  0.205E+00  0.205E+00
   2.394  0.206E+00  0.206E+00
   2.404  0.207E+00  0.207E+00
   2.414  0.209E+00  0.209E+00
   2.424  0.210E+00  0.210E+00
   2.434  0.211E+00  0.211E+00
   2.444  0.212E+00  0.212E+00
   2.454  0.213E+00  0.213E+00
   2.464  0.213E+00  0.213E+00
   2.474  0.214E+00  0.214E+00
   2.484  0.214E+00  0.214E+00
   2.494  0.215E+00  0.215E+00
   2.504  0.215E+00  0.215E+00
   2.514  0.216E+00  0.216E+00
   2.524  0.216E+00  0.216E+00
   2.534  0.216E+00  0.216E+00
   2.544  0.216E+00  0.216E+00
   2.554  0.216E+00  0.216E+00
   2.564  0.215E+00  0.215E+00
   2.574  0.215E+00  0.215E+00
   2.584  0.215E+00  0.215E+00
   2.594  0.214E+00  0.214E+00
   2.604  0.213E+00  0.213E+00
   2.614  0.213E+00  0.213E+00
   2.624  0.212E+00  0.212E+00
   2.634  0.211E+00  0.211E+00
   2.644  0.210E+00  0.210E+00
   2.654  0.209E+00  0.209E+00
   2.664  0.208E+00  0.208E+00
   2.674  0.207E+00  0.207E+00
   2.684  0.206E+00  0.206E+00
   2.694  0.205E+00  0.205E+00
   2.704  0.203E+00  0.203E+00
   2.714  0.202E+00  0.202E+00
   2.724  0.201E+00  0.201E+00
   2.734  0.199E+00  0.199E+00
   2.744  0.197E+00  0.197E+00
   2.754  0.196E+00  0.196E+00
   2.764  0.194E+00  0.194E+00
   2.774  0.193E+00  0.193E+00
   2.784  0.191E+00  0.191E+00
   2.794  0.189E+00  0.189E+00
   2.804  0.187E+00  0.187E+00
   2.814  0.185E+00  0.185E+00
   2.824  0.183E+00  0.183E+00
   2.834  0.182E+00  0.182E+00
   2.844  0.180E+00  0.180E+00
   2.854  0.178E+00  0.178E+00
   2.864  0.176E+00  0.176E+00
   2.874  0.174E+00  0.174E+00
   2.884  0.171E+00  0.171E+00
   2.894  0.169E+00  0.169E+00
   2.904  0.167E+00  0.167E+00
   2.914  0.165E+00  0.165E+00
   2.924  0.163E+00  0.163E+00
   2.934  0.161E+00  0.161E+00
   2.944  0.159E+00  0.159E+00
   2.954  0.157E+00  0.157E+00
   2.964  0.155E+00  0.155E+00
   2.974  0.152E+00  0.152E+00
   2.984  0.150E+00  0.150E+00
   2.994  0.148E+00  0.148E+00
   3.004  0.146E+00  0.146E+00
   3.014  0.144E+00  0.144E+00
   3.024  0.141E+00  0.141E+00
   3.034  0.139E+00  0.139E+00
   3.044  0.137E+00  0.137E+00
   3.054  0.135E+00  0.135E+00
   3.064  0.133E+00  0.133E+00
   3.074  0.131E+00  0.131E+00
   3.084  0.128E+00  0.128E+00
   3.094  0.126E+00  0.126E+00
   3.104  0.124E+00  0.124E+00
   3.114  0.122E+00  0.122E+00
   3.124  0.120E+00  0.120E+00
   3.134  0.118E+00  0.118E+00
   3.144  0.115E+00  0.115E+00
   3.154  0.113E+00  0.113E+00
   3.164  0.111E+00  0.111E+00
   3.174  0.109E+00  0.109E+00
   3.184  0.107E+00  0.107E+00
   3.194  0.105E+00  0.105E+00
   3.204  0.103E+00  0.103E+00
   3.214  0.101E+00  0.101E+00
   3.224  0.985E-01  0.985E-01
   3.234  0.964E-01  0.964E-01
   3.244  0.944E-01  0.944E-01
   3.254  0.923E-01  0.923E-01
   3.264  0.903E-01  0.903E-01
   3.274  0.882E-01  0.882E-01
   3.284  0.862E-01  0.862E-01
   3.294  0.842E-01  0.842E-01
   3.304  0.822E-01  0.822E-01
   3.314  0.802E-01  0.802E-01
   3.324  0.782E-01  0.782E-01
   3.334  0.762E-01  0.762E-01
   3.344  0.743E-01  0.743E-01
   3.354  0.723E-01  0.723E-01
   3.364  0.704E-01  0.704E-01
   3.374  0.685E-01  0.685E-01
   3.384  0.666E-01  0.666E-01
   3.394  0.647E-01  0.647E-01
   3.404  0.628E-01  0.628E-01
   3.414  0.610E-01  0.610E-01
   3.424  0.591E-01  0.591E-01
   3.434  0.573E-01  0.573E-01
   3.444  0.555E-01  0.555E-01
   3.454  0.537E-01  0.537E-01
   3.464  0.520E-01  0.520E-01
   3.474  0.502E-01  0.502E-01
   3.484  0.485E-01  0.485E-01
   3.494  0.468E-01  0.468E-01
   3.504  0.451E-01  0.451E-01
   3.514  0.434E-01  0.434E-01
   3.524  0.418E-01  0.418E-01
   3.534  0.402E-01  0.402E-01
   3.544  0.386E-01  0.386E-01
   3.554  0.370E-01  0.370E-01
   3.564  0.354E-01  0.354E-01
   3.574  0.339E-01  0.339E-01
   3.584  0.324E-01  0.324E-01
   3.594  0.310E-01  0.310E-01
   3.604  0.295E-01  0.295E-01
   3.614  0.281E-01  0.281E-01
   3.624  0.267E-01  0.267E-01
   3.634  0.254E-01  0.254E-01
   3.644  0.240E-01  0.240E-01
   3.654  0.227E-01  0.227E-01
   3.664  0.215E-01  0.215E-01
   3.674  0.202E-01  0.202E-01
   3.684  0.190E-01  0.190E-01
   3.694  0.178E-01  0.178E-01
   3.704  0.167E-01  0.167E-01
   3.714  0.156E-01  0.156E-01
   3.724  0.145E-01  0.145E-01
   3.734  0.134E-01  0.134E-01
   3.744  0.124E-01  0.124E-01
   3.754  0.114E-01  0.114E-01
   3.764  0.104E-01  0.104E-01
   3.774  0.949E-02  0.949E-02
   3.784  0.859E-02  0.859E-02
   3.794  0.772E-02  0.772E-02
   3.804  0.689E-02  0.689E-02
   3.814  0.608E-02  0.608E-02
   3.824  0.530E-02  0.530E-02
   3.834  0.456E-02  0.456E-02
   3.844  0.384E-02  0.384E-02
   3.854  0.316E-02  0.316E-02
   3.864  0.250E-02  0.250E-02
   3.874  0.188E-02  0.188E-02
   3.884  0.128E-02  0.128E-02
   3.894  0.711E-03  0.711E-03
   3.904  0.172E-03  0.172E-03
   3.914 -0.340E-03 -0.340E-03
   3.924 -0.825E-03 -0.825E-03
   3.934 -0.128E-02 -0.128E-02
   3.944 -0.171E-02 -0.171E-02
   3.954 -0.212E-02 -0.212E-02
   3.964 -0.250E-02 -0.250E-02
   3.974 -0.286E-02 -0.286E-02
   3.984 -0.319E-02 -0.319E-02
   3.994 -0.350E-02 -0.350E-02
   4.004 -0.378E-02 -0.378E-02
   4.014 -0.404E-02 -0.404E-02
   4.024 -0.429E-02 -0.429E-02
   4.034 -0.451E-02 -0.451E-02
   4.044 -0.471E-02 -0.471E-02
   4.054 -0.489E-02 -0.489E-02
   4.064 -0.505E-02 -0.505E-02
   4.074 -0.520E-02 -0.520E-02
   4.084 -0.533E-02 -0.533E-02
   4.094 -0.544E-02 -0.544E-02
   4.104 -0.553E-02 -0.553E-02
   4.114 -0.561E-02 -0.561E-02
   4.124 -0.568E-02 -0.568E-02
   4.134 -0.573E-02 -0.573E-02
   4.144 -0.576E-02 -0.576E-02
   4.154 -0.579E-02 -0.579E-02
   4.164 -0.580E-02 -0.580E-02
   4.174 -0.580E-02 -0.580E-02
   4.184 -0.579E-02 -0.579E-02
   4.194 -0.578E-02 -0.578E-02
   4.204 -0.575E-02 -0.575E-02
   4.214 -0.571E-02 -0.571E-02
   4.224 -0.566E-02 -0.566E-02
   4.234 -0.561E-02 -0.561E-02
   4.244 -0.555E-02 -0.555E-02
   4.254 -0.548E-02 -0.548E-02
   4.264 -0.541E-02 -0.541E-02
   4.274 -0.533E-02 -0.533E-02
   4.284 -0.525E-02 -0.525E-02
   4.294 -0.516E-02 -0.516E-02
   4.304 -0.507E-02 -0.507E-02
   4.314 -0.497E-02 -0.497E-02
   4.324 -0.487E-02 -0.487E-02
   4.334 -0.477E-02 -0.477E-02
   4.344 -0.467E-02 -0.467E-02
   4.354 -0.456E-02 -0.456E-02
   4.364 -0.445E-02 -0.445E-02
   4.374 -0.434E-02 -0.434E-02
   4.384 -0.423E-02 -0.423E-02
   4.394 -0.412E-02 -0.412E-02
   4.404 -0.400E-02 -0.400E-02
   4.414 -0.389E-02 -0.389E-02
   4.424 -0.378E-02 -0.378E-02
   4.434 -0.367E-02 -0.367E-02
   4.444 -0.356E-02 -0.356E-02
   4.454 -0.344E-02 -0.344E-02
   4.464 -0.333E-02 -0.333E-02
   4.474 -0.322E-02 -0.322E-02
   4.484 -0.312E-02 -0.312E-02
   4.494 -0.301E-02 -0.301E-02
   4.504 -0.290E-02 -0.290E-02
   4.514 -0.280E-02 -0.280E-02
   4.524 -0.270E-02 -0.270E-02
   4.534 -0.260E-02 -0.260E-02
   4.544 -0.250E-02 -0.250E-02
   4.554 -0.241E-02 -0.241E-02
   4.564 -0.231E-02 -0.231E-02
   4.574 -0.222E-02 -0.222E-02
   4.584 -0.213E-02 -0.213E-02
   4.594 -0.204E-02 -0.204E-02
   4.604 -0.196E-02 -0.196E-02
   4.614 -0.188E-02 -0.188E-02
   4.624 -0.180E-02 -0.180E-02
   4.634 -0.172E-02 -0.172E-02
   4.644 -0.164E-02 -0.164E-02
   4.654 -0.157E-02 -0.157E-02
   4.664 -0.150E-02 -0.150E-02
   4.674 -0.143E-02 -0.143E-02
   4.684 -0.136E-02 -0.136E-02
   4.694 -0.130E-02 -0.130E-02
   4.704 -0.124E-02 -0.124E-02
   4.714 -0.118E-02 -0.118E-02
   4.724 -0.112E-02 -0.112E-02
   4.734 -0.107E-02 -0.107E-02
   4.744 -0.101E-02 -0.101E-02
   4.754 -0.963E-03 -0.963E-03
   4.764 -0.914E-03 -0.914E-03
   4.774 -0.867E-03 -0.867E-03
   4.784 -0.822E-03 -0.822E-03
   4.794 -0.779E-03 -0.779E-03
   4.804 -0.737E-03 -0.737E-03
   4.814 -0.698E-03 -0.698E-03
   4.824 -0.660E-03 -0.660E-03
   4.834 -0.624E-03 -0.624E-03
   4.844 -0.590E-03 -0.590E-03
   4.854 -0.557E-03 -0.557E-03
   4.864 -0.526E-03 -0.526E-03
   4.874 -0.496E-03 -0.496E-03
   4.884 -0.467E-03 -0.467E-03
   4.894 -0.440E-03 -0.440E-03
   4.904 -0.415E-03 -0.415E-03
   4.914 -0.390E-03 -0.390E-03
   4.924 -0.367E-03 -0.367E-03
   4.934 -0.345E-03 -0.345E-03
   4.944 -0.325E-03 -0.325E-03
   4.954 -0.305E-03 -0.305E-03
   4.964 -0.286E-03 -0.286E-03
   4.974 -0.268E-03 -0.268E-03
   4.984 -0.252E-03 -0.252E-03
   4.994 -0.236E-03 -0.236E-03
   5.004 -0.221E-03 -0.221E-03
   5.014 -0.207E-03 -0.207E-03
   5.024 -0.194E-03 -0.194E-03
   5.034 -0.181E-03 -0.181E-03
   5.044 -0.169E-03 -0.169E-03
   5.054 -0.158E-03 -0.158E-03
   5.064 -0.148E-03 -0.148E-03
   5.074 -0.138E-03 -0.138E-03
   5.084 -0.129E-03 -0.129E-03
   5.094 -0.120E-03 -0.120E-03
   5.104 -0.112E-03 -0.112E-03
   5.114 -0.104E-03 -0.104E-03
   5.124 -0.969E-04 -0.969E-04
   5.134 -0.902E-04 -0.902E-04
   5.144 -0.839E-04 -0.839E-04
   5.154 -0.780E-04 -0.780E-04
   5.164 -0.725E-04 -0.725E-04
   5.174 -0.673E-04 -0.673E-04
   5.184 -0.625E-04 -0.625E-04
   5.194 -0.579E-04 -0.579E-04
   5.204 -0.537E-04 -0.537E-04
   5.214 -0.498E-04 -0.498E-04
   5.224 -0.461E-04 -0.461E-04
   5.234 -0.427E-04 -0.427E-04
   5.244 -0.395E-04 -0.395E-04
   5.254 -0.366E-04 -0.366E-04
   5.264 -0.338E-04 -0.338E-04
   5.274 -0.312E-04 -0.312E-04
   5.284 -0.288E-04 -0.288E-04
   5.294 -0.266E-04 -0.266E-04
