# E (eV)   ldos(E)   pdos(E)   
 -27.116 -0.792E-07 -0.792E-07
 -27.106 -0.855E-07 -0.855E-07
 -27.096 -0.922E-07 -0.922E-07
 -27.086 -0.994E-07 -0.994E-07
 -27.076 -0.107E-06 -0.107E-06
 -27.066 -0.115E-06 -0.115E-06
 -27.056 -0.124E-06 -0.124E-06
 -27.046 -0.134E-06 -0.134E-06
 -27.036 -0.144E-06 -0.144E-06
 -27.026 -0.154E-06 -0.154E-06
 -27.016 -0.166E-06 -0.166E-06
 -27.006 -0.178E-06 -0.178E-06
 -26.996 -0.191E-06 -0.191E-06
 -26.986 -0.205E-06 -0.205E-06
 -26.976 -0.219E-06 -0.219E-06
 -26.966 -0.235E-06 -0.235E-06
 -26.956 -0.252E-06 -0.252E-06
 -26.946 -0.269E-06 -0.269E-06
 -26.936 -0.288E-06 -0.288E-06
 -26.926 -0.308E-06 -0.308E-06
 -26.916 -0.329E-06 -0.329E-06
 -26.906 -0.351E-06 -0.351E-06
 -26.896 -0.375E-06 -0.375E-06
 -26.886 -0.400E-06 -0.400E-06
 -26.876 -0.426E-06 -0.426E-06
 -26.866 -0.454E-06 -0.454E-06
 -26.856 -0.484E-06 -0.484E-06
 -26.846 -0.515E-06 -0.515E-06
 -26.836 -0.548E-06 -0.548E-06
 -26.826 -0.582E-06 -0.582E-06
 -26.816 -0.619E-06 -0.619E-06
 -26.806 -0.657E-06 -0.657E-06
 -26.796 -0.697E-06 -0.697E-06
 -26.786 -0.740E-06 -0.740E-06
 -26.776 -0.784E-06 -0.784E-06
 -26.766 -0.831E-06 -0.831E-06
 -26.756 -0.879E-06 -0.879E-06
 -26.746 -0.931E-06 -0.931E-06
 -26.736 -0.984E-06 -0.984E-06
 -26.726 -0.104E-05 -0.104E-05
 -26.716 -0.110E-05 -0.110E-05
 -26.706 -0.116E-05 -0.116E-05
 -26.696 -0.122E-05 -0.122E-05
 -26.686 -0.129E-05 -0.129E-05
 -26.676 -0.136E-05 -0.136E-05
 -26.666 -0.143E-05 -0.143E-05
 -26.656 -0.151E-05 -0.151E-05
 -26.646 -0.159E-05 -0.159E-05
 -26.636 -0.167E-05 -0.167E-05
 -26.626 -0.175E-05 -0.175E-05
 -26.616 -0.184E-05 -0.184E-05
 -26.606 -0.193E-05 -0.193E-05
 -26.596 -0.202E-05 -0.202E-05
 -26.586 -0.212E-05 -0.212E-05
 -26.576 -0.222E-05 -0.222E-05
 -26.566 -0.232E-05 -0.232E-05
 -26.556 -0.243E-05 -0.243E-05
 -26.546 -0.253E-05 -0.253E-05
 -26.536 -0.265E-05 -0.265E-05
 -26.526 -0.276E-05 -0.276E-05
 -26.516 -0.288E-05 -0.288E-05
 -26.506 -0.300E-05 -0.300E-05
 -26.496 -0.312E-05 -0.312E-05
 -26.486 -0.325E-05 -0.325E-05
 -26.476 -0.338E-05 -0.338E-05
 -26.466 -0.351E-05 -0.351E-05
 -26.456 -0.364E-05 -0.364E-05
 -26.446 -0.378E-05 -0.378E-05
 -26.436 -0.391E-05 -0.391E-05
 -26.426 -0.405E-05 -0.405E-05
 -26.416 -0.419E-05 -0.419E-05
 -26.406 -0.434E-05 -0.434E-05
 -26.396 -0.448E-05 -0.448E-05
 -26.386 -0.462E-05 -0.462E-05
 -26.376 -0.476E-05 -0.476E-05
 -26.366 -0.491E-05 -0.491E-05
 -26.356 -0.505E-05 -0.505E-05
 -26.346 -0.519E-05 -0.519E-05
 -26.336 -0.534E-05 -0.534E-05
 -26.326 -0.547E-05 -0.547E-05
 -26.316 -0.561E-05 -0.561E-05
 -26.306 -0.575E-05 -0.575E-05
 -26.296 -0.588E-05 -0.588E-05
 -26.286 -0.601E-05 -0.601E-05
 -26.276 -0.613E-05 -0.613E-05
 -26.266 -0.625E-05 -0.625E-05
 -26.256 -0.636E-05 -0.636E-05
 -26.246 -0.647E-05 -0.647E-05
 -26.236 -0.657E-05 -0.657E-05
 -26.226 -0.666E-05 -0.666E-05
 -26.216 -0.674E-05 -0.674E-05
 -26.206 -0.682E-05 -0.682E-05
 -26.196 -0.688E-05 -0.688E-05
 -26.186 -0.694E-05 -0.694E-05
 -26.176 -0.698E-05 -0.698E-05
 -26.166 -0.701E-05 -0.701E-05
 -26.156 -0.702E-05 -0.702E-05
 -26.146 -0.702E-05 -0.702E-05
 -26.136 -0.701E-05 -0.701E-05
 -26.126 -0.697E-05 -0.697E-05
 -26.116 -0.693E-05 -0.693E-05
 -26.106 -0.686E-05 -0.686E-05
 -26.096 -0.677E-05 -0.677E-05
 -26.086 -0.666E-05 -0.666E-05
 -26.076 -0.653E-05 -0.653E-05
 -26.066 -0.637E-05 -0.637E-05
 -26.056 -0.620E-05 -0.620E-05
 -26.046 -0.599E-05 -0.599E-05
 -26.036 -0.576E-05 -0.576E-05
 -26.026 -0.550E-05 -0.550E-05
 -26.016 -0.522E-05 -0.522E-05
 -26.006 -0.490E-05 -0.490E-05
 -25.996 -0.455E-05 -0.455E-05
 -25.986 -0.417E-05 -0.417E-05
 -25.976 -0.376E-05 -0.376E-05
 -25.966 -0.331E-05 -0.331E-05
 -25.956 -0.283E-05 -0.283E-05
 -25.946 -0.231E-05 -0.231E-05
 -25.936 -0.175E-05 -0.175E-05
 -25.926 -0.115E-05 -0.115E-05
 -25.916 -0.516E-06 -0.516E-06
 -25.906  0.161E-06  0.161E-06
 -25.896  0.879E-06  0.879E-06
 -25.886  0.164E-05  0.164E-05
 -25.876  0.244E-05  0.244E-05
 -25.866  0.329E-05  0.329E-05
 -25.856  0.418E-05  0.418E-05
 -25.846  0.512E-05  0.512E-05
 -25.836  0.610E-05  0.610E-05
 -25.826  0.713E-05  0.713E-05
 -25.816  0.821E-05  0.821E-05
 -25.806  0.933E-05  0.933E-05
 -25.796  0.105E-04  0.105E-04
 -25.786  0.117E-04  0.117E-04
 -25.776  0.130E-04  0.130E-04
 -25.766  0.143E-04  0.143E-04
 -25.756  0.157E-04  0.157E-04
 -25.746  0.171E-04  0.171E-04
 -25.736  0.185E-04  0.185E-04
 -25.726  0.200E-04  0.200E-04
 -25.716  0.216E-04  0.216E-04
 -25.706  0.232E-04  0.232E-04
 -25.696  0.248E-04  0.248E-04
 -25.686  0.265E-04  0.265E-04
 -25.676  0.282E-04  0.282E-04
 -25.666  0.300E-04  0.300E-04
 -25.656  0.318E-04  0.318E-04
 -25.646  0.337E-04  0.337E-04
 -25.636  0.356E-04  0.356E-04
 -25.626  0.375E-04  0.375E-04
 -25.616  0.395E-04  0.395E-04
 -25.606  0.415E-04  0.415E-04
 -25.596  0.435E-04  0.435E-04
 -25.586  0.456E-04  0.456E-04
 -25.576  0.477E-04  0.477E-04
 -25.566  0.498E-04  0.498E-04
 -25.556  0.519E-04  0.519E-04
 -25.546  0.541E-04  0.541E-04
 -25.536  0.563E-04  0.563E-04
 -25.526  0.585E-04  0.585E-04
 -25.516  0.607E-04  0.607E-04
 -25.506  0.630E-04  0.630E-04
 -25.496  0.652E-04  0.652E-04
 -25.486  0.675E-04  0.675E-04
 -25.476  0.697E-04  0.697E-04
 -25.466  0.720E-04  0.720E-04
 -25.456  0.742E-04  0.742E-04
 -25.446  0.765E-04  0.765E-04
 -25.436  0.787E-04  0.787E-04
 -25.426  0.809E-04  0.809E-04
 -25.416  0.831E-04  0.831E-04
 -25.406  0.853E-04  0.853E-04
 -25.396  0.875E-04  0.875E-04
 -25.386  0.897E-04  0.897E-04
 -25.376  0.918E-04  0.918E-04
 -25.366  0.939E-04  0.939E-04
 -25.356  0.959E-04  0.959E-04
 -25.346  0.980E-04  0.980E-04
 -25.336  0.999E-04  0.999E-04
 -25.326  0.102E-03  0.102E-03
 -25.316  0.104E-03  0.104E-03
 -25.306  0.106E-03  0.106E-03
 -25.296  0.107E-03  0.107E-03
 -25.286  0.109E-03  0.109E-03
 -25.276  0.111E-03  0.111E-03
 -25.266  0.112E-03  0.112E-03
 -25.256  0.114E-03  0.114E-03
 -25.246  0.115E-03  0.115E-03
 -25.236  0.117E-03  0.117E-03
 -25.226  0.118E-03  0.118E-03
 -25.216  0.119E-03  0.119E-03
 -25.206  0.121E-03  0.121E-03
 -25.196  0.122E-03  0.122E-03
 -25.186  0.123E-03  0.123E-03
 -25.176  0.124E-03  0.124E-03
 -25.166  0.125E-03  0.125E-03
 -25.156  0.125E-03  0.125E-03
 -25.146  0.126E-03  0.126E-03
 -25.136  0.127E-03  0.127E-03
 -25.126  0.127E-03  0.127E-03
 -25.116  0.128E-03  0.128E-03
 -25.106  0.128E-03  0.128E-03
 -25.096  0.128E-03  0.128E-03
 -25.086  0.128E-03  0.128E-03
 -25.076  0.128E-03  0.128E-03
 -25.066  0.128E-03  0.128E-03
 -25.056  0.128E-03  0.128E-03
 -25.046  0.128E-03  0.128E-03
 -25.036  0.128E-03  0.128E-03
 -25.026  0.127E-03  0.127E-03
 -25.016  0.127E-03  0.127E-03
 -25.006  0.126E-03  0.126E-03
 -24.996  0.125E-03  0.125E-03
 -24.986  0.125E-03  0.125E-03
 -24.976  0.124E-03  0.124E-03
 -24.966  0.123E-03  0.123E-03
 -24.956  0.122E-03  0.122E-03
 -24.946  0.121E-03  0.121E-03
 -24.936  0.120E-03  0.120E-03
 -24.926  0.118E-03  0.118E-03
 -24.916  0.117E-03  0.117E-03
 -24.906  0.116E-03  0.116E-03
 -24.896  0.114E-03  0.114E-03
 -24.886  0.113E-03  0.113E-03
 -24.876  0.111E-03  0.111E-03
 -24.866  0.109E-03  0.109E-03
 -24.856  0.108E-03  0.108E-03
 -24.846  0.106E-03  0.106E-03
 -24.836  0.104E-03  0.104E-03
 -24.826  0.102E-03  0.102E-03
 -24.816  0.100E-03  0.100E-03
 -24.806  0.983E-04  0.983E-04
 -24.796  0.963E-04  0.963E-04
 -24.786  0.942E-04  0.942E-04
 -24.776  0.921E-04  0.921E-04
 -24.766  0.900E-04  0.900E-04
 -24.756  0.879E-04  0.879E-04
 -24.746  0.857E-04  0.857E-04
 -24.736  0.835E-04  0.835E-04
 -24.726  0.813E-04  0.813E-04
 -24.716  0.791E-04  0.791E-04
 -24.706  0.768E-04  0.768E-04
 -24.696  0.746E-04  0.746E-04
 -24.686  0.723E-04  0.723E-04
 -24.676  0.701E-04  0.701E-04
 -24.666  0.678E-04  0.678E-04
 -24.656  0.656E-04  0.656E-04
 -24.646  0.633E-04  0.633E-04
 -24.636  0.611E-04  0.611E-04
 -24.626  0.589E-04  0.589E-04
 -24.616  0.567E-04  0.567E-04
 -24.606  0.545E-04  0.545E-04
 -24.596  0.523E-04  0.523E-04
 -24.586  0.502E-04  0.502E-04
 -24.576  0.480E-04  0.480E-04
 -24.566  0.459E-04  0.459E-04
 -24.556  0.439E-04  0.439E-04
 -24.546  0.418E-04  0.418E-04
 -24.536  0.398E-04  0.398E-04
 -24.526  0.378E-04  0.378E-04
 -24.516  0.359E-04  0.359E-04
 -24.506  0.340E-04  0.340E-04
 -24.496  0.321E-04  0.321E-04
 -24.486  0.303E-04  0.303E-04
 -24.476  0.285E-04  0.285E-04
 -24.466  0.268E-04  0.268E-04
 -24.456  0.251E-04  0.251E-04
 -24.446  0.235E-04  0.235E-04
 -24.436  0.218E-04  0.218E-04
 -24.426  0.203E-04  0.203E-04
 -24.416  0.188E-04  0.188E-04
 -24.406  0.173E-04  0.173E-04
 -24.396  0.159E-04  0.159E-04
 -24.386  0.145E-04  0.145E-04
 -24.376  0.132E-04  0.132E-04
 -24.366  0.119E-04  0.119E-04
 -24.356  0.107E-04  0.107E-04
 -24.346  0.953E-05  0.953E-05
 -24.336  0.840E-05  0.840E-05
 -24.326  0.731E-05  0.731E-05
 -24.316  0.627E-05  0.627E-05
 -24.306  0.528E-05  0.528E-05
 -24.296  0.434E-05  0.434E-05
 -24.286  0.344E-05  0.344E-05
 -24.276  0.258E-05  0.258E-05
 -24.266  0.177E-05  0.177E-05
 -24.256  0.101E-05  0.101E-05
 -24.246  0.280E-06  0.280E-06
 -24.236 -0.403E-06 -0.403E-06
 -24.226 -0.105E-05 -0.105E-05
 -24.216 -0.165E-05 -0.165E-05
 -24.206 -0.221E-05 -0.221E-05
 -24.196 -0.274E-05 -0.274E-05
 -24.186 -0.323E-05 -0.323E-05
 -24.176 -0.368E-05 -0.368E-05
 -24.166 -0.410E-05 -0.410E-05
 -24.156 -0.449E-05 -0.449E-05
 -24.146 -0.484E-05 -0.484E-05
 -24.136 -0.516E-05 -0.516E-05
 -24.126 -0.546E-05 -0.546E-05
 -24.116 -0.572E-05 -0.572E-05
 -24.106 -0.595E-05 -0.595E-05
 -24.096 -0.616E-05 -0.616E-05
 -24.086 -0.635E-05 -0.635E-05
 -24.076 -0.650E-05 -0.650E-05
 -24.066 -0.664E-05 -0.664E-05
 -24.056 -0.675E-05 -0.675E-05
 -24.046 -0.684E-05 -0.684E-05
 -24.036 -0.691E-05 -0.691E-05
 -24.026 -0.697E-05 -0.697E-05
 -24.016 -0.700E-05 -0.700E-05
 -24.006 -0.702E-05 -0.702E-05
 -23.996 -0.702E-05 -0.702E-05
 -23.986 -0.701E-05 -0.701E-05
 -23.976 -0.698E-05 -0.698E-05
 -23.966 -0.694E-05 -0.694E-05
 -23.956 -0.689E-05 -0.689E-05
 -23.946 -0.683E-05 -0.683E-05
 -23.936 -0.676E-05 -0.676E-05
 -23.926 -0.668E-05 -0.668E-05
 -23.916 -0.659E-05 -0.659E-05
 -23.906 -0.649E-05 -0.649E-05
 -23.896 -0.638E-05 -0.638E-05
 -23.886 -0.627E-05 -0.627E-05
 -23.876 -0.615E-05 -0.615E-05
 -23.866 -0.603E-05 -0.603E-05
 -23.856 -0.590E-05 -0.590E-05
 -23.846 -0.577E-05 -0.577E-05
 -23.836 -0.564E-05 -0.564E-05
 -23.826 -0.550E-05 -0.550E-05
 -23.816 -0.536E-05 -0.536E-05
 -23.806 -0.522E-05 -0.522E-05
 -23.796 -0.508E-05 -0.508E-05
 -23.786 -0.493E-05 -0.493E-05
 -23.776 -0.479E-05 -0.479E-05
 -23.766 -0.465E-05 -0.465E-05
 -23.756 -0.450E-05 -0.450E-05
 -23.746 -0.436E-05 -0.436E-05
 -23.736 -0.422E-05 -0.422E-05
 -23.726 -0.408E-05 -0.408E-05
 -23.716 -0.394E-05 -0.394E-05
 -23.706 -0.380E-05 -0.380E-05
 -23.696 -0.366E-05 -0.366E-05
 -23.686 -0.353E-05 -0.353E-05
 -23.676 -0.340E-05 -0.340E-05
 -23.666 -0.327E-05 -0.327E-05
 -23.656 -0.314E-05 -0.314E-05
 -23.646 -0.302E-05 -0.302E-05
 -23.636 -0.290E-05 -0.290E-05
 -23.626 -0.278E-05 -0.278E-05
 -23.616 -0.267E-05 -0.267E-05
 -23.606 -0.255E-05 -0.255E-05
 -23.596 -0.244E-05 -0.244E-05
 -23.586 -0.234E-05 -0.234E-05
 -23.576 -0.223E-05 -0.223E-05
 -23.566 -0.213E-05 -0.213E-05
 -23.556 -0.204E-05 -0.204E-05
 -23.546 -0.194E-05 -0.194E-05
 -23.536 -0.185E-05 -0.185E-05
 -23.526 -0.176E-05 -0.176E-05
 -23.516 -0.168E-05 -0.168E-05
 -23.506 -0.160E-05 -0.160E-05
 -23.496 -0.152E-05 -0.152E-05
 -23.486 -0.144E-05 -0.144E-05
 -23.476 -0.137E-05 -0.137E-05
 -23.466 -0.130E-05 -0.130E-05
 -23.456 -0.124E-05 -0.124E-05
 -23.446 -0.117E-05 -0.117E-05
 -23.436 -0.111E-05 -0.111E-05
 -23.426 -0.105E-05 -0.105E-05
 -23.416 -0.994E-06 -0.994E-06
 -23.406 -0.940E-06 -0.940E-06
 -23.396 -0.888E-06 -0.888E-06
 -23.386 -0.839E-06 -0.839E-06
 -23.376 -0.792E-06 -0.792E-06
 -23.366 -0.747E-06 -0.747E-06
 -23.356 -0.704E-06 -0.704E-06
 -23.346 -0.664E-06 -0.664E-06
 -23.336 -0.625E-06 -0.625E-06
 -23.326 -0.588E-06 -0.588E-06
 -23.316 -0.554E-06 -0.554E-06
 -23.306 -0.520E-06 -0.520E-06
 -23.296 -0.489E-06 -0.489E-06
 -23.286 -0.459E-06 -0.459E-06
 -23.276 -0.431E-06 -0.431E-06
 -23.266 -0.404E-06 -0.404E-06
 -23.256 -0.379E-06 -0.379E-06
 -23.246 -0.355E-06 -0.355E-06
 -23.236 -0.333E-06 -0.333E-06
 -23.226 -0.312E-06 -0.312E-06
 -23.216 -0.291E-06 -0.291E-06
 -23.206 -0.273E-06 -0.273E-06
 -23.196 -0.255E-06 -0.255E-06
 -23.186 -0.238E-06 -0.238E-06
 -23.176 -0.222E-06 -0.222E-06
 -23.166 -0.207E-06 -0.207E-06
 -23.156 -0.193E-06 -0.193E-06
 -23.146 -0.180E-06 -0.180E-06
 -23.136 -0.168E-06 -0.168E-06
 -23.126 -0.156E-06 -0.156E-06
 -23.116 -0.145E-06 -0.145E-06
 -23.106 -0.135E-06 -0.135E-06
 -23.096 -0.126E-06 -0.126E-06
 -23.086 -0.117E-06 -0.117E-06
 -23.076 -0.109E-06 -0.109E-06
 -23.066 -0.101E-06 -0.101E-06
 -23.056 -0.936E-07 -0.936E-07
 -23.046 -0.868E-07 -0.868E-07
 -23.036 -0.805E-07 -0.805E-07
 -23.026 -0.746E-07 -0.746E-07
 -23.016 -0.691E-07 -0.691E-07
 -23.006 -0.640E-07 -0.640E-07
 -22.996 -0.592E-07 -0.592E-07
 -22.986 -0.548E-07 -0.548E-07
 -22.976 -0.507E-07 -0.507E-07
 -22.966 -0.469E-07 -0.469E-07
 -22.956 -0.434E-07 -0.434E-07
 -22.946 -0.401E-07 -0.401E-07
 -22.936 -0.371E-07 -0.371E-07
 -22.926 -0.343E-07 -0.343E-07
 -22.916 -0.317E-07 -0.317E-07
 -22.906 -0.294E-07 -0.294E-07
 -22.896 -0.272E-07 -0.272E-07
 -22.886 -0.252E-07 -0.252E-07
 -22.876 -0.234E-07 -0.234E-07
 -22.866 -0.217E-07 -0.217E-07
 -22.856 -0.202E-07 -0.202E-07
 -22.846 -0.188E-07 -0.188E-07
 -22.836 -0.176E-07 -0.176E-07
 -22.826 -0.165E-07 -0.165E-07
 -22.816 -0.155E-07 -0.155E-07
 -22.806 -0.146E-07 -0.146E-07
 -22.796 -0.138E-07 -0.138E-07
 -22.786 -0.132E-07 -0.132E-07
 -22.776 -0.126E-07 -0.126E-07
 -22.766 -0.122E-07 -0.122E-07
 -22.756 -0.118E-07 -0.118E-07
 -22.746 -0.116E-07 -0.116E-07
 -22.736 -0.114E-07 -0.114E-07
 -22.726 -0.113E-07 -0.113E-07
 -22.716 -0.114E-07 -0.114E-07
 -22.706 -0.115E-07 -0.115E-07
 -22.696 -0.117E-07 -0.117E-07
 -22.686 -0.120E-07 -0.120E-07
 -22.676 -0.124E-07 -0.124E-07
 -22.666 -0.130E-07 -0.130E-07
 -22.656 -0.136E-07 -0.136E-07
 -22.646 -0.143E-07 -0.143E-07
 -22.636 -0.152E-07 -0.152E-07
 -22.626 -0.162E-07 -0.162E-07
 -22.616 -0.173E-07 -0.173E-07
 -22.606 -0.185E-07 -0.185E-07
 -22.596 -0.199E-07 -0.199E-07
 -22.586 -0.215E-07 -0.215E-07
 -22.576 -0.232E-07 -0.232E-07
 -22.566 -0.250E-07 -0.250E-07
 -22.556 -0.271E-07 -0.271E-07
 -22.546 -0.294E-07 -0.294E-07
 -22.536 -0.319E-07 -0.319E-07
 -22.526 -0.346E-07 -0.346E-07
 -22.516 -0.375E-07 -0.375E-07
 -22.506 -0.407E-07 -0.407E-07
 -22.496 -0.442E-07 -0.442E-07
 -22.486 -0.480E-07 -0.480E-07
 -22.476 -0.521E-07 -0.521E-07
 -22.466 -0.565E-07 -0.565E-07
 -22.456 -0.614E-07 -0.614E-07
 -22.446 -0.666E-07 -0.666E-07
 -22.436 -0.722E-07 -0.722E-07
 -22.426 -0.783E-07 -0.783E-07
 -22.416 -0.848E-07 -0.848E-07
 -22.406 -0.919E-07 -0.919E-07
 -22.396 -0.995E-07 -0.995E-07
 -22.386 -0.108E-06 -0.108E-06
 -22.376 -0.117E-06 -0.117E-06
 -22.366 -0.126E-06 -0.126E-06
 -22.356 -0.136E-06 -0.136E-06
 -22.346 -0.147E-06 -0.147E-06
 -22.336 -0.159E-06 -0.159E-06
 -22.326 -0.172E-06 -0.172E-06
 -22.316 -0.185E-06 -0.185E-06
 -22.306 -0.200E-06 -0.200E-06
 -22.296 -0.215E-06 -0.215E-06
 -22.286 -0.232E-06 -0.232E-06
 -22.276 -0.250E-06 -0.250E-06
 -22.266 -0.269E-06 -0.269E-06
 -22.256 -0.289E-06 -0.289E-06
 -22.246 -0.311E-06 -0.311E-06
 -22.236 -0.334E-06 -0.334E-06
 -22.226 -0.358E-06 -0.358E-06
 -22.216 -0.385E-06 -0.385E-06
 -22.206 -0.413E-06 -0.413E-06
 -22.196 -0.443E-06 -0.443E-06
 -22.186 -0.474E-06 -0.474E-06
 -22.176 -0.508E-06 -0.508E-06
 -22.166 -0.544E-06 -0.544E-06
 -22.156 -0.582E-06 -0.582E-06
 -22.146 -0.622E-06 -0.622E-06
 -22.136 -0.665E-06 -0.665E-06
 -22.126 -0.711E-06 -0.711E-06
 -22.116 -0.759E-06 -0.759E-06
 -22.106 -0.810E-06 -0.810E-06
 -22.096 -0.863E-06 -0.863E-06
 -22.086 -0.920E-06 -0.920E-06
 -22.076 -0.981E-06 -0.981E-06
 -22.066 -0.104E-05 -0.104E-05
 -22.056 -0.111E-05 -0.111E-05
 -22.046 -0.118E-05 -0.118E-05
 -22.036 -0.126E-05 -0.126E-05
 -22.026 -0.133E-05 -0.133E-05
 -22.016 -0.142E-05 -0.142E-05
 -22.006 -0.150E-05 -0.150E-05
 -21.996 -0.159E-05 -0.159E-05
 -21.986 -0.169E-05 -0.169E-05
 -21.976 -0.179E-05 -0.179E-05
 -21.966 -0.190E-05 -0.190E-05
 -21.956 -0.201E-05 -0.201E-05
 -21.946 -0.212E-05 -0.212E-05
 -21.936 -0.224E-05 -0.224E-05
 -21.926 -0.237E-05 -0.237E-05
 -21.916 -0.250E-05 -0.250E-05
 -21.906 -0.264E-05 -0.264E-05
 -21.896 -0.278E-05 -0.278E-05
 -21.886 -0.293E-05 -0.293E-05
 -21.876 -0.308E-05 -0.308E-05
 -21.866 -0.324E-05 -0.324E-05
 -21.856 -0.341E-05 -0.341E-05
 -21.846 -0.359E-05 -0.359E-05
 -21.836 -0.377E-05 -0.377E-05
 -21.826 -0.396E-05 -0.396E-05
 -21.816 -0.415E-05 -0.415E-05
 -21.806 -0.435E-05 -0.435E-05
 -21.796 -0.456E-05 -0.456E-05
 -21.786 -0.477E-05 -0.477E-05
 -21.776 -0.499E-05 -0.499E-05
 -21.766 -0.522E-05 -0.522E-05
 -21.756 -0.545E-05 -0.545E-05
 -21.746 -0.570E-05 -0.570E-05
 -21.736 -0.594E-05 -0.594E-05
 -21.726 -0.620E-05 -0.620E-05
 -21.716 -0.646E-05 -0.646E-05
 -21.706 -0.672E-05 -0.672E-05
 -21.696 -0.700E-05 -0.700E-05
 -21.686 -0.728E-05 -0.728E-05
 -21.676 -0.756E-05 -0.756E-05
 -21.666 -0.785E-05 -0.785E-05
 -21.656 -0.814E-05 -0.814E-05
 -21.646 -0.844E-05 -0.844E-05
 -21.636 -0.874E-05 -0.874E-05
 -21.626 -0.905E-05 -0.905E-05
 -21.616 -0.936E-05 -0.936E-05
 -21.606 -0.967E-05 -0.967E-05
 -21.596 -0.999E-05 -0.999E-05
 -21.586 -0.103E-04 -0.103E-04
 -21.576 -0.106E-04 -0.106E-04
 -21.566 -0.109E-04 -0.109E-04
 -21.556 -0.113E-04 -0.113E-04
 -21.546 -0.116E-04 -0.116E-04
 -21.536 -0.119E-04 -0.119E-04
 -21.526 -0.122E-04 -0.122E-04
 -21.516 -0.125E-04 -0.125E-04
 -21.506 -0.128E-04 -0.128E-04
 -21.496 -0.131E-04 -0.131E-04
 -21.486 -0.134E-04 -0.134E-04
 -21.476 -0.137E-04 -0.137E-04
 -21.466 -0.140E-04 -0.140E-04
 -21.456 -0.142E-04 -0.142E-04
 -21.446 -0.145E-04 -0.145E-04
 -21.436 -0.147E-04 -0.147E-04
 -21.426 -0.149E-04 -0.149E-04
 -21.416 -0.152E-04 -0.152E-04
 -21.406 -0.154E-04 -0.154E-04
 -21.396 -0.155E-04 -0.155E-04
 -21.386 -0.157E-04 -0.157E-04
 -21.376 -0.158E-04 -0.158E-04
 -21.366 -0.160E-04 -0.160E-04
 -21.356 -0.160E-04 -0.160E-04
 -21.346 -0.161E-04 -0.161E-04
 -21.336 -0.162E-04 -0.162E-04
 -21.326 -0.162E-04 -0.162E-04
 -21.316 -0.162E-04 -0.162E-04
 -21.306 -0.161E-04 -0.161E-04
 -21.296 -0.161E-04 -0.161E-04
 -21.286 -0.160E-04 -0.160E-04
 -21.276 -0.158E-04 -0.158E-04
 -21.266 -0.157E-04 -0.157E-04
 -21.256 -0.154E-04 -0.154E-04
 -21.246 -0.152E-04 -0.152E-04
 -21.236 -0.149E-04 -0.149E-04
 -21.226 -0.146E-04 -0.146E-04
 -21.216 -0.143E-04 -0.143E-04
 -21.206 -0.139E-04 -0.139E-04
 -21.196 -0.134E-04 -0.134E-04
 -21.186 -0.130E-04 -0.130E-04
 -21.176 -0.124E-04 -0.124E-04
 -21.166 -0.119E-04 -0.119E-04
 -21.156 -0.113E-04 -0.113E-04
 -21.146 -0.107E-04 -0.107E-04
 -21.136 -0.100E-04 -0.100E-04
 -21.126 -0.930E-05 -0.930E-05
 -21.116 -0.856E-05 -0.856E-05
 -21.106 -0.779E-05 -0.779E-05
 -21.096 -0.699E-05 -0.699E-05
 -21.086 -0.615E-05 -0.615E-05
 -21.076 -0.530E-05 -0.530E-05
 -21.066 -0.441E-05 -0.441E-05
 -21.056 -0.351E-05 -0.351E-05
 -21.046 -0.259E-05 -0.259E-05
 -21.036 -0.166E-05 -0.166E-05
 -21.026 -0.726E-06 -0.726E-06
 -21.016  0.215E-06  0.215E-06
 -21.006  0.115E-05  0.115E-05
 -20.996  0.208E-05  0.208E-05
 -20.986  0.300E-05  0.300E-05
 -20.976  0.389E-05  0.389E-05
 -20.966  0.476E-05  0.476E-05
 -20.956  0.558E-05  0.558E-05
 -20.946  0.636E-05  0.636E-05
 -20.936  0.709E-05  0.709E-05
 -20.926  0.775E-05  0.775E-05
 -20.916  0.834E-05  0.834E-05
 -20.906  0.885E-05  0.885E-05
 -20.896  0.925E-05  0.925E-05
 -20.886  0.955E-05  0.955E-05
 -20.876  0.973E-05  0.973E-05
 -20.866  0.978E-05  0.978E-05
 -20.856  0.968E-05  0.968E-05
 -20.846  0.941E-05  0.941E-05
 -20.836  0.898E-05  0.898E-05
 -20.826  0.835E-05  0.835E-05
 -20.816  0.751E-05  0.751E-05
 -20.806  0.645E-05  0.645E-05
 -20.796  0.515E-05  0.515E-05
 -20.786  0.359E-05  0.359E-05
 -20.776  0.175E-05  0.175E-05
 -20.766 -0.381E-06 -0.381E-06
 -20.756 -0.282E-05 -0.282E-05
 -20.746 -0.560E-05 -0.560E-05
 -20.736 -0.873E-05 -0.873E-05
 -20.726 -0.122E-04 -0.122E-04
 -20.716 -0.161E-04 -0.161E-04
 -20.706 -0.204E-04 -0.204E-04
 -20.696 -0.252E-04 -0.252E-04
 -20.686 -0.304E-04 -0.304E-04
 -20.676 -0.360E-04 -0.360E-04
 -20.666 -0.422E-04 -0.422E-04
 -20.656 -0.489E-04 -0.489E-04
 -20.646 -0.561E-04 -0.561E-04
 -20.636 -0.639E-04 -0.639E-04
 -20.626 -0.722E-04 -0.722E-04
 -20.616 -0.812E-04 -0.812E-04
 -20.606 -0.908E-04 -0.908E-04
 -20.596 -0.101E-03 -0.101E-03
 -20.586 -0.112E-03 -0.112E-03
 -20.576 -0.123E-03 -0.123E-03
 -20.566 -0.136E-03 -0.136E-03
 -20.556 -0.148E-03 -0.148E-03
 -20.546 -0.162E-03 -0.162E-03
 -20.536 -0.176E-03 -0.176E-03
 -20.526 -0.191E-03 -0.191E-03
 -20.516 -0.207E-03 -0.207E-03
 -20.506 -0.224E-03 -0.224E-03
 -20.496 -0.241E-03 -0.241E-03
 -20.486 -0.259E-03 -0.259E-03
 -20.476 -0.278E-03 -0.278E-03
 -20.466 -0.298E-03 -0.298E-03
 -20.456 -0.318E-03 -0.318E-03
 -20.446 -0.339E-03 -0.339E-03
 -20.436 -0.361E-03 -0.361E-03
 -20.426 -0.384E-03 -0.384E-03
 -20.416 -0.407E-03 -0.407E-03
 -20.406 -0.431E-03 -0.431E-03
 -20.396 -0.456E-03 -0.456E-03
 -20.386 -0.481E-03 -0.481E-03
 -20.376 -0.507E-03 -0.507E-03
 -20.366 -0.533E-03 -0.533E-03
 -20.356 -0.560E-03 -0.560E-03
 -20.346 -0.588E-03 -0.588E-03
 -20.336 -0.616E-03 -0.616E-03
 -20.326 -0.644E-03 -0.644E-03
 -20.316 -0.673E-03 -0.673E-03
 -20.306 -0.701E-03 -0.701E-03
 -20.296 -0.731E-03 -0.731E-03
 -20.286 -0.760E-03 -0.760E-03
 -20.276 -0.789E-03 -0.789E-03
 -20.266 -0.818E-03 -0.818E-03
 -20.256 -0.847E-03 -0.847E-03
 -20.246 -0.876E-03 -0.876E-03
 -20.236 -0.905E-03 -0.905E-03
 -20.226 -0.933E-03 -0.933E-03
 -20.216 -0.960E-03 -0.960E-03
 -20.206 -0.987E-03 -0.987E-03
 -20.196 -0.101E-02 -0.101E-02
 -20.186 -0.104E-02 -0.104E-02
 -20.176 -0.106E-02 -0.106E-02
 -20.166 -0.108E-02 -0.108E-02
 -20.156 -0.111E-02 -0.111E-02
 -20.146 -0.113E-02 -0.113E-02
 -20.136 -0.114E-02 -0.114E-02
 -20.126 -0.116E-02 -0.116E-02
 -20.116 -0.117E-02 -0.117E-02
 -20.106 -0.119E-02 -0.119E-02
 -20.096 -0.119E-02 -0.119E-02
 -20.086 -0.120E-02 -0.120E-02
 -20.076 -0.121E-02 -0.121E-02
 -20.066 -0.121E-02 -0.121E-02
 -20.056 -0.120E-02 -0.120E-02
 -20.046 -0.120E-02 -0.120E-02
 -20.036 -0.119E-02 -0.119E-02
 -20.026 -0.117E-02 -0.117E-02
 -20.016 -0.116E-02 -0.116E-02
 -20.006 -0.113E-02 -0.113E-02
 -19.996 -0.111E-02 -0.111E-02
 -19.986 -0.107E-02 -0.107E-02
 -19.976 -0.104E-02 -0.104E-02
 -19.966 -0.995E-03 -0.995E-03
 -19.956 -0.947E-03 -0.947E-03
 -19.946 -0.894E-03 -0.894E-03
 -19.936 -0.834E-03 -0.834E-03
 -19.926 -0.768E-03 -0.768E-03
 -19.916 -0.695E-03 -0.695E-03
 -19.906 -0.615E-03 -0.615E-03
 -19.896 -0.529E-03 -0.529E-03
 -19.886 -0.435E-03 -0.435E-03
 -19.876 -0.334E-03 -0.334E-03
 -19.866 -0.225E-03 -0.225E-03
 -19.856 -0.108E-03 -0.108E-03
 -19.846  0.169E-04  0.169E-04
 -19.836  0.150E-03  0.150E-03
 -19.826  0.292E-03  0.292E-03
 -19.816  0.442E-03  0.442E-03
 -19.806  0.602E-03  0.602E-03
 -19.796  0.770E-03  0.770E-03
 -19.786  0.947E-03  0.947E-03
 -19.776  0.113E-02  0.113E-02
 -19.766  0.133E-02  0.133E-02
 -19.756  0.154E-02  0.154E-02
 -19.746  0.175E-02  0.175E-02
 -19.736  0.198E-02  0.198E-02
 -19.726  0.221E-02  0.221E-02
 -19.716  0.246E-02  0.246E-02
 -19.706  0.271E-02  0.271E-02
 -19.696  0.297E-02  0.297E-02
 -19.686  0.325E-02  0.325E-02
 -19.676  0.353E-02  0.353E-02
 -19.666  0.383E-02  0.383E-02
 -19.656  0.413E-02  0.413E-02
 -19.646  0.444E-02  0.444E-02
 -19.636  0.477E-02  0.477E-02
 -19.626  0.510E-02  0.510E-02
 -19.616  0.544E-02  0.544E-02
 -19.606  0.579E-02  0.579E-02
 -19.596  0.615E-02  0.615E-02
 -19.586  0.652E-02  0.652E-02
 -19.576  0.689E-02  0.689E-02
 -19.566  0.728E-02  0.728E-02
 -19.556  0.767E-02  0.767E-02
 -19.546  0.807E-02  0.807E-02
 -19.536  0.848E-02  0.848E-02
 -19.526  0.889E-02  0.889E-02
 -19.516  0.931E-02  0.931E-02
 -19.506  0.974E-02  0.974E-02
 -19.496  0.102E-01  0.102E-01
 -19.486  0.106E-01  0.106E-01
 -19.476  0.110E-01  0.110E-01
 -19.466  0.115E-01  0.115E-01
 -19.456  0.119E-01  0.119E-01
 -19.446  0.124E-01  0.124E-01
 -19.436  0.128E-01  0.128E-01
 -19.426  0.133E-01  0.133E-01
 -19.416  0.138E-01  0.138E-01
 -19.406  0.142E-01  0.142E-01
 -19.396  0.147E-01  0.147E-01
 -19.386  0.151E-01  0.151E-01
 -19.376  0.156E-01  0.156E-01
 -19.366  0.161E-01  0.161E-01
 -19.356  0.165E-01  0.165E-01
 -19.346  0.170E-01  0.170E-01
 -19.336  0.174E-01  0.174E-01
 -19.326  0.179E-01  0.179E-01
 -19.316  0.183E-01  0.183E-01
 -19.306  0.187E-01  0.187E-01
 -19.296  0.192E-01  0.192E-01
 -19.286  0.196E-01  0.196E-01
 -19.276  0.200E-01  0.200E-01
 -19.266  0.204E-01  0.204E-01
 -19.256  0.208E-01  0.208E-01
 -19.246  0.212E-01  0.212E-01
 -19.236  0.216E-01  0.216E-01
 -19.226  0.219E-01  0.219E-01
 -19.216  0.223E-01  0.223E-01
 -19.206  0.226E-01  0.226E-01
 -19.196  0.230E-01  0.230E-01
 -19.186  0.233E-01  0.233E-01
 -19.176  0.236E-01  0.236E-01
 -19.166  0.239E-01  0.239E-01
 -19.156  0.241E-01  0.241E-01
 -19.146  0.244E-01  0.244E-01
 -19.136  0.246E-01  0.246E-01
 -19.126  0.249E-01  0.249E-01
 -19.116  0.251E-01  0.251E-01
 -19.106  0.253E-01  0.253E-01
 -19.096  0.254E-01  0.254E-01
 -19.086  0.256E-01  0.256E-01
 -19.076  0.257E-01  0.257E-01
 -19.066  0.259E-01  0.259E-01
 -19.056  0.260E-01  0.260E-01
 -19.046  0.261E-01  0.261E-01
 -19.036  0.261E-01  0.261E-01
 -19.026  0.262E-01  0.262E-01
 -19.016  0.262E-01  0.262E-01
 -19.006  0.262E-01  0.262E-01
 -18.996  0.262E-01  0.262E-01
 -18.986  0.262E-01  0.262E-01
 -18.976  0.261E-01  0.261E-01
 -18.966  0.261E-01  0.261E-01
 -18.956  0.260E-01  0.260E-01
 -18.946  0.259E-01  0.259E-01
 -18.936  0.258E-01  0.258E-01
 -18.926  0.256E-01  0.256E-01
 -18.916  0.255E-01  0.255E-01
 -18.906  0.253E-01  0.253E-01
 -18.896  0.251E-01  0.251E-01
 -18.886  0.249E-01  0.249E-01
 -18.876  0.247E-01  0.247E-01
 -18.866  0.244E-01  0.244E-01
 -18.856  0.242E-01  0.242E-01
 -18.846  0.239E-01  0.239E-01
 -18.836  0.236E-01  0.236E-01
 -18.826  0.233E-01  0.233E-01
 -18.816  0.230E-01  0.230E-01
 -18.806  0.226E-01  0.226E-01
 -18.796  0.223E-01  0.223E-01
 -18.786  0.219E-01  0.219E-01
 -18.776  0.216E-01  0.216E-01
 -18.766  0.212E-01  0.212E-01
 -18.756  0.208E-01  0.208E-01
 -18.746  0.204E-01  0.204E-01
 -18.736  0.200E-01  0.200E-01
 -18.726  0.196E-01  0.196E-01
 -18.716  0.191E-01  0.191E-01
 -18.706  0.187E-01  0.187E-01
 -18.696  0.183E-01  0.183E-01
 -18.686  0.178E-01  0.178E-01
 -18.676  0.174E-01  0.174E-01
 -18.666  0.169E-01  0.169E-01
 -18.656  0.164E-01  0.164E-01
 -18.646  0.160E-01  0.160E-01
 -18.636  0.155E-01  0.155E-01
 -18.626  0.150E-01  0.150E-01
 -18.616  0.145E-01  0.145E-01
 -18.606  0.141E-01  0.141E-01
 -18.596  0.136E-01  0.136E-01
 -18.586  0.131E-01  0.131E-01
 -18.576  0.126E-01  0.126E-01
 -18.566  0.121E-01  0.121E-01
 -18.556  0.117E-01  0.117E-01
 -18.546  0.112E-01  0.112E-01
 -18.536  0.107E-01  0.107E-01
 -18.526  0.102E-01  0.102E-01
 -18.516  0.978E-02  0.978E-02
 -18.506  0.932E-02  0.932E-02
 -18.496  0.886E-02  0.886E-02
 -18.486  0.841E-02  0.841E-02
 -18.476  0.796E-02  0.796E-02
 -18.466  0.752E-02  0.752E-02
 -18.456  0.708E-02  0.708E-02
 -18.446  0.665E-02  0.665E-02
 -18.436  0.622E-02  0.622E-02
 -18.426  0.581E-02  0.581E-02
 -18.416  0.539E-02  0.539E-02
 -18.406  0.499E-02  0.499E-02
 -18.396  0.459E-02  0.459E-02
 -18.386  0.420E-02  0.420E-02
 -18.376  0.382E-02  0.382E-02
 -18.366  0.345E-02  0.345E-02
 -18.356  0.308E-02  0.308E-02
 -18.346  0.272E-02  0.272E-02
 -18.336  0.237E-02  0.237E-02
 -18.326  0.203E-02  0.203E-02
 -18.316  0.170E-02  0.170E-02
 -18.306  0.137E-02  0.137E-02
 -18.296  0.106E-02  0.106E-02
 -18.286  0.749E-03  0.749E-03
 -18.276  0.450E-03  0.450E-03
 -18.266  0.159E-03  0.159E-03
 -18.256 -0.122E-03 -0.122E-03
 -18.246 -0.396E-03 -0.396E-03
 -18.236 -0.660E-03 -0.660E-03
 -18.226 -0.916E-03 -0.916E-03
 -18.216 -0.116E-02 -0.116E-02
 -18.206 -0.140E-02 -0.140E-02
 -18.196 -0.163E-02 -0.163E-02
 -18.186 -0.185E-02 -0.185E-02
 -18.176 -0.207E-02 -0.207E-02
 -18.166 -0.227E-02 -0.227E-02
 -18.156 -0.247E-02 -0.247E-02
 -18.146 -0.266E-02 -0.266E-02
 -18.136 -0.284E-02 -0.284E-02
 -18.126 -0.301E-02 -0.301E-02
 -18.116 -0.317E-02 -0.317E-02
 -18.106 -0.332E-02 -0.332E-02
 -18.096 -0.347E-02 -0.347E-02
 -18.086 -0.361E-02 -0.361E-02
 -18.076 -0.374E-02 -0.374E-02
 -18.066 -0.386E-02 -0.386E-02
 -18.056 -0.397E-02 -0.397E-02
 -18.046 -0.407E-02 -0.407E-02
 -18.036 -0.417E-02 -0.417E-02
 -18.026 -0.425E-02 -0.425E-02
 -18.016 -0.433E-02 -0.433E-02
 -18.006 -0.440E-02 -0.440E-02
 -17.996 -0.446E-02 -0.446E-02
 -17.986 -0.451E-02 -0.451E-02
 -17.976 -0.455E-02 -0.455E-02
 -17.966 -0.458E-02 -0.458E-02
 -17.956 -0.460E-02 -0.460E-02
 -17.946 -0.461E-02 -0.461E-02
 -17.936 -0.461E-02 -0.461E-02
 -17.926 -0.460E-02 -0.460E-02
 -17.916 -0.458E-02 -0.458E-02
 -17.906 -0.454E-02 -0.454E-02
 -17.896 -0.450E-02 -0.450E-02
 -17.886 -0.445E-02 -0.445E-02
 -17.876 -0.438E-02 -0.438E-02
 -17.866 -0.430E-02 -0.430E-02
 -17.856 -0.421E-02 -0.421E-02
 -17.846 -0.410E-02 -0.410E-02
 -17.836 -0.399E-02 -0.399E-02
 -17.826 -0.386E-02 -0.386E-02
 -17.816 -0.371E-02 -0.371E-02
 -17.806 -0.355E-02 -0.355E-02
 -17.796 -0.338E-02 -0.338E-02
 -17.786 -0.319E-02 -0.319E-02
 -17.776 -0.299E-02 -0.299E-02
 -17.766 -0.277E-02 -0.277E-02
 -17.756 -0.253E-02 -0.253E-02
 -17.746 -0.228E-02 -0.228E-02
 -17.736 -0.201E-02 -0.201E-02
 -17.726 -0.172E-02 -0.172E-02
 -17.716 -0.142E-02 -0.142E-02
 -17.706 -0.110E-02 -0.110E-02
 -17.696 -0.761E-03 -0.761E-03
 -17.686 -0.403E-03 -0.403E-03
 -17.676 -0.263E-04 -0.263E-04
 -17.666  0.369E-03  0.369E-03
 -17.656  0.784E-03  0.784E-03
 -17.646  0.122E-02  0.122E-02
 -17.636  0.167E-02  0.167E-02
 -17.626  0.215E-02  0.215E-02
 -17.616  0.264E-02  0.264E-02
 -17.606  0.315E-02  0.315E-02
 -17.596  0.369E-02  0.369E-02
 -17.586  0.424E-02  0.424E-02
 -17.576  0.482E-02  0.482E-02
 -17.566  0.541E-02  0.541E-02
 -17.556  0.603E-02  0.603E-02
 -17.546  0.666E-02  0.666E-02
 -17.536  0.732E-02  0.732E-02
 -17.526  0.800E-02  0.800E-02
 -17.516  0.869E-02  0.869E-02
 -17.506  0.941E-02  0.941E-02
 -17.496  0.101E-01  0.101E-01
 -17.486  0.109E-01  0.109E-01
 -17.476  0.117E-01  0.117E-01
 -17.466  0.125E-01  0.125E-01
 -17.456  0.133E-01  0.133E-01
 -17.446  0.141E-01  0.141E-01
 -17.436  0.149E-01  0.149E-01
 -17.426  0.158E-01  0.158E-01
 -17.416  0.167E-01  0.167E-01
 -17.406  0.176E-01  0.176E-01
 -17.396  0.185E-01  0.185E-01
 -17.386  0.194E-01  0.194E-01
 -17.376  0.203E-01  0.203E-01
 -17.366  0.212E-01  0.212E-01
 -17.356  0.222E-01  0.222E-01
 -17.346  0.232E-01  0.232E-01
 -17.336  0.241E-01  0.241E-01
 -17.326  0.251E-01  0.251E-01
 -17.316  0.261E-01  0.261E-01
 -17.306  0.271E-01  0.271E-01
 -17.296  0.281E-01  0.281E-01
 -17.286  0.291E-01  0.291E-01
 -17.276  0.301E-01  0.301E-01
 -17.266  0.311E-01  0.311E-01
 -17.256  0.321E-01  0.321E-01
 -17.246  0.331E-01  0.331E-01
 -17.236  0.341E-01  0.341E-01
 -17.226  0.350E-01  0.350E-01
 -17.216  0.360E-01  0.360E-01
 -17.206  0.370E-01  0.370E-01
 -17.196  0.380E-01  0.380E-01
 -17.186  0.389E-01  0.389E-01
 -17.176  0.399E-01  0.399E-01
 -17.166  0.408E-01  0.408E-01
 -17.156  0.418E-01  0.418E-01
 -17.146  0.427E-01  0.427E-01
 -17.136  0.436E-01  0.436E-01
 -17.126  0.445E-01  0.445E-01
 -17.116  0.453E-01  0.453E-01
 -17.106  0.462E-01  0.462E-01
 -17.096  0.470E-01  0.470E-01
 -17.086  0.478E-01  0.478E-01
 -17.076  0.486E-01  0.486E-01
 -17.066  0.493E-01  0.493E-01
 -17.056  0.500E-01  0.500E-01
 -17.046  0.507E-01  0.507E-01
 -17.036  0.514E-01  0.514E-01
 -17.026  0.521E-01  0.521E-01
 -17.016  0.527E-01  0.527E-01
 -17.006  0.533E-01  0.533E-01
 -16.996  0.538E-01  0.538E-01
 -16.986  0.543E-01  0.543E-01
 -16.976  0.548E-01  0.548E-01
 -16.966  0.553E-01  0.553E-01
 -16.956  0.557E-01  0.557E-01
 -16.946  0.561E-01  0.561E-01
 -16.936  0.565E-01  0.565E-01
 -16.926  0.568E-01  0.568E-01
 -16.916  0.571E-01  0.571E-01
 -16.906  0.574E-01  0.574E-01
 -16.896  0.576E-01  0.576E-01
 -16.886  0.578E-01  0.578E-01
 -16.876  0.579E-01  0.579E-01
 -16.866  0.580E-01  0.580E-01
 -16.856  0.581E-01  0.581E-01
 -16.846  0.581E-01  0.581E-01
 -16.836  0.582E-01  0.582E-01
 -16.826  0.581E-01  0.581E-01
 -16.816  0.581E-01  0.581E-01
 -16.806  0.580E-01  0.580E-01
 -16.796  0.579E-01  0.579E-01
 -16.786  0.577E-01  0.577E-01
 -16.776  0.575E-01  0.575E-01
 -16.766  0.573E-01  0.573E-01
 -16.756  0.570E-01  0.570E-01
 -16.746  0.567E-01  0.567E-01
 -16.736  0.564E-01  0.564E-01
 -16.726  0.561E-01  0.561E-01
 -16.716  0.557E-01  0.557E-01
 -16.706  0.553E-01  0.553E-01
 -16.696  0.549E-01  0.549E-01
 -16.686  0.545E-01  0.545E-01
 -16.676  0.540E-01  0.540E-01
 -16.666  0.535E-01  0.535E-01
 -16.656  0.530E-01  0.530E-01
 -16.646  0.525E-01  0.525E-01
 -16.636  0.519E-01  0.519E-01
 -16.626  0.514E-01  0.514E-01
 -16.616  0.508E-01  0.508E-01
 -16.606  0.502E-01  0.502E-01
 -16.596  0.495E-01  0.495E-01
 -16.586  0.489E-01  0.489E-01
 -16.576  0.483E-01  0.483E-01
 -16.566  0.476E-01  0.476E-01
 -16.556  0.470E-01  0.470E-01
 -16.546  0.463E-01  0.463E-01
 -16.536  0.456E-01  0.456E-01
 -16.526  0.449E-01  0.449E-01
 -16.516  0.442E-01  0.442E-01
 -16.506  0.435E-01  0.435E-01
 -16.496  0.428E-01  0.428E-01
 -16.486  0.421E-01  0.421E-01
 -16.476  0.414E-01  0.414E-01
 -16.466  0.407E-01  0.407E-01
 -16.456  0.400E-01  0.400E-01
 -16.446  0.393E-01  0.393E-01
 -16.436  0.386E-01  0.386E-01
 -16.426  0.379E-01  0.379E-01
 -16.416  0.372E-01  0.372E-01
 -16.406  0.365E-01  0.365E-01
 -16.396  0.358E-01  0.358E-01
 -16.386  0.351E-01  0.351E-01
 -16.376  0.344E-01  0.344E-01
 -16.366  0.337E-01  0.337E-01
 -16.356  0.331E-01  0.331E-01
 -16.346  0.324E-01  0.324E-01
 -16.336  0.317E-01  0.317E-01
 -16.326  0.311E-01  0.311E-01
 -16.316  0.305E-01  0.305E-01
 -16.306  0.298E-01  0.298E-01
 -16.296  0.292E-01  0.292E-01
 -16.286  0.286E-01  0.286E-01
 -16.276  0.280E-01  0.280E-01
 -16.266  0.274E-01  0.274E-01
 -16.256  0.268E-01  0.268E-01
 -16.246  0.263E-01  0.263E-01
 -16.236  0.257E-01  0.257E-01
 -16.226  0.252E-01  0.252E-01
 -16.216  0.246E-01  0.246E-01
 -16.206  0.241E-01  0.241E-01
 -16.196  0.236E-01  0.236E-01
 -16.186  0.231E-01  0.231E-01
 -16.176  0.226E-01  0.226E-01
 -16.166  0.221E-01  0.221E-01
 -16.156  0.216E-01  0.216E-01
 -16.146  0.211E-01  0.211E-01
 -16.136  0.207E-01  0.207E-01
 -16.126  0.202E-01  0.202E-01
 -16.116  0.198E-01  0.198E-01
 -16.106  0.194E-01  0.194E-01
 -16.096  0.189E-01  0.189E-01
 -16.086  0.185E-01  0.185E-01
 -16.076  0.181E-01  0.181E-01
 -16.066  0.177E-01  0.177E-01
 -16.056  0.173E-01  0.173E-01
 -16.046  0.169E-01  0.169E-01
 -16.036  0.165E-01  0.165E-01
 -16.026  0.161E-01  0.161E-01
 -16.016  0.158E-01  0.158E-01
 -16.006  0.154E-01  0.154E-01
 -15.996  0.151E-01  0.151E-01
 -15.986  0.147E-01  0.147E-01
 -15.976  0.143E-01  0.143E-01
 -15.966  0.140E-01  0.140E-01
 -15.956  0.137E-01  0.137E-01
 -15.946  0.133E-01  0.133E-01
 -15.936  0.130E-01  0.130E-01
 -15.926  0.127E-01  0.127E-01
 -15.916  0.124E-01  0.124E-01
 -15.906  0.120E-01  0.120E-01
 -15.896  0.117E-01  0.117E-01
 -15.886  0.114E-01  0.114E-01
 -15.876  0.111E-01  0.111E-01
 -15.866  0.108E-01  0.108E-01
 -15.856  0.105E-01  0.105E-01
 -15.846  0.102E-01  0.102E-01
 -15.836  0.990E-02  0.990E-02
 -15.826  0.960E-02  0.960E-02
 -15.816  0.931E-02  0.931E-02
 -15.806  0.903E-02  0.903E-02
 -15.796  0.874E-02  0.874E-02
 -15.786  0.846E-02  0.846E-02
 -15.776  0.818E-02  0.818E-02
 -15.766  0.790E-02  0.790E-02
 -15.756  0.762E-02  0.762E-02
 -15.746  0.735E-02  0.735E-02
 -15.736  0.708E-02  0.708E-02
 -15.726  0.681E-02  0.681E-02
 -15.716  0.655E-02  0.655E-02
 -15.706  0.628E-02  0.628E-02
 -15.696  0.602E-02  0.602E-02
 -15.686  0.577E-02  0.577E-02
 -15.676  0.551E-02  0.551E-02
 -15.666  0.526E-02  0.526E-02
 -15.656  0.501E-02  0.501E-02
 -15.646  0.476E-02  0.476E-02
 -15.636  0.452E-02  0.452E-02
 -15.626  0.428E-02  0.428E-02
 -15.616  0.405E-02  0.405E-02
 -15.606  0.381E-02  0.381E-02
 -15.596  0.358E-02  0.358E-02
 -15.586  0.335E-02  0.335E-02
 -15.576  0.313E-02  0.313E-02
 -15.566  0.291E-02  0.291E-02
 -15.556  0.269E-02  0.269E-02
 -15.546  0.248E-02  0.248E-02
 -15.536  0.227E-02  0.227E-02
 -15.526  0.206E-02  0.206E-02
 -15.516  0.186E-02  0.186E-02
 -15.506  0.166E-02  0.166E-02
 -15.496  0.146E-02  0.146E-02
 -15.486  0.127E-02  0.127E-02
 -15.476  0.108E-02  0.108E-02
 -15.466  0.896E-03  0.896E-03
 -15.456  0.714E-03  0.714E-03
 -15.446  0.536E-03  0.536E-03
 -15.436  0.360E-03  0.360E-03
 -15.426  0.189E-03  0.189E-03
 -15.416  0.205E-04  0.205E-04
 -15.406 -0.145E-03 -0.145E-03
 -15.396 -0.306E-03 -0.306E-03
 -15.386 -0.465E-03 -0.465E-03
 -15.376 -0.620E-03 -0.620E-03
 -15.366 -0.772E-03 -0.772E-03
 -15.356 -0.921E-03 -0.921E-03
 -15.346 -0.107E-02 -0.107E-02
 -15.336 -0.121E-02 -0.121E-02
 -15.326 -0.135E-02 -0.135E-02
 -15.316 -0.149E-02 -0.149E-02
 -15.306 -0.162E-02 -0.162E-02
 -15.296 -0.176E-02 -0.176E-02
 -15.286 -0.189E-02 -0.189E-02
 -15.276 -0.201E-02 -0.201E-02
 -15.266 -0.214E-02 -0.214E-02
 -15.256 -0.226E-02 -0.226E-02
 -15.246 -0.238E-02 -0.238E-02
 -15.236 -0.250E-02 -0.250E-02
 -15.226 -0.262E-02 -0.262E-02
 -15.216 -0.273E-02 -0.273E-02
 -15.206 -0.284E-02 -0.284E-02
 -15.196 -0.295E-02 -0.295E-02
 -15.186 -0.306E-02 -0.306E-02
 -15.176 -0.317E-02 -0.317E-02
 -15.166 -0.328E-02 -0.328E-02
 -15.156 -0.338E-02 -0.338E-02
 -15.146 -0.348E-02 -0.348E-02
 -15.136 -0.358E-02 -0.358E-02
 -15.126 -0.368E-02 -0.368E-02
 -15.116 -0.377E-02 -0.377E-02
 -15.106 -0.387E-02 -0.387E-02
 -15.096 -0.396E-02 -0.396E-02
 -15.086 -0.405E-02 -0.405E-02
 -15.076 -0.414E-02 -0.414E-02
 -15.066 -0.422E-02 -0.422E-02
 -15.056 -0.431E-02 -0.431E-02
 -15.046 -0.439E-02 -0.439E-02
 -15.036 -0.447E-02 -0.447E-02
 -15.026 -0.454E-02 -0.454E-02
 -15.016 -0.461E-02 -0.461E-02
 -15.006 -0.468E-02 -0.468E-02
 -14.996 -0.475E-02 -0.475E-02
 -14.986 -0.481E-02 -0.481E-02
 -14.976 -0.487E-02 -0.487E-02
 -14.966 -0.492E-02 -0.492E-02
 -14.956 -0.497E-02 -0.497E-02
 -14.946 -0.501E-02 -0.501E-02
 -14.936 -0.505E-02 -0.505E-02
 -14.926 -0.508E-02 -0.508E-02
 -14.916 -0.511E-02 -0.511E-02
 -14.906 -0.513E-02 -0.513E-02
 -14.896 -0.514E-02 -0.514E-02
 -14.886 -0.515E-02 -0.515E-02
 -14.876 -0.514E-02 -0.514E-02
 -14.866 -0.513E-02 -0.513E-02
 -14.856 -0.511E-02 -0.511E-02
 -14.846 -0.508E-02 -0.508E-02
 -14.836 -0.504E-02 -0.504E-02
 -14.826 -0.499E-02 -0.499E-02
 -14.816 -0.492E-02 -0.492E-02
 -14.806 -0.485E-02 -0.485E-02
 -14.796 -0.476E-02 -0.476E-02
 -14.786 -0.466E-02 -0.466E-02
 -14.776 -0.455E-02 -0.455E-02
 -14.766 -0.442E-02 -0.442E-02
 -14.756 -0.428E-02 -0.428E-02
 -14.746 -0.412E-02 -0.412E-02
 -14.736 -0.394E-02 -0.394E-02
 -14.726 -0.375E-02 -0.375E-02
 -14.716 -0.354E-02 -0.354E-02
 -14.706 -0.331E-02 -0.331E-02
 -14.696 -0.307E-02 -0.307E-02
 -14.686 -0.280E-02 -0.280E-02
 -14.676 -0.251E-02 -0.251E-02
 -14.666 -0.220E-02 -0.220E-02
 -14.656 -0.188E-02 -0.188E-02
 -14.646 -0.153E-02 -0.153E-02
 -14.636 -0.115E-02 -0.115E-02
 -14.626 -0.755E-03 -0.755E-03
 -14.616 -0.335E-03 -0.335E-03
 -14.606  0.109E-03  0.109E-03
 -14.596  0.578E-03  0.578E-03
 -14.586  0.107E-02  0.107E-02
 -14.576  0.159E-02  0.159E-02
 -14.566  0.214E-02  0.214E-02
 -14.556  0.271E-02  0.271E-02
 -14.546  0.331E-02  0.331E-02
 -14.536  0.393E-02  0.393E-02
 -14.526  0.458E-02  0.458E-02
 -14.516  0.526E-02  0.526E-02
 -14.506  0.597E-02  0.597E-02
 -14.496  0.670E-02  0.670E-02
 -14.486  0.746E-02  0.746E-02
 -14.476  0.825E-02  0.825E-02
 -14.466  0.907E-02  0.907E-02
 -14.456  0.991E-02  0.991E-02
 -14.446  0.108E-01  0.108E-01
 -14.436  0.117E-01  0.117E-01
 -14.426  0.126E-01  0.126E-01
 -14.416  0.136E-01  0.136E-01
 -14.406  0.145E-01  0.145E-01
 -14.396  0.155E-01  0.155E-01
 -14.386  0.166E-01  0.166E-01
 -14.376  0.176E-01  0.176E-01
 -14.366  0.187E-01  0.187E-01
 -14.356  0.198E-01  0.198E-01
 -14.346  0.209E-01  0.209E-01
 -14.336  0.221E-01  0.221E-01
 -14.326  0.232E-01  0.232E-01
 -14.316  0.244E-01  0.244E-01
 -14.306  0.256E-01  0.256E-01
 -14.296  0.268E-01  0.268E-01
 -14.286  0.280E-01  0.280E-01
 -14.276  0.293E-01  0.293E-01
 -14.266  0.306E-01  0.306E-01
 -14.256  0.318E-01  0.318E-01
 -14.246  0.331E-01  0.331E-01
 -14.236  0.344E-01  0.344E-01
 -14.226  0.357E-01  0.357E-01
 -14.216  0.370E-01  0.370E-01
 -14.206  0.383E-01  0.383E-01
 -14.196  0.397E-01  0.397E-01
 -14.186  0.410E-01  0.410E-01
 -14.176  0.423E-01  0.423E-01
 -14.166  0.436E-01  0.436E-01
 -14.156  0.449E-01  0.449E-01
 -14.146  0.462E-01  0.462E-01
 -14.136  0.476E-01  0.476E-01
 -14.126  0.489E-01  0.489E-01
 -14.116  0.501E-01  0.501E-01
 -14.106  0.514E-01  0.514E-01
 -14.096  0.527E-01  0.527E-01
 -14.086  0.539E-01  0.539E-01
 -14.076  0.552E-01  0.552E-01
 -14.066  0.564E-01  0.564E-01
 -14.056  0.576E-01  0.576E-01
 -14.046  0.587E-01  0.587E-01
 -14.036  0.599E-01  0.599E-01
 -14.026  0.610E-01  0.610E-01
 -14.016  0.621E-01  0.621E-01
 -14.006  0.632E-01  0.632E-01
 -13.996  0.642E-01  0.642E-01
 -13.986  0.652E-01  0.652E-01
 -13.976  0.662E-01  0.662E-01
 -13.966  0.672E-01  0.672E-01
 -13.956  0.681E-01  0.681E-01
 -13.946  0.690E-01  0.690E-01
 -13.936  0.698E-01  0.698E-01
 -13.926  0.706E-01  0.706E-01
 -13.916  0.714E-01  0.714E-01
 -13.906  0.721E-01  0.721E-01
 -13.896  0.728E-01  0.728E-01
 -13.886  0.734E-01  0.734E-01
 -13.876  0.740E-01  0.740E-01
 -13.866  0.746E-01  0.746E-01
 -13.856  0.751E-01  0.751E-01
 -13.846  0.756E-01  0.756E-01
 -13.836  0.760E-01  0.760E-01
 -13.826  0.764E-01  0.764E-01
 -13.816  0.768E-01  0.768E-01
 -13.806  0.771E-01  0.771E-01
 -13.796  0.774E-01  0.774E-01
 -13.786  0.776E-01  0.776E-01
 -13.776  0.778E-01  0.778E-01
 -13.766  0.780E-01  0.780E-01
 -13.756  0.781E-01  0.781E-01
 -13.746  0.781E-01  0.781E-01
 -13.736  0.782E-01  0.782E-01
 -13.726  0.782E-01  0.782E-01
 -13.716  0.781E-01  0.781E-01
 -13.706  0.780E-01  0.780E-01
 -13.696  0.779E-01  0.779E-01
 -13.686  0.778E-01  0.778E-01
 -13.676  0.776E-01  0.776E-01
 -13.666  0.774E-01  0.774E-01
 -13.656  0.771E-01  0.771E-01
 -13.646  0.768E-01  0.768E-01
 -13.636  0.765E-01  0.765E-01
 -13.626  0.762E-01  0.762E-01
 -13.616  0.758E-01  0.758E-01
 -13.606  0.755E-01  0.755E-01
 -13.596  0.751E-01  0.751E-01
 -13.586  0.746E-01  0.746E-01
 -13.576  0.742E-01  0.742E-01
 -13.566  0.737E-01  0.737E-01
 -13.556  0.732E-01  0.732E-01
 -13.546  0.728E-01  0.728E-01
 -13.536  0.722E-01  0.722E-01
 -13.526  0.717E-01  0.717E-01
 -13.516  0.712E-01  0.712E-01
 -13.506  0.707E-01  0.707E-01
 -13.496  0.701E-01  0.701E-01
 -13.486  0.696E-01  0.696E-01
 -13.476  0.690E-01  0.690E-01
 -13.466  0.685E-01  0.685E-01
 -13.456  0.679E-01  0.679E-01
 -13.446  0.673E-01  0.673E-01
 -13.436  0.668E-01  0.668E-01
 -13.426  0.662E-01  0.662E-01
 -13.416  0.657E-01  0.657E-01
 -13.406  0.651E-01  0.651E-01
 -13.396  0.646E-01  0.646E-01
 -13.386  0.640E-01  0.640E-01
 -13.376  0.635E-01  0.635E-01
 -13.366  0.630E-01  0.630E-01
 -13.356  0.625E-01  0.625E-01
 -13.346  0.619E-01  0.619E-01
 -13.336  0.614E-01  0.614E-01
 -13.326  0.610E-01  0.610E-01
 -13.316  0.605E-01  0.605E-01
 -13.306  0.600E-01  0.600E-01
 -13.296  0.595E-01  0.595E-01
 -13.286  0.591E-01  0.591E-01
 -13.276  0.587E-01  0.587E-01
 -13.266  0.582E-01  0.582E-01
 -13.256  0.578E-01  0.578E-01
 -13.246  0.574E-01  0.574E-01
 -13.236  0.570E-01  0.570E-01
 -13.226  0.567E-01  0.567E-01
 -13.216  0.563E-01  0.563E-01
 -13.206  0.559E-01  0.559E-01
 -13.196  0.556E-01  0.556E-01
 -13.186  0.552E-01  0.552E-01
 -13.176  0.549E-01  0.549E-01
 -13.166  0.546E-01  0.546E-01
 -13.156  0.543E-01  0.543E-01
 -13.146  0.539E-01  0.539E-01
 -13.136  0.536E-01  0.536E-01
 -13.126  0.533E-01  0.533E-01
 -13.116  0.530E-01  0.530E-01
 -13.106  0.527E-01  0.527E-01
 -13.096  0.525E-01  0.525E-01
 -13.086  0.522E-01  0.522E-01
 -13.076  0.519E-01  0.519E-01
 -13.066  0.516E-01  0.516E-01
 -13.056  0.513E-01  0.513E-01
 -13.046  0.510E-01  0.510E-01
 -13.036  0.507E-01  0.507E-01
 -13.026  0.504E-01  0.504E-01
 -13.016  0.501E-01  0.501E-01
 -13.006  0.498E-01  0.498E-01
 -12.996  0.495E-01  0.495E-01
 -12.986  0.492E-01  0.492E-01
 -12.976  0.489E-01  0.489E-01
 -12.966  0.485E-01  0.485E-01
 -12.956  0.482E-01  0.482E-01
 -12.946  0.478E-01  0.478E-01
 -12.936  0.475E-01  0.475E-01
 -12.926  0.471E-01  0.471E-01
 -12.916  0.467E-01  0.467E-01
 -12.906  0.463E-01  0.463E-01
 -12.896  0.459E-01  0.459E-01
 -12.886  0.455E-01  0.455E-01
 -12.876  0.450E-01  0.450E-01
 -12.866  0.446E-01  0.446E-01
 -12.856  0.441E-01  0.441E-01
 -12.846  0.436E-01  0.436E-01
 -12.836  0.431E-01  0.431E-01
 -12.826  0.426E-01  0.426E-01
 -12.816  0.421E-01  0.421E-01
 -12.806  0.416E-01  0.416E-01
 -12.796  0.410E-01  0.410E-01
 -12.786  0.404E-01  0.404E-01
 -12.776  0.398E-01  0.398E-01
 -12.766  0.393E-01  0.393E-01
 -12.756  0.386E-01  0.386E-01
 -12.746  0.380E-01  0.380E-01
 -12.736  0.374E-01  0.374E-01
 -12.726  0.367E-01  0.367E-01
 -12.716  0.361E-01  0.361E-01
 -12.706  0.354E-01  0.354E-01
 -12.696  0.347E-01  0.347E-01
 -12.686  0.340E-01  0.340E-01
 -12.676  0.333E-01  0.333E-01
 -12.666  0.326E-01  0.326E-01
 -12.656  0.318E-01  0.318E-01
 -12.646  0.311E-01  0.311E-01
 -12.636  0.303E-01  0.303E-01
 -12.626  0.296E-01  0.296E-01
 -12.616  0.288E-01  0.288E-01
 -12.606  0.281E-01  0.281E-01
 -12.596  0.273E-01  0.273E-01
 -12.586  0.265E-01  0.265E-01
 -12.576  0.257E-01  0.257E-01
 -12.566  0.250E-01  0.250E-01
 -12.556  0.242E-01  0.242E-01
 -12.546  0.234E-01  0.234E-01
 -12.536  0.226E-01  0.226E-01
 -12.526  0.218E-01  0.218E-01
 -12.516  0.211E-01  0.211E-01
 -12.506  0.203E-01  0.203E-01
 -12.496  0.195E-01  0.195E-01
 -12.486  0.187E-01  0.187E-01
 -12.476  0.180E-01  0.180E-01
 -12.466  0.172E-01  0.172E-01
 -12.456  0.165E-01  0.165E-01
 -12.446  0.157E-01  0.157E-01
 -12.436  0.150E-01  0.150E-01
 -12.426  0.143E-01  0.143E-01
 -12.416  0.135E-01  0.135E-01
 -12.406  0.128E-01  0.128E-01
 -12.396  0.121E-01  0.121E-01
 -12.386  0.115E-01  0.115E-01
 -12.376  0.108E-01  0.108E-01
 -12.366  0.101E-01  0.101E-01
 -12.356  0.947E-02  0.947E-02
 -12.346  0.883E-02  0.883E-02
 -12.336  0.821E-02  0.821E-02
 -12.326  0.760E-02  0.760E-02
 -12.316  0.701E-02  0.701E-02
 -12.306  0.643E-02  0.643E-02
 -12.296  0.586E-02  0.586E-02
 -12.286  0.531E-02  0.531E-02
 -12.276  0.478E-02  0.478E-02
 -12.266  0.426E-02  0.426E-02
 -12.256  0.376E-02  0.376E-02
 -12.246  0.327E-02  0.327E-02
 -12.236  0.280E-02  0.280E-02
 -12.226  0.235E-02  0.235E-02
 -12.216  0.191E-02  0.191E-02
 -12.206  0.149E-02  0.149E-02
 -12.196  0.108E-02  0.108E-02
 -12.186  0.695E-03  0.695E-03
 -12.176  0.322E-03  0.322E-03
 -12.166 -0.348E-04 -0.348E-04
 -12.156 -0.376E-03 -0.376E-03
 -12.146 -0.701E-03 -0.701E-03
 -12.136 -0.101E-02 -0.101E-02
 -12.126 -0.131E-02 -0.131E-02
 -12.116 -0.159E-02 -0.159E-02
 -12.106 -0.185E-02 -0.185E-02
 -12.096 -0.210E-02 -0.210E-02
 -12.086 -0.233E-02 -0.233E-02
 -12.076 -0.256E-02 -0.256E-02
 -12.066 -0.276E-02 -0.276E-02
 -12.056 -0.296E-02 -0.296E-02
 -12.046 -0.314E-02 -0.314E-02
 -12.036 -0.330E-02 -0.330E-02
 -12.026 -0.346E-02 -0.346E-02
 -12.016 -0.360E-02 -0.360E-02
 -12.006 -0.373E-02 -0.373E-02
 -11.996 -0.385E-02 -0.385E-02
 -11.986 -0.396E-02 -0.396E-02
 -11.976 -0.405E-02 -0.405E-02
 -11.966 -0.414E-02 -0.414E-02
 -11.956 -0.421E-02 -0.421E-02
 -11.946 -0.428E-02 -0.428E-02
 -11.936 -0.433E-02 -0.433E-02
 -11.926 -0.438E-02 -0.438E-02
 -11.916 -0.442E-02 -0.442E-02
 -11.906 -0.445E-02 -0.445E-02
 -11.896 -0.447E-02 -0.447E-02
 -11.886 -0.448E-02 -0.448E-02
 -11.876 -0.448E-02 -0.448E-02
 -11.866 -0.448E-02 -0.448E-02
 -11.856 -0.447E-02 -0.447E-02
 -11.846 -0.445E-02 -0.445E-02
 -11.836 -0.443E-02 -0.443E-02
 -11.826 -0.440E-02 -0.440E-02
 -11.816 -0.436E-02 -0.436E-02
 -11.806 -0.432E-02 -0.432E-02
 -11.796 -0.427E-02 -0.427E-02
 -11.786 -0.422E-02 -0.422E-02
 -11.776 -0.416E-02 -0.416E-02
 -11.766 -0.410E-02 -0.410E-02
 -11.756 -0.403E-02 -0.403E-02
 -11.746 -0.395E-02 -0.395E-02
 -11.736 -0.387E-02 -0.387E-02
 -11.726 -0.379E-02 -0.379E-02
 -11.716 -0.370E-02 -0.370E-02
 -11.706 -0.360E-02 -0.360E-02
 -11.696 -0.350E-02 -0.350E-02
 -11.686 -0.339E-02 -0.339E-02
 -11.676 -0.328E-02 -0.328E-02
 -11.666 -0.316E-02 -0.316E-02
 -11.656 -0.304E-02 -0.304E-02
 -11.646 -0.291E-02 -0.291E-02
 -11.636 -0.278E-02 -0.278E-02
 -11.626 -0.264E-02 -0.264E-02
 -11.616 -0.249E-02 -0.249E-02
 -11.606 -0.233E-02 -0.233E-02
 -11.596 -0.217E-02 -0.217E-02
 -11.586 -0.200E-02 -0.200E-02
 -11.576 -0.183E-02 -0.183E-02
 -11.566 -0.164E-02 -0.164E-02
 -11.556 -0.144E-02 -0.144E-02
 -11.546 -0.124E-02 -0.124E-02
 -11.536 -0.103E-02 -0.103E-02
 -11.526 -0.802E-03 -0.802E-03
 -11.516 -0.567E-03 -0.567E-03
 -11.506 -0.320E-03 -0.320E-03
 -11.496 -0.607E-04 -0.607E-04
 -11.486  0.211E-03  0.211E-03
 -11.476  0.497E-03  0.497E-03
 -11.466  0.797E-03  0.797E-03
 -11.456  0.111E-02  0.111E-02
 -11.446  0.144E-02  0.144E-02
 -11.436  0.179E-02  0.179E-02
 -11.426  0.215E-02  0.215E-02
 -11.416  0.254E-02  0.254E-02
 -11.406  0.294E-02  0.294E-02
 -11.396  0.336E-02  0.336E-02
 -11.386  0.380E-02  0.380E-02
 -11.376  0.426E-02  0.426E-02
 -11.366  0.475E-02  0.475E-02
 -11.356  0.526E-02  0.526E-02
 -11.346  0.579E-02  0.579E-02
 -11.336  0.635E-02  0.635E-02
 -11.326  0.693E-02  0.693E-02
 -11.316  0.754E-02  0.754E-02
 -11.306  0.818E-02  0.818E-02
 -11.296  0.885E-02  0.885E-02
 -11.286  0.955E-02  0.955E-02
 -11.276  0.103E-01  0.103E-01
 -11.266  0.110E-01  0.110E-01
 -11.256  0.118E-01  0.118E-01
 -11.246  0.126E-01  0.126E-01
 -11.236  0.135E-01  0.135E-01
 -11.226  0.144E-01  0.144E-01
 -11.216  0.153E-01  0.153E-01
 -11.206  0.163E-01  0.163E-01
 -11.196  0.173E-01  0.173E-01
 -11.186  0.183E-01  0.183E-01
 -11.176  0.194E-01  0.194E-01
 -11.166  0.205E-01  0.205E-01
 -11.156  0.216E-01  0.216E-01
 -11.146  0.228E-01  0.228E-01
 -11.136  0.240E-01  0.240E-01
 -11.126  0.253E-01  0.253E-01
 -11.116  0.266E-01  0.266E-01
 -11.106  0.279E-01  0.279E-01
 -11.096  0.293E-01  0.293E-01
 -11.086  0.307E-01  0.307E-01
 -11.076  0.321E-01  0.321E-01
 -11.066  0.336E-01  0.336E-01
 -11.056  0.351E-01  0.351E-01
 -11.046  0.367E-01  0.367E-01
 -11.036  0.383E-01  0.383E-01
 -11.026  0.399E-01  0.399E-01
 -11.016  0.416E-01  0.416E-01
 -11.006  0.433E-01  0.433E-01
 -10.996  0.450E-01  0.450E-01
 -10.986  0.468E-01  0.468E-01
 -10.976  0.486E-01  0.486E-01
 -10.966  0.504E-01  0.504E-01
 -10.956  0.522E-01  0.522E-01
 -10.946  0.541E-01  0.541E-01
 -10.936  0.560E-01  0.560E-01
 -10.926  0.579E-01  0.579E-01
 -10.916  0.599E-01  0.599E-01
 -10.906  0.618E-01  0.618E-01
 -10.896  0.638E-01  0.638E-01
 -10.886  0.658E-01  0.658E-01
 -10.876  0.678E-01  0.678E-01
 -10.866  0.698E-01  0.698E-01
 -10.856  0.718E-01  0.718E-01
 -10.846  0.738E-01  0.738E-01
 -10.836  0.758E-01  0.758E-01
 -10.826  0.779E-01  0.779E-01
 -10.816  0.799E-01  0.799E-01
 -10.806  0.819E-01  0.819E-01
 -10.796  0.839E-01  0.839E-01
 -10.786  0.859E-01  0.859E-01
 -10.776  0.879E-01  0.879E-01
 -10.766  0.898E-01  0.898E-01
 -10.756  0.917E-01  0.917E-01
 -10.746  0.937E-01  0.937E-01
 -10.736  0.955E-01  0.955E-01
 -10.726  0.974E-01  0.974E-01
 -10.716  0.992E-01  0.992E-01
 -10.706  0.101E+00  0.101E+00
 -10.696  0.103E+00  0.103E+00
 -10.686  0.104E+00  0.104E+00
 -10.676  0.106E+00  0.106E+00
 -10.666  0.108E+00  0.108E+00
 -10.656  0.109E+00  0.109E+00
 -10.646  0.111E+00  0.111E+00
 -10.636  0.112E+00  0.112E+00
 -10.626  0.114E+00  0.114E+00
 -10.616  0.115E+00  0.115E+00
 -10.606  0.116E+00  0.116E+00
 -10.596  0.118E+00  0.118E+00
 -10.586  0.119E+00  0.119E+00
 -10.576  0.120E+00  0.120E+00
 -10.566  0.121E+00  0.121E+00
 -10.556  0.122E+00  0.122E+00
 -10.546  0.123E+00  0.123E+00
 -10.536  0.123E+00  0.123E+00
 -10.526  0.124E+00  0.124E+00
 -10.516  0.125E+00  0.125E+00
 -10.506  0.125E+00  0.125E+00
 -10.496  0.126E+00  0.126E+00
 -10.486  0.126E+00  0.126E+00
 -10.476  0.126E+00  0.126E+00
 -10.466  0.126E+00  0.126E+00
 -10.456  0.127E+00  0.127E+00
 -10.446  0.127E+00  0.127E+00
 -10.436  0.126E+00  0.126E+00
 -10.426  0.126E+00  0.126E+00
 -10.416  0.126E+00  0.126E+00
 -10.406  0.126E+00  0.126E+00
 -10.396  0.125E+00  0.125E+00
 -10.386  0.125E+00  0.125E+00
 -10.376  0.124E+00  0.124E+00
 -10.366  0.124E+00  0.124E+00
 -10.356  0.123E+00  0.123E+00
 -10.346  0.122E+00  0.122E+00
 -10.336  0.121E+00  0.121E+00
 -10.326  0.120E+00  0.120E+00
 -10.316  0.119E+00  0.119E+00
 -10.306  0.118E+00  0.118E+00
 -10.296  0.117E+00  0.117E+00
 -10.286  0.116E+00  0.116E+00
 -10.276  0.115E+00  0.115E+00
 -10.266  0.113E+00  0.113E+00
 -10.256  0.112E+00  0.112E+00
 -10.246  0.110E+00  0.110E+00
 -10.236  0.109E+00  0.109E+00
 -10.226  0.107E+00  0.107E+00
 -10.216  0.106E+00  0.106E+00
 -10.206  0.104E+00  0.104E+00
 -10.196  0.102E+00  0.102E+00
 -10.186  0.101E+00  0.101E+00
 -10.176  0.989E-01  0.989E-01
 -10.166  0.972E-01  0.972E-01
 -10.156  0.954E-01  0.954E-01
 -10.146  0.936E-01  0.936E-01
 -10.136  0.918E-01  0.918E-01
 -10.126  0.899E-01  0.899E-01
 -10.116  0.881E-01  0.881E-01
 -10.106  0.863E-01  0.863E-01
 -10.096  0.844E-01  0.844E-01
 -10.086  0.826E-01  0.826E-01
 -10.076  0.808E-01  0.808E-01
 -10.066  0.790E-01  0.790E-01
 -10.056  0.772E-01  0.772E-01
 -10.046  0.754E-01  0.754E-01
 -10.036  0.737E-01  0.737E-01
 -10.026  0.720E-01  0.720E-01
 -10.016  0.703E-01  0.703E-01
 -10.006  0.686E-01  0.686E-01
  -9.996  0.670E-01  0.670E-01
  -9.986  0.654E-01  0.654E-01
  -9.976  0.639E-01  0.639E-01
  -9.966  0.624E-01  0.624E-01
  -9.956  0.609E-01  0.609E-01
  -9.946  0.596E-01  0.596E-01
  -9.936  0.582E-01  0.582E-01
  -9.926  0.569E-01  0.569E-01
  -9.916  0.557E-01  0.557E-01
  -9.906  0.546E-01  0.546E-01
  -9.896  0.535E-01  0.535E-01
  -9.886  0.524E-01  0.524E-01
  -9.876  0.514E-01  0.514E-01
  -9.866  0.505E-01  0.505E-01
  -9.856  0.497E-01  0.497E-01
  -9.846  0.489E-01  0.489E-01
  -9.836  0.482E-01  0.482E-01
  -9.826  0.476E-01  0.476E-01
  -9.816  0.470E-01  0.470E-01
  -9.806  0.465E-01  0.465E-01
  -9.796  0.461E-01  0.461E-01
  -9.786  0.458E-01  0.458E-01
  -9.776  0.455E-01  0.455E-01
  -9.766  0.453E-01  0.453E-01
  -9.756  0.451E-01  0.451E-01
  -9.746  0.450E-01  0.450E-01
  -9.736  0.450E-01  0.450E-01
  -9.726  0.451E-01  0.451E-01
  -9.716  0.452E-01  0.452E-01
  -9.706  0.454E-01  0.454E-01
  -9.696  0.457E-01  0.457E-01
  -9.686  0.460E-01  0.460E-01
  -9.676  0.463E-01  0.463E-01
  -9.666  0.468E-01  0.468E-01
  -9.656  0.473E-01  0.473E-01
  -9.646  0.478E-01  0.478E-01
  -9.636  0.484E-01  0.484E-01
  -9.626  0.490E-01  0.490E-01
  -9.616  0.497E-01  0.497E-01
  -9.606  0.504E-01  0.504E-01
  -9.596  0.512E-01  0.512E-01
  -9.586  0.520E-01  0.520E-01
  -9.576  0.528E-01  0.528E-01
  -9.566  0.537E-01  0.537E-01
  -9.556  0.546E-01  0.546E-01
  -9.546  0.556E-01  0.556E-01
  -9.536  0.565E-01  0.565E-01
  -9.526  0.575E-01  0.575E-01
  -9.516  0.585E-01  0.585E-01
  -9.506  0.596E-01  0.596E-01
  -9.496  0.606E-01  0.606E-01
  -9.486  0.617E-01  0.617E-01
  -9.476  0.627E-01  0.627E-01
  -9.466  0.638E-01  0.638E-01
  -9.456  0.649E-01  0.649E-01
  -9.446  0.659E-01  0.659E-01
  -9.436  0.670E-01  0.670E-01
  -9.426  0.681E-01  0.681E-01
  -9.416  0.692E-01  0.692E-01
  -9.406  0.702E-01  0.702E-01
  -9.396  0.713E-01  0.713E-01
  -9.386  0.723E-01  0.723E-01
  -9.376  0.734E-01  0.734E-01
  -9.366  0.744E-01  0.744E-01
  -9.356  0.754E-01  0.754E-01
  -9.346  0.764E-01  0.764E-01
  -9.336  0.773E-01  0.773E-01
  -9.326  0.782E-01  0.782E-01
  -9.316  0.792E-01  0.792E-01
  -9.306  0.800E-01  0.800E-01
  -9.296  0.809E-01  0.809E-01
  -9.286  0.817E-01  0.817E-01
  -9.276  0.825E-01  0.825E-01
  -9.266  0.833E-01  0.833E-01
  -9.256  0.841E-01  0.841E-01
  -9.246  0.848E-01  0.848E-01
  -9.236  0.855E-01  0.855E-01
  -9.226  0.861E-01  0.861E-01
  -9.216  0.867E-01  0.867E-01
  -9.206  0.873E-01  0.873E-01
  -9.196  0.879E-01  0.879E-01
  -9.186  0.884E-01  0.884E-01
  -9.176  0.889E-01  0.889E-01
  -9.166  0.894E-01  0.894E-01
  -9.156  0.898E-01  0.898E-01
  -9.146  0.902E-01  0.902E-01
  -9.136  0.905E-01  0.905E-01
  -9.126  0.909E-01  0.909E-01
  -9.116  0.912E-01  0.912E-01
  -9.106  0.915E-01  0.915E-01
  -9.096  0.917E-01  0.917E-01
  -9.086  0.919E-01  0.919E-01
  -9.076  0.921E-01  0.921E-01
  -9.066  0.923E-01  0.923E-01
  -9.056  0.924E-01  0.924E-01
  -9.046  0.925E-01  0.925E-01
  -9.036  0.926E-01  0.926E-01
  -9.026  0.927E-01  0.927E-01
  -9.016  0.928E-01  0.928E-01
  -9.006  0.928E-01  0.928E-01
  -8.996  0.928E-01  0.928E-01
  -8.986  0.928E-01  0.928E-01
  -8.976  0.928E-01  0.928E-01
  -8.966  0.927E-01  0.927E-01
  -8.956  0.927E-01  0.927E-01
  -8.946  0.926E-01  0.926E-01
  -8.936  0.925E-01  0.925E-01
  -8.926  0.924E-01  0.924E-01
  -8.916  0.923E-01  0.923E-01
  -8.906  0.922E-01  0.922E-01
  -8.896  0.921E-01  0.921E-01
  -8.886  0.920E-01  0.920E-01
  -8.876  0.919E-01  0.919E-01
  -8.866  0.917E-01  0.917E-01
  -8.856  0.916E-01  0.916E-01
  -8.846  0.914E-01  0.914E-01
  -8.836  0.913E-01  0.913E-01
  -8.826  0.911E-01  0.911E-01
  -8.816  0.910E-01  0.910E-01
  -8.806  0.908E-01  0.908E-01
  -8.796  0.907E-01  0.907E-01
  -8.786  0.905E-01  0.905E-01
  -8.776  0.904E-01  0.904E-01
  -8.766  0.902E-01  0.902E-01
  -8.756  0.900E-01  0.900E-01
  -8.746  0.899E-01  0.899E-01
  -8.736  0.897E-01  0.897E-01
  -8.726  0.896E-01  0.896E-01
  -8.716  0.894E-01  0.894E-01
  -8.706  0.892E-01  0.892E-01
  -8.696  0.891E-01  0.891E-01
  -8.686  0.889E-01  0.889E-01
  -8.676  0.888E-01  0.888E-01
  -8.666  0.886E-01  0.886E-01
  -8.656  0.885E-01  0.885E-01
  -8.646  0.883E-01  0.883E-01
  -8.636  0.882E-01  0.882E-01
  -8.626  0.880E-01  0.880E-01
  -8.616  0.878E-01  0.878E-01
  -8.606  0.877E-01  0.877E-01
  -8.596  0.875E-01  0.875E-01
  -8.586  0.873E-01  0.873E-01
  -8.576  0.872E-01  0.872E-01
  -8.566  0.870E-01  0.870E-01
  -8.556  0.868E-01  0.868E-01
  -8.546  0.866E-01  0.866E-01
  -8.536  0.864E-01  0.864E-01
  -8.526  0.862E-01  0.862E-01
  -8.516  0.860E-01  0.860E-01
  -8.506  0.858E-01  0.858E-01
  -8.496  0.856E-01  0.856E-01
  -8.486  0.853E-01  0.853E-01
  -8.476  0.851E-01  0.851E-01
  -8.466  0.848E-01  0.848E-01
  -8.456  0.846E-01  0.846E-01
  -8.446  0.843E-01  0.843E-01
  -8.436  0.840E-01  0.840E-01
  -8.426  0.837E-01  0.837E-01
  -8.416  0.834E-01  0.834E-01
  -8.406  0.830E-01  0.830E-01
  -8.396  0.827E-01  0.827E-01
  -8.386  0.823E-01  0.823E-01
  -8.376  0.819E-01  0.819E-01
  -8.366  0.815E-01  0.815E-01
  -8.356  0.811E-01  0.811E-01
  -8.346  0.807E-01  0.807E-01
  -8.336  0.803E-01  0.803E-01
  -8.326  0.798E-01  0.798E-01
  -8.316  0.793E-01  0.793E-01
  -8.306  0.788E-01  0.788E-01
  -8.296  0.783E-01  0.783E-01
  -8.286  0.778E-01  0.778E-01
  -8.276  0.772E-01  0.772E-01
  -8.266  0.766E-01  0.766E-01
  -8.256  0.760E-01  0.760E-01
  -8.246  0.754E-01  0.754E-01
  -8.236  0.748E-01  0.748E-01
  -8.226  0.741E-01  0.741E-01
  -8.216  0.735E-01  0.735E-01
  -8.206  0.728E-01  0.728E-01
  -8.196  0.721E-01  0.721E-01
  -8.186  0.713E-01  0.713E-01
  -8.176  0.706E-01  0.706E-01
  -8.166  0.698E-01  0.698E-01
  -8.156  0.690E-01  0.690E-01
  -8.146  0.682E-01  0.682E-01
  -8.136  0.674E-01  0.674E-01
  -8.126  0.665E-01  0.665E-01
  -8.116  0.657E-01  0.657E-01
  -8.106  0.648E-01  0.648E-01
  -8.096  0.639E-01  0.639E-01
  -8.086  0.630E-01  0.630E-01
  -8.076  0.620E-01  0.620E-01
  -8.066  0.611E-01  0.611E-01
  -8.056  0.601E-01  0.601E-01
  -8.046  0.591E-01  0.591E-01
  -8.036  0.581E-01  0.581E-01
  -8.026  0.571E-01  0.571E-01
  -8.016  0.561E-01  0.561E-01
  -8.006  0.550E-01  0.550E-01
  -7.996  0.539E-01  0.539E-01
  -7.986  0.529E-01  0.529E-01
  -7.976  0.518E-01  0.518E-01
  -7.966  0.507E-01  0.507E-01
  -7.956  0.495E-01  0.495E-01
  -7.946  0.484E-01  0.484E-01
  -7.936  0.473E-01  0.473E-01
  -7.926  0.461E-01  0.461E-01
  -7.916  0.449E-01  0.449E-01
  -7.906  0.438E-01  0.438E-01
  -7.896  0.426E-01  0.426E-01
  -7.886  0.414E-01  0.414E-01
  -7.876  0.402E-01  0.402E-01
  -7.866  0.390E-01  0.390E-01
  -7.856  0.378E-01  0.378E-01
  -7.846  0.365E-01  0.365E-01
  -7.836  0.353E-01  0.353E-01
  -7.826  0.341E-01  0.341E-01
  -7.816  0.328E-01  0.328E-01
  -7.806  0.316E-01  0.316E-01
  -7.796  0.304E-01  0.304E-01
  -7.786  0.291E-01  0.291E-01
  -7.776  0.279E-01  0.279E-01
  -7.766  0.267E-01  0.267E-01
  -7.756  0.254E-01  0.254E-01
  -7.746  0.242E-01  0.242E-01
  -7.736  0.230E-01  0.230E-01
  -7.726  0.218E-01  0.218E-01
  -7.716  0.206E-01  0.206E-01
  -7.706  0.194E-01  0.194E-01
  -7.696  0.183E-01  0.183E-01
  -7.686  0.171E-01  0.171E-01
  -7.676  0.160E-01  0.160E-01
  -7.666  0.149E-01  0.149E-01
  -7.656  0.138E-01  0.138E-01
  -7.646  0.127E-01  0.127E-01
  -7.636  0.117E-01  0.117E-01
  -7.626  0.107E-01  0.107E-01
  -7.616  0.971E-02  0.971E-02
  -7.606  0.876E-02  0.876E-02
  -7.596  0.786E-02  0.786E-02
  -7.586  0.699E-02  0.699E-02
  -7.576  0.617E-02  0.617E-02
  -7.566  0.539E-02  0.539E-02
  -7.556  0.466E-02  0.466E-02
  -7.546  0.398E-02  0.398E-02
  -7.536  0.335E-02  0.335E-02
  -7.526  0.278E-02  0.278E-02
  -7.516  0.227E-02  0.227E-02
  -7.506  0.183E-02  0.183E-02
  -7.496  0.145E-02  0.145E-02
  -7.486  0.114E-02  0.114E-02
  -7.476  0.905E-03  0.905E-03
  -7.466  0.748E-03  0.748E-03
  -7.456  0.671E-03  0.671E-03
  -7.446  0.679E-03  0.679E-03
  -7.436  0.774E-03  0.774E-03
  -7.426  0.959E-03  0.959E-03
  -7.416  0.124E-02  0.124E-02
  -7.406  0.162E-02  0.162E-02
  -7.396  0.210E-02  0.210E-02
  -7.386  0.268E-02  0.268E-02
  -7.376  0.337E-02  0.337E-02
  -7.366  0.418E-02  0.418E-02
  -7.356  0.510E-02  0.510E-02
  -7.346  0.614E-02  0.614E-02
  -7.336  0.729E-02  0.729E-02
  -7.326  0.858E-02  0.858E-02
  -7.316  0.999E-02  0.999E-02
  -7.306  0.115E-01  0.115E-01
  -7.296  0.132E-01  0.132E-01
  -7.286  0.150E-01  0.150E-01
  -7.276  0.170E-01  0.170E-01
  -7.266  0.190E-01  0.190E-01
  -7.256  0.213E-01  0.213E-01
  -7.246  0.236E-01  0.236E-01
  -7.236  0.262E-01  0.262E-01
  -7.226  0.288E-01  0.288E-01
  -7.216  0.317E-01  0.317E-01
  -7.206  0.346E-01  0.346E-01
  -7.196  0.377E-01  0.377E-01
  -7.186  0.410E-01  0.410E-01
  -7.176  0.444E-01  0.444E-01
  -7.166  0.480E-01  0.480E-01
  -7.156  0.517E-01  0.517E-01
  -7.146  0.556E-01  0.556E-01
  -7.136  0.596E-01  0.596E-01
  -7.126  0.638E-01  0.638E-01
  -7.116  0.681E-01  0.681E-01
  -7.106  0.726E-01  0.726E-01
  -7.096  0.772E-01  0.772E-01
  -7.086  0.820E-01  0.820E-01
  -7.076  0.869E-01  0.869E-01
  -7.066  0.920E-01  0.920E-01
  -7.056  0.971E-01  0.971E-01
  -7.046  0.102E+00  0.102E+00
  -7.036  0.108E+00  0.108E+00
  -7.026  0.113E+00  0.113E+00
  -7.016  0.119E+00  0.119E+00
  -7.006  0.125E+00  0.125E+00
  -6.996  0.131E+00  0.131E+00
  -6.986  0.137E+00  0.137E+00
  -6.976  0.143E+00  0.143E+00
  -6.966  0.149E+00  0.149E+00
  -6.956  0.155E+00  0.155E+00
  -6.946  0.162E+00  0.162E+00
  -6.936  0.168E+00  0.168E+00
  -6.926  0.175E+00  0.175E+00
  -6.916  0.181E+00  0.181E+00
  -6.906  0.188E+00  0.188E+00
  -6.896  0.194E+00  0.194E+00
  -6.886  0.201E+00  0.201E+00
  -6.876  0.208E+00  0.208E+00
  -6.866  0.215E+00  0.215E+00
  -6.856  0.221E+00  0.221E+00
  -6.846  0.228E+00  0.228E+00
  -6.836  0.235E+00  0.235E+00
  -6.826  0.241E+00  0.241E+00
  -6.816  0.248E+00  0.248E+00
  -6.806  0.255E+00  0.255E+00
  -6.796  0.261E+00  0.261E+00
  -6.786  0.268E+00  0.268E+00
  -6.776  0.274E+00  0.274E+00
  -6.766  0.281E+00  0.281E+00
  -6.756  0.287E+00  0.287E+00
  -6.746  0.293E+00  0.293E+00
  -6.736  0.299E+00  0.299E+00
  -6.726  0.305E+00  0.305E+00
  -6.716  0.311E+00  0.311E+00
  -6.706  0.317E+00  0.317E+00
  -6.696  0.322E+00  0.322E+00
  -6.686  0.328E+00  0.328E+00
  -6.676  0.333E+00  0.333E+00
  -6.666  0.338E+00  0.338E+00
  -6.656  0.343E+00  0.343E+00
  -6.646  0.347E+00  0.347E+00
  -6.636  0.352E+00  0.352E+00
  -6.626  0.356E+00  0.356E+00
  -6.616  0.360E+00  0.360E+00
  -6.606  0.364E+00  0.364E+00
  -6.596  0.368E+00  0.368E+00
  -6.586  0.371E+00  0.371E+00
  -6.576  0.375E+00  0.375E+00
  -6.566  0.378E+00  0.378E+00
  -6.556  0.380E+00  0.380E+00
  -6.546  0.383E+00  0.383E+00
  -6.536  0.385E+00  0.385E+00
  -6.526  0.387E+00  0.387E+00
  -6.516  0.389E+00  0.389E+00
  -6.506  0.390E+00  0.390E+00
  -6.496  0.391E+00  0.391E+00
  -6.486  0.392E+00  0.392E+00
  -6.476  0.393E+00  0.393E+00
  -6.466  0.393E+00  0.393E+00
  -6.456  0.393E+00  0.393E+00
  -6.446  0.393E+00  0.393E+00
  -6.436  0.393E+00  0.393E+00
  -6.426  0.392E+00  0.392E+00
  -6.416  0.391E+00  0.391E+00
  -6.406  0.390E+00  0.390E+00
  -6.396  0.388E+00  0.388E+00
  -6.386  0.386E+00  0.386E+00
  -6.376  0.384E+00  0.384E+00
  -6.366  0.382E+00  0.382E+00
  -6.356  0.379E+00  0.379E+00
  -6.346  0.377E+00  0.377E+00
  -6.336  0.374E+00  0.374E+00
  -6.326  0.370E+00  0.370E+00
  -6.316  0.367E+00  0.367E+00
  -6.306  0.363E+00  0.363E+00
  -6.296  0.359E+00  0.359E+00
  -6.286  0.355E+00  0.355E+00
  -6.276  0.351E+00  0.351E+00
  -6.266  0.346E+00  0.346E+00
  -6.256  0.342E+00  0.342E+00
  -6.246  0.337E+00  0.337E+00
  -6.236  0.332E+00  0.332E+00
  -6.226  0.326E+00  0.326E+00
  -6.216  0.321E+00  0.321E+00
  -6.206  0.315E+00  0.315E+00
  -6.196  0.310E+00  0.310E+00
  -6.186  0.304E+00  0.304E+00
  -6.176  0.298E+00  0.298E+00
  -6.166  0.292E+00  0.292E+00
  -6.156  0.286E+00  0.286E+00
  -6.146  0.280E+00  0.280E+00
  -6.136  0.273E+00  0.273E+00
  -6.126  0.267E+00  0.267E+00
  -6.116  0.260E+00  0.260E+00
  -6.106  0.254E+00  0.254E+00
  -6.096  0.247E+00  0.247E+00
  -6.086  0.241E+00  0.241E+00
  -6.076  0.234E+00  0.234E+00
  -6.066  0.227E+00  0.227E+00
  -6.056  0.221E+00  0.221E+00
  -6.046  0.214E+00  0.214E+00
  -6.036  0.207E+00  0.207E+00
  -6.026  0.201E+00  0.201E+00
  -6.016  0.194E+00  0.194E+00
  -6.006  0.188E+00  0.188E+00
  -5.996  0.181E+00  0.181E+00
  -5.986  0.174E+00  0.174E+00
  -5.976  0.168E+00  0.168E+00
  -5.966  0.162E+00  0.162E+00
  -5.956  0.155E+00  0.155E+00
  -5.946  0.149E+00  0.149E+00
  -5.936  0.143E+00  0.143E+00
  -5.926  0.137E+00  0.137E+00
  -5.916  0.131E+00  0.131E+00
  -5.906  0.125E+00  0.125E+00
  -5.896  0.119E+00  0.119E+00
  -5.886  0.113E+00  0.113E+00
  -5.876  0.108E+00  0.108E+00
  -5.866  0.102E+00  0.102E+00
  -5.856  0.967E-01  0.967E-01
  -5.846  0.914E-01  0.914E-01
  -5.836  0.863E-01  0.863E-01
  -5.826  0.813E-01  0.813E-01
  -5.816  0.764E-01  0.764E-01
  -5.806  0.716E-01  0.716E-01
  -5.796  0.670E-01  0.670E-01
  -5.786  0.625E-01  0.625E-01
  -5.776  0.581E-01  0.581E-01
  -5.766  0.539E-01  0.539E-01
  -5.756  0.498E-01  0.498E-01
  -5.746  0.458E-01  0.458E-01
  -5.736  0.420E-01  0.420E-01
  -5.726  0.383E-01  0.383E-01
  -5.716  0.348E-01  0.348E-01
  -5.706  0.313E-01  0.313E-01
  -5.696  0.281E-01  0.281E-01
  -5.686  0.249E-01  0.249E-01
  -5.676  0.219E-01  0.219E-01
  -5.666  0.190E-01  0.190E-01
  -5.656  0.163E-01  0.163E-01
  -5.646  0.136E-01  0.136E-01
  -5.636  0.111E-01  0.111E-01
  -5.626  0.876E-02  0.876E-02
  -5.616  0.651E-02  0.651E-02
  -5.606  0.437E-02  0.437E-02
  -5.596  0.235E-02  0.235E-02
  -5.586  0.452E-03  0.452E-03
  -5.576 -0.134E-02 -0.134E-02
  -5.566 -0.302E-02 -0.302E-02
  -5.556 -0.459E-02 -0.459E-02
  -5.546 -0.607E-02 -0.607E-02
  -5.536 -0.744E-02 -0.744E-02
  -5.526 -0.871E-02 -0.871E-02
  -5.516 -0.989E-02 -0.989E-02
  -5.506 -0.110E-01 -0.110E-01
  -5.496 -0.120E-01 -0.120E-01
  -5.486 -0.129E-01 -0.129E-01
  -5.476 -0.137E-01 -0.137E-01
  -5.466 -0.145E-01 -0.145E-01
  -5.456 -0.151E-01 -0.151E-01
  -5.446 -0.157E-01 -0.157E-01
  -5.436 -0.163E-01 -0.163E-01
  -5.426 -0.167E-01 -0.167E-01
  -5.416 -0.171E-01 -0.171E-01
  -5.406 -0.175E-01 -0.175E-01
  -5.396 -0.178E-01 -0.178E-01
  -5.386 -0.180E-01 -0.180E-01
  -5.376 -0.182E-01 -0.182E-01
  -5.366 -0.183E-01 -0.183E-01
  -5.356 -0.184E-01 -0.184E-01
  -5.346 -0.184E-01 -0.184E-01
  -5.336 -0.184E-01 -0.184E-01
  -5.326 -0.184E-01 -0.184E-01
  -5.316 -0.183E-01 -0.183E-01
  -5.306 -0.182E-01 -0.182E-01
  -5.296 -0.180E-01 -0.180E-01
  -5.286 -0.179E-01 -0.179E-01
  -5.276 -0.177E-01 -0.177E-01
  -5.266 -0.175E-01 -0.175E-01
  -5.256 -0.172E-01 -0.172E-01
  -5.246 -0.170E-01 -0.170E-01
  -5.236 -0.167E-01 -0.167E-01
  -5.226 -0.164E-01 -0.164E-01
  -5.216 -0.161E-01 -0.161E-01
  -5.206 -0.158E-01 -0.158E-01
  -5.196 -0.154E-01 -0.154E-01
  -5.186 -0.151E-01 -0.151E-01
  -5.176 -0.147E-01 -0.147E-01
  -5.166 -0.144E-01 -0.144E-01
  -5.156 -0.140E-01 -0.140E-01
  -5.146 -0.136E-01 -0.136E-01
  -5.136 -0.133E-01 -0.133E-01
  -5.126 -0.129E-01 -0.129E-01
  -5.116 -0.125E-01 -0.125E-01
  -5.106 -0.121E-01 -0.121E-01
  -5.096 -0.118E-01 -0.118E-01
  -5.086 -0.114E-01 -0.114E-01
  -5.076 -0.110E-01 -0.110E-01
  -5.066 -0.106E-01 -0.106E-01
  -5.056 -0.103E-01 -0.103E-01
  -5.046 -0.991E-02 -0.991E-02
  -5.036 -0.955E-02 -0.955E-02
  -5.026 -0.920E-02 -0.920E-02
  -5.016 -0.886E-02 -0.886E-02
  -5.006 -0.852E-02 -0.852E-02
  -4.996 -0.819E-02 -0.819E-02
  -4.986 -0.786E-02 -0.786E-02
  -4.976 -0.754E-02 -0.754E-02
  -4.966 -0.723E-02 -0.723E-02
  -4.956 -0.692E-02 -0.692E-02
  -4.946 -0.663E-02 -0.663E-02
  -4.936 -0.634E-02 -0.634E-02
  -4.926 -0.606E-02 -0.606E-02
  -4.916 -0.579E-02 -0.579E-02
  -4.906 -0.552E-02 -0.552E-02
  -4.896 -0.526E-02 -0.526E-02
  -4.886 -0.501E-02 -0.501E-02
  -4.876 -0.477E-02 -0.477E-02
  -4.866 -0.454E-02 -0.454E-02
  -4.856 -0.432E-02 -0.432E-02
  -4.846 -0.410E-02 -0.410E-02
  -4.836 -0.389E-02 -0.389E-02
  -4.826 -0.369E-02 -0.369E-02
  -4.816 -0.349E-02 -0.349E-02
  -4.806 -0.331E-02 -0.331E-02
  -4.796 -0.313E-02 -0.313E-02
  -4.786 -0.295E-02 -0.295E-02
  -4.776 -0.279E-02 -0.279E-02
  -4.766 -0.263E-02 -0.263E-02
  -4.756 -0.248E-02 -0.248E-02
  -4.746 -0.233E-02 -0.233E-02
  -4.736 -0.219E-02 -0.219E-02
  -4.726 -0.206E-02 -0.206E-02
  -4.716 -0.193E-02 -0.193E-02
  -4.706 -0.181E-02 -0.181E-02
  -4.696 -0.169E-02 -0.169E-02
  -4.686 -0.158E-02 -0.158E-02
  -4.676 -0.148E-02 -0.148E-02
  -4.666 -0.138E-02 -0.138E-02
  -4.656 -0.128E-02 -0.128E-02
  -4.646 -0.119E-02 -0.119E-02
  -4.636 -0.111E-02 -0.111E-02
  -4.626 -0.103E-02 -0.103E-02
  -4.616 -0.949E-03 -0.949E-03
  -4.606 -0.876E-03 -0.876E-03
  -4.596 -0.806E-03 -0.806E-03
  -4.586 -0.741E-03 -0.741E-03
  -4.576 -0.679E-03 -0.679E-03
  -4.566 -0.620E-03 -0.620E-03
  -4.556 -0.565E-03 -0.565E-03
  -4.546 -0.512E-03 -0.512E-03
  -4.536 -0.463E-03 -0.463E-03
  -4.526 -0.417E-03 -0.417E-03
  -4.516 -0.373E-03 -0.373E-03
  -4.506 -0.332E-03 -0.332E-03
  -4.496 -0.293E-03 -0.293E-03
  -4.486 -0.257E-03 -0.257E-03
  -4.476 -0.223E-03 -0.223E-03
  -4.466 -0.192E-03 -0.192E-03
  -4.456 -0.162E-03 -0.162E-03
  -4.446 -0.134E-03 -0.134E-03
  -4.436 -0.108E-03 -0.108E-03
  -4.426 -0.838E-04 -0.838E-04
  -4.416 -0.613E-04 -0.613E-04
  -4.406 -0.403E-04 -0.403E-04
  -4.396 -0.209E-04 -0.209E-04
  -4.386 -0.282E-05 -0.282E-05
  -4.376  0.139E-04  0.139E-04
  -4.366  0.293E-04  0.293E-04
  -4.356  0.435E-04  0.435E-04
  -4.346  0.566E-04  0.566E-04
  -4.336  0.686E-04  0.686E-04
  -4.326  0.796E-04  0.796E-04
  -4.316  0.897E-04  0.897E-04
  -4.306  0.988E-04  0.988E-04
  -4.296  0.107E-03  0.107E-03
  -4.286  0.115E-03  0.115E-03
  -4.276  0.121E-03  0.121E-03
  -4.266  0.127E-03  0.127E-03
  -4.256  0.133E-03  0.133E-03
  -4.246  0.137E-03  0.137E-03
  -4.236  0.141E-03  0.141E-03
  -4.226  0.145E-03  0.145E-03
  -4.216  0.148E-03  0.148E-03
  -4.206  0.150E-03  0.150E-03
  -4.196  0.152E-03  0.152E-03
  -4.186  0.154E-03  0.154E-03
  -4.176  0.155E-03  0.155E-03
  -4.166  0.156E-03  0.156E-03
  -4.156  0.156E-03  0.156E-03
  -4.146  0.157E-03  0.157E-03
  -4.136  0.156E-03  0.156E-03
  -4.126  0.156E-03  0.156E-03
  -4.116  0.155E-03  0.155E-03
  -4.106  0.154E-03  0.154E-03
  -4.096  0.153E-03  0.153E-03
  -4.086  0.152E-03  0.152E-03
  -4.076  0.150E-03  0.150E-03
  -4.066  0.148E-03  0.148E-03
  -4.056  0.146E-03  0.146E-03
  -4.046  0.144E-03  0.144E-03
  -4.036  0.142E-03  0.142E-03
  -4.026  0.140E-03  0.140E-03
  -4.016  0.137E-03  0.137E-03
  -4.006  0.135E-03  0.135E-03
  -3.996  0.132E-03  0.132E-03
  -3.986  0.130E-03  0.130E-03
  -3.976  0.127E-03  0.127E-03
  -3.966  0.124E-03  0.124E-03
  -3.956  0.121E-03  0.121E-03
  -3.946  0.118E-03  0.118E-03
  -3.936  0.115E-03  0.115E-03
  -3.926  0.113E-03  0.113E-03
  -3.916  0.110E-03  0.110E-03
  -3.906  0.107E-03  0.107E-03
  -3.896  0.104E-03  0.104E-03
  -3.886  0.101E-03  0.101E-03
  -3.876  0.981E-04  0.981E-04
  -3.866  0.953E-04  0.953E-04
  -3.856  0.925E-04  0.925E-04
  -3.846  0.897E-04  0.897E-04
  -3.836  0.870E-04  0.870E-04
  -3.826  0.843E-04  0.843E-04
  -3.816  0.816E-04  0.816E-04
  -3.806  0.790E-04  0.790E-04
  -3.796  0.764E-04  0.764E-04
  -3.786  0.739E-04  0.739E-04
  -3.776  0.715E-04  0.715E-04
  -3.766  0.691E-04  0.691E-04
  -3.756  0.668E-04  0.668E-04
  -3.746  0.645E-04  0.645E-04
  -3.736  0.623E-04  0.623E-04
  -3.726  0.602E-04  0.602E-04
  -3.716  0.582E-04  0.582E-04
  -3.706  0.562E-04  0.562E-04
  -3.696  0.543E-04  0.543E-04
  -3.686  0.524E-04  0.524E-04
  -3.676  0.507E-04  0.507E-04
  -3.666  0.490E-04  0.490E-04
  -3.656  0.474E-04  0.474E-04
  -3.646  0.458E-04  0.458E-04
  -3.636  0.443E-04  0.443E-04
  -3.626  0.429E-04  0.429E-04
  -3.616  0.416E-04  0.416E-04
  -3.606  0.403E-04  0.403E-04
  -3.596  0.391E-04  0.391E-04
  -3.586  0.380E-04  0.380E-04
  -3.576  0.369E-04  0.369E-04
  -3.566  0.359E-04  0.359E-04
  -3.556  0.349E-04  0.349E-04
  -3.546  0.341E-04  0.341E-04
  -3.536  0.332E-04  0.332E-04
  -3.526  0.325E-04  0.325E-04
  -3.516  0.318E-04  0.318E-04
  -3.506  0.311E-04  0.311E-04
  -3.496  0.305E-04  0.305E-04
  -3.486  0.300E-04  0.300E-04
  -3.476  0.295E-04  0.295E-04
  -3.466  0.290E-04  0.290E-04
  -3.456  0.286E-04  0.286E-04
  -3.446  0.283E-04  0.283E-04
  -3.436  0.280E-04  0.280E-04
  -3.426  0.277E-04  0.277E-04
  -3.416  0.274E-04  0.274E-04
  -3.406  0.272E-04  0.272E-04
  -3.396  0.270E-04  0.270E-04
  -3.386  0.269E-04  0.269E-04
  -3.376  0.268E-04  0.268E-04
  -3.366  0.267E-04  0.267E-04
  -3.356  0.266E-04  0.266E-04
  -3.346  0.266E-04  0.266E-04
  -3.336  0.266E-04  0.266E-04
  -3.326  0.266E-04  0.266E-04
  -3.316  0.266E-04  0.266E-04
  -3.306  0.267E-04  0.267E-04
  -3.296  0.267E-04  0.267E-04
  -3.286  0.268E-04  0.268E-04
  -3.276  0.268E-04  0.268E-04
  -3.266  0.269E-04  0.269E-04
  -3.256  0.270E-04  0.270E-04
  -3.246  0.271E-04  0.271E-04
  -3.236  0.272E-04  0.272E-04
  -3.226  0.273E-04  0.273E-04
  -3.216  0.275E-04  0.275E-04
  -3.206  0.276E-04  0.276E-04
  -3.196  0.277E-04  0.277E-04
  -3.186  0.278E-04  0.278E-04
  -3.176  0.279E-04  0.279E-04
  -3.166  0.280E-04  0.280E-04
  -3.156  0.281E-04  0.281E-04
  -3.146  0.282E-04  0.282E-04
  -3.136  0.283E-04  0.283E-04
  -3.126  0.284E-04  0.284E-04
  -3.116  0.285E-04  0.285E-04
  -3.106  0.286E-04  0.286E-04
  -3.096  0.287E-04  0.287E-04
  -3.086  0.287E-04  0.287E-04
  -3.076  0.288E-04  0.288E-04
  -3.066  0.288E-04  0.288E-04
  -3.056  0.289E-04  0.289E-04
  -3.046  0.289E-04  0.289E-04
  -3.036  0.289E-04  0.289E-04
  -3.026  0.289E-04  0.289E-04
  -3.016  0.289E-04  0.289E-04
  -3.006  0.289E-04  0.289E-04
  -2.996  0.289E-04  0.289E-04
  -2.986  0.288E-04  0.288E-04
  -2.976  0.288E-04  0.288E-04
  -2.966  0.287E-04  0.287E-04
  -2.956  0.287E-04  0.287E-04
  -2.946  0.286E-04  0.286E-04
  -2.936  0.285E-04  0.285E-04
  -2.926  0.284E-04  0.284E-04
  -2.916  0.283E-04  0.283E-04
  -2.906  0.282E-04  0.282E-04
  -2.896  0.281E-04  0.281E-04
  -2.886  0.279E-04  0.279E-04
  -2.876  0.278E-04  0.278E-04
  -2.866  0.276E-04  0.276E-04
  -2.856  0.275E-04  0.275E-04
  -2.846  0.273E-04  0.273E-04
  -2.836  0.271E-04  0.271E-04
  -2.826  0.269E-04  0.269E-04
  -2.816  0.267E-04  0.267E-04
  -2.806  0.265E-04  0.265E-04
  -2.796  0.263E-04  0.263E-04
  -2.786  0.261E-04  0.261E-04
  -2.776  0.259E-04  0.259E-04
  -2.766  0.257E-04  0.257E-04
  -2.756  0.255E-04  0.255E-04
  -2.746  0.253E-04  0.253E-04
  -2.736  0.250E-04  0.250E-04
  -2.726  0.248E-04  0.248E-04
  -2.716  0.246E-04  0.246E-04
  -2.706  0.244E-04  0.244E-04
  -2.696  0.241E-04  0.241E-04
  -2.686  0.239E-04  0.239E-04
  -2.676  0.237E-04  0.237E-04
  -2.666  0.234E-04  0.234E-04
  -2.656  0.232E-04  0.232E-04
  -2.646  0.230E-04  0.230E-04
  -2.636  0.228E-04  0.228E-04
  -2.626  0.225E-04  0.225E-04
  -2.616  0.223E-04  0.223E-04
  -2.606  0.221E-04  0.221E-04
  -2.596  0.219E-04  0.219E-04
  -2.586  0.217E-04  0.217E-04
  -2.576  0.215E-04  0.215E-04
  -2.566  0.213E-04  0.213E-04
  -2.556  0.212E-04  0.212E-04
  -2.546  0.210E-04  0.210E-04
  -2.536  0.208E-04  0.208E-04
  -2.526  0.207E-04  0.207E-04
  -2.516  0.205E-04  0.205E-04
  -2.506  0.204E-04  0.204E-04
  -2.496  0.203E-04  0.203E-04
  -2.486  0.201E-04  0.201E-04
  -2.476  0.200E-04  0.200E-04
  -2.466  0.199E-04  0.199E-04
  -2.456  0.199E-04  0.199E-04
  -2.446  0.198E-04  0.198E-04
  -2.436  0.197E-04  0.197E-04
  -2.426  0.197E-04  0.197E-04
  -2.416  0.196E-04  0.196E-04
  -2.406  0.196E-04  0.196E-04
  -2.396  0.196E-04  0.196E-04
  -2.386  0.196E-04  0.196E-04
  -2.376  0.196E-04  0.196E-04
  -2.366  0.197E-04  0.197E-04
  -2.356  0.197E-04  0.197E-04
  -2.346  0.198E-04  0.198E-04
  -2.336  0.198E-04  0.198E-04
  -2.326  0.199E-04  0.199E-04
  -2.316  0.200E-04  0.200E-04
  -2.306  0.201E-04  0.201E-04
  -2.296  0.203E-04  0.203E-04
  -2.286  0.204E-04  0.204E-04
  -2.276  0.206E-04  0.206E-04
  -2.266  0.207E-04  0.207E-04
  -2.256  0.209E-04  0.209E-04
  -2.246  0.211E-04  0.211E-04
  -2.236  0.213E-04  0.213E-04
  -2.226  0.216E-04  0.216E-04
  -2.216  0.218E-04  0.218E-04
  -2.206  0.221E-04  0.221E-04
  -2.196  0.223E-04  0.223E-04
  -2.186  0.226E-04  0.226E-04
  -2.176  0.229E-04  0.229E-04
  -2.166  0.232E-04  0.232E-04
  -2.156  0.235E-04  0.235E-04
  -2.146  0.238E-04  0.238E-04
  -2.136  0.241E-04  0.241E-04
  -2.126  0.245E-04  0.245E-04
  -2.116  0.248E-04  0.248E-04
  -2.106  0.252E-04  0.252E-04
  -2.096  0.256E-04  0.256E-04
  -2.086  0.259E-04  0.259E-04
  -2.076  0.263E-04  0.263E-04
  -2.066  0.267E-04  0.267E-04
  -2.056  0.271E-04  0.271E-04
  -2.046  0.275E-04  0.275E-04
  -2.036  0.279E-04  0.279E-04
  -2.026  0.284E-04  0.284E-04
  -2.016  0.288E-04  0.288E-04
  -2.006  0.292E-04  0.292E-04
  -1.996  0.296E-04  0.296E-04
  -1.986  0.301E-04  0.301E-04
  -1.976  0.305E-04  0.305E-04
  -1.966  0.309E-04  0.309E-04
  -1.956  0.313E-04  0.313E-04
  -1.946  0.318E-04  0.318E-04
  -1.936  0.322E-04  0.322E-04
  -1.926  0.326E-04  0.326E-04
  -1.916  0.331E-04  0.331E-04
  -1.906  0.335E-04  0.335E-04
  -1.896  0.339E-04  0.339E-04
  -1.886  0.343E-04  0.343E-04
  -1.876  0.347E-04  0.347E-04
  -1.866  0.351E-04  0.351E-04
  -1.856  0.355E-04  0.355E-04
  -1.846  0.359E-04  0.359E-04
  -1.836  0.363E-04  0.363E-04
  -1.826  0.367E-04  0.367E-04
  -1.816  0.371E-04  0.371E-04
  -1.806  0.374E-04  0.374E-04
  -1.796  0.378E-04  0.378E-04
  -1.786  0.381E-04  0.381E-04
  -1.776  0.384E-04  0.384E-04
  -1.766  0.388E-04  0.388E-04
  -1.756  0.391E-04  0.391E-04
  -1.746  0.394E-04  0.394E-04
  -1.736  0.397E-04  0.397E-04
  -1.726  0.399E-04  0.399E-04
  -1.716  0.402E-04  0.402E-04
  -1.706  0.404E-04  0.404E-04
  -1.696  0.407E-04  0.407E-04
  -1.686  0.409E-04  0.409E-04
  -1.676  0.411E-04  0.411E-04
  -1.666  0.412E-04  0.412E-04
  -1.656  0.414E-04  0.414E-04
  -1.646  0.416E-04  0.416E-04
  -1.636  0.417E-04  0.417E-04
  -1.626  0.418E-04  0.418E-04
  -1.616  0.419E-04  0.419E-04
  -1.606  0.420E-04  0.420E-04
  -1.596  0.421E-04  0.421E-04
  -1.586  0.422E-04  0.422E-04
  -1.576  0.422E-04  0.422E-04
  -1.566  0.422E-04  0.422E-04
  -1.556  0.422E-04  0.422E-04
  -1.546  0.422E-04  0.422E-04
  -1.536  0.422E-04  0.422E-04
  -1.526  0.422E-04  0.422E-04
  -1.516  0.421E-04  0.421E-04
  -1.506  0.420E-04  0.420E-04
  -1.496  0.420E-04  0.420E-04
  -1.486  0.418E-04  0.418E-04
  -1.476  0.417E-04  0.417E-04
  -1.466  0.416E-04  0.416E-04
  -1.456  0.414E-04  0.414E-04
  -1.446  0.413E-04  0.413E-04
  -1.436  0.411E-04  0.411E-04
  -1.426  0.409E-04  0.409E-04
  -1.416  0.407E-04  0.407E-04
  -1.406  0.405E-04  0.405E-04
  -1.396  0.402E-04  0.402E-04
  -1.386  0.400E-04  0.400E-04
  -1.376  0.397E-04  0.397E-04
  -1.366  0.394E-04  0.394E-04
  -1.356  0.391E-04  0.391E-04
  -1.346  0.388E-04  0.388E-04
  -1.336  0.385E-04  0.385E-04
  -1.326  0.382E-04  0.382E-04
  -1.316  0.379E-04  0.379E-04
  -1.306  0.375E-04  0.375E-04
  -1.296  0.372E-04  0.372E-04
  -1.286  0.368E-04  0.368E-04
  -1.276  0.364E-04  0.364E-04
  -1.266  0.360E-04  0.360E-04
  -1.256  0.357E-04  0.357E-04
  -1.246  0.353E-04  0.353E-04
  -1.236  0.348E-04  0.348E-04
  -1.226  0.344E-04  0.344E-04
  -1.216  0.340E-04  0.340E-04
  -1.206  0.336E-04  0.336E-04
  -1.196  0.332E-04  0.332E-04
  -1.186  0.327E-04  0.327E-04
  -1.176  0.323E-04  0.323E-04
  -1.166  0.318E-04  0.318E-04
  -1.156  0.314E-04  0.314E-04
  -1.146  0.309E-04  0.309E-04
  -1.136  0.305E-04  0.305E-04
  -1.126  0.300E-04  0.300E-04
  -1.116  0.295E-04  0.295E-04
  -1.106  0.291E-04  0.291E-04
  -1.096  0.286E-04  0.286E-04
  -1.086  0.281E-04  0.281E-04
  -1.076  0.276E-04  0.276E-04
  -1.066  0.272E-04  0.272E-04
  -1.056  0.267E-04  0.267E-04
  -1.046  0.262E-04  0.262E-04
  -1.036  0.258E-04  0.258E-04
  -1.026  0.253E-04  0.253E-04
  -1.016  0.248E-04  0.248E-04
  -1.006  0.244E-04  0.244E-04
  -0.996  0.239E-04  0.239E-04
  -0.986  0.234E-04  0.234E-04
  -0.976  0.230E-04  0.230E-04
  -0.966  0.225E-04  0.225E-04
  -0.956  0.220E-04  0.220E-04
  -0.946  0.216E-04  0.216E-04
  -0.936  0.211E-04  0.211E-04
  -0.926  0.207E-04  0.207E-04
  -0.916  0.203E-04  0.203E-04
  -0.906  0.198E-04  0.198E-04
  -0.896  0.194E-04  0.194E-04
  -0.886  0.190E-04  0.190E-04
  -0.876  0.186E-04  0.186E-04
  -0.866  0.181E-04  0.181E-04
  -0.856  0.177E-04  0.177E-04
  -0.846  0.173E-04  0.173E-04
  -0.836  0.169E-04  0.169E-04
  -0.826  0.165E-04  0.165E-04
  -0.816  0.162E-04  0.162E-04
  -0.806  0.158E-04  0.158E-04
  -0.796  0.154E-04  0.154E-04
  -0.786  0.151E-04  0.151E-04
  -0.776  0.147E-04  0.147E-04
  -0.766  0.144E-04  0.144E-04
  -0.756  0.141E-04  0.141E-04
  -0.746  0.137E-04  0.137E-04
  -0.736  0.134E-04  0.134E-04
  -0.726  0.131E-04  0.131E-04
  -0.716  0.128E-04  0.128E-04
  -0.706  0.126E-04  0.126E-04
  -0.696  0.123E-04  0.123E-04
  -0.686  0.120E-04  0.120E-04
  -0.676  0.118E-04  0.118E-04
  -0.666  0.116E-04  0.116E-04
  -0.656  0.113E-04  0.113E-04
  -0.646  0.111E-04  0.111E-04
  -0.636  0.109E-04  0.109E-04
  -0.626  0.107E-04  0.107E-04
  -0.616  0.106E-04  0.106E-04
  -0.606  0.104E-04  0.104E-04
  -0.596  0.103E-04  0.103E-04
  -0.586  0.101E-04  0.101E-04
  -0.576  0.100E-04  0.100E-04
  -0.566  0.992E-05  0.992E-05
  -0.556  0.983E-05  0.983E-05
  -0.546  0.976E-05  0.976E-05
  -0.536  0.970E-05  0.970E-05
  -0.526  0.965E-05  0.965E-05
  -0.516  0.962E-05  0.962E-05
  -0.506  0.960E-05  0.960E-05
  -0.496  0.960E-05  0.960E-05
  -0.486  0.961E-05  0.961E-05
  -0.476  0.964E-05  0.964E-05
  -0.466  0.968E-05  0.968E-05
  -0.456  0.974E-05  0.974E-05
  -0.446  0.981E-05  0.981E-05
  -0.436  0.989E-05  0.989E-05
  -0.426  0.999E-05  0.999E-05
  -0.416  0.101E-04  0.101E-04
  -0.406  0.102E-04  0.102E-04
  -0.396  0.104E-04  0.104E-04
  -0.386  0.105E-04  0.105E-04
  -0.376  0.107E-04  0.107E-04
  -0.366  0.109E-04  0.109E-04
  -0.356  0.111E-04  0.111E-04
  -0.346  0.113E-04  0.113E-04
  -0.336  0.115E-04  0.115E-04
  -0.326  0.117E-04  0.117E-04
  -0.316  0.120E-04  0.120E-04
  -0.306  0.122E-04  0.122E-04
  -0.296  0.125E-04  0.125E-04
  -0.286  0.127E-04  0.127E-04
  -0.276  0.130E-04  0.130E-04
  -0.266  0.133E-04  0.133E-04
  -0.256  0.136E-04  0.136E-04
  -0.246  0.139E-04  0.139E-04
  -0.236  0.142E-04  0.142E-04
  -0.226  0.145E-04  0.145E-04
  -0.216  0.148E-04  0.148E-04
  -0.206  0.151E-04  0.151E-04
  -0.196  0.153E-04  0.153E-04
  -0.186  0.156E-04  0.156E-04
  -0.176  0.159E-04  0.159E-04
  -0.166  0.162E-04  0.162E-04
  -0.156  0.165E-04  0.165E-04
  -0.146  0.167E-04  0.167E-04
  -0.136  0.170E-04  0.170E-04
  -0.126  0.172E-04  0.172E-04
  -0.116  0.174E-04  0.174E-04
  -0.106  0.176E-04  0.176E-04
  -0.096  0.178E-04  0.178E-04
  -0.086  0.179E-04  0.179E-04
  -0.076  0.180E-04  0.180E-04
  -0.066  0.181E-04  0.181E-04
  -0.056  0.182E-04  0.182E-04
  -0.046  0.182E-04  0.182E-04
  -0.036  0.182E-04  0.182E-04
  -0.026  0.181E-04  0.181E-04
  -0.016  0.180E-04  0.180E-04
  -0.006  0.178E-04  0.178E-04
   0.004  0.176E-04  0.176E-04
   0.014  0.173E-04  0.173E-04
   0.024  0.170E-04  0.170E-04
   0.034  0.166E-04  0.166E-04
   0.044  0.161E-04  0.161E-04
   0.054  0.155E-04  0.155E-04
   0.064  0.148E-04  0.148E-04
   0.074  0.140E-04  0.140E-04
   0.084  0.132E-04  0.132E-04
   0.094  0.122E-04  0.122E-04
   0.104  0.111E-04  0.111E-04
   0.114  0.986E-05  0.986E-05
   0.124  0.850E-05  0.850E-05
   0.134  0.699E-05  0.699E-05
   0.144  0.533E-05  0.533E-05
   0.154  0.350E-05  0.350E-05
   0.164  0.150E-05  0.150E-05
   0.174 -0.695E-06 -0.695E-06
   0.184 -0.309E-05 -0.309E-05
   0.194 -0.570E-05 -0.570E-05
   0.204 -0.853E-05 -0.853E-05
   0.214 -0.116E-04 -0.116E-04
   0.224 -0.150E-04 -0.150E-04
   0.234 -0.186E-04 -0.186E-04
   0.244 -0.225E-04 -0.225E-04
   0.254 -0.267E-04 -0.267E-04
   0.264 -0.313E-04 -0.313E-04
   0.274 -0.362E-04 -0.362E-04
   0.284 -0.415E-04 -0.415E-04
   0.294 -0.471E-04 -0.471E-04
   0.304 -0.533E-04 -0.533E-04
   0.314 -0.598E-04 -0.598E-04
   0.324 -0.669E-04 -0.669E-04
   0.334 -0.744E-04 -0.744E-04
   0.344 -0.825E-04 -0.825E-04
   0.354 -0.912E-04 -0.912E-04
   0.364 -0.100E-03 -0.100E-03
   0.374 -0.110E-03 -0.110E-03
   0.384 -0.121E-03 -0.121E-03
   0.394 -0.132E-03 -0.132E-03
   0.404 -0.144E-03 -0.144E-03
   0.414 -0.157E-03 -0.157E-03
   0.424 -0.171E-03 -0.171E-03
   0.434 -0.186E-03 -0.186E-03
   0.444 -0.201E-03 -0.201E-03
   0.454 -0.218E-03 -0.218E-03
   0.464 -0.236E-03 -0.236E-03
   0.474 -0.254E-03 -0.254E-03
   0.484 -0.274E-03 -0.274E-03
   0.494 -0.296E-03 -0.296E-03
   0.504 -0.318E-03 -0.318E-03
   0.514 -0.342E-03 -0.342E-03
   0.524 -0.368E-03 -0.368E-03
   0.534 -0.394E-03 -0.394E-03
   0.544 -0.423E-03 -0.423E-03
   0.554 -0.453E-03 -0.453E-03
   0.564 -0.485E-03 -0.485E-03
   0.574 -0.519E-03 -0.519E-03
   0.584 -0.555E-03 -0.555E-03
   0.594 -0.593E-03 -0.593E-03
   0.604 -0.633E-03 -0.633E-03
   0.614 -0.675E-03 -0.675E-03
   0.624 -0.719E-03 -0.719E-03
   0.634 -0.766E-03 -0.766E-03
   0.644 -0.816E-03 -0.816E-03
   0.654 -0.868E-03 -0.868E-03
   0.664 -0.923E-03 -0.923E-03
   0.674 -0.981E-03 -0.981E-03
   0.684 -0.104E-02 -0.104E-02
   0.694 -0.111E-02 -0.111E-02
   0.704 -0.117E-02 -0.117E-02
   0.714 -0.124E-02 -0.124E-02
   0.724 -0.132E-02 -0.132E-02
   0.734 -0.139E-02 -0.139E-02
   0.744 -0.148E-02 -0.148E-02
   0.754 -0.156E-02 -0.156E-02
   0.764 -0.165E-02 -0.165E-02
   0.774 -0.174E-02 -0.174E-02
   0.784 -0.184E-02 -0.184E-02
   0.794 -0.194E-02 -0.194E-02
   0.804 -0.205E-02 -0.205E-02
   0.814 -0.216E-02 -0.216E-02
   0.824 -0.227E-02 -0.227E-02
   0.834 -0.239E-02 -0.239E-02
   0.844 -0.252E-02 -0.252E-02
   0.854 -0.265E-02 -0.265E-02
   0.864 -0.278E-02 -0.278E-02
   0.874 -0.292E-02 -0.292E-02
   0.884 -0.307E-02 -0.307E-02
   0.894 -0.322E-02 -0.322E-02
   0.904 -0.337E-02 -0.337E-02
   0.914 -0.353E-02 -0.353E-02
   0.924 -0.370E-02 -0.370E-02
   0.934 -0.387E-02 -0.387E-02
   0.944 -0.405E-02 -0.405E-02
   0.954 -0.423E-02 -0.423E-02
   0.964 -0.442E-02 -0.442E-02
   0.974 -0.461E-02 -0.461E-02
   0.984 -0.481E-02 -0.481E-02
   0.994 -0.501E-02 -0.501E-02
   1.004 -0.522E-02 -0.522E-02
   1.014 -0.544E-02 -0.544E-02
   1.024 -0.565E-02 -0.565E-02
   1.034 -0.588E-02 -0.588E-02
   1.044 -0.611E-02 -0.611E-02
   1.054 -0.634E-02 -0.634E-02
   1.064 -0.657E-02 -0.657E-02
   1.074 -0.681E-02 -0.681E-02
   1.084 -0.706E-02 -0.706E-02
   1.094 -0.730E-02 -0.730E-02
   1.104 -0.755E-02 -0.755E-02
   1.114 -0.780E-02 -0.780E-02
   1.124 -0.806E-02 -0.806E-02
   1.134 -0.831E-02 -0.831E-02
   1.144 -0.856E-02 -0.856E-02
   1.154 -0.882E-02 -0.882E-02
   1.164 -0.907E-02 -0.907E-02
   1.174 -0.933E-02 -0.933E-02
   1.184 -0.958E-02 -0.958E-02
   1.194 -0.983E-02 -0.983E-02
   1.204 -0.101E-01 -0.101E-01
   1.214 -0.103E-01 -0.103E-01
   1.224 -0.106E-01 -0.106E-01
   1.234 -0.108E-01 -0.108E-01
   1.244 -0.110E-01 -0.110E-01
   1.254 -0.112E-01 -0.112E-01
   1.264 -0.114E-01 -0.114E-01
   1.274 -0.116E-01 -0.116E-01
   1.284 -0.118E-01 -0.118E-01
   1.294 -0.120E-01 -0.120E-01
   1.304 -0.121E-01 -0.121E-01
   1.314 -0.123E-01 -0.123E-01
   1.324 -0.124E-01 -0.124E-01
   1.334 -0.125E-01 -0.125E-01
   1.344 -0.126E-01 -0.126E-01
   1.354 -0.126E-01 -0.126E-01
   1.364 -0.127E-01 -0.127E-01
   1.374 -0.127E-01 -0.127E-01
   1.384 -0.127E-01 -0.127E-01
   1.394 -0.126E-01 -0.126E-01
   1.404 -0.126E-01 -0.126E-01
   1.414 -0.125E-01 -0.125E-01
   1.424 -0.123E-01 -0.123E-01
   1.434 -0.122E-01 -0.122E-01
   1.444 -0.119E-01 -0.119E-01
   1.454 -0.117E-01 -0.117E-01
   1.464 -0.114E-01 -0.114E-01
   1.474 -0.111E-01 -0.111E-01
   1.484 -0.107E-01 -0.107E-01
   1.494 -0.102E-01 -0.102E-01
   1.504 -0.976E-02 -0.976E-02
   1.514 -0.923E-02 -0.923E-02
   1.524 -0.864E-02 -0.864E-02
   1.534 -0.799E-02 -0.799E-02
   1.544 -0.729E-02 -0.729E-02
   1.554 -0.653E-02 -0.653E-02
   1.564 -0.570E-02 -0.570E-02
   1.574 -0.481E-02 -0.481E-02
   1.584 -0.385E-02 -0.385E-02
   1.594 -0.282E-02 -0.282E-02
   1.604 -0.173E-02 -0.173E-02
   1.614 -0.556E-03 -0.556E-03
   1.624  0.687E-03  0.687E-03
   1.634  0.201E-02  0.201E-02
   1.644  0.340E-02  0.340E-02
   1.654  0.488E-02  0.488E-02
   1.664  0.643E-02  0.643E-02
   1.674  0.807E-02  0.807E-02
   1.684  0.979E-02  0.979E-02
   1.694  0.116E-01  0.116E-01
   1.704  0.135E-01  0.135E-01
   1.714  0.155E-01  0.155E-01
   1.724  0.175E-01  0.175E-01
   1.734  0.197E-01  0.197E-01
   1.744  0.219E-01  0.219E-01
   1.754  0.243E-01  0.243E-01
   1.764  0.267E-01  0.267E-01
   1.774  0.292E-01  0.292E-01
   1.784  0.318E-01  0.318E-01
   1.794  0.345E-01  0.345E-01
   1.804  0.373E-01  0.373E-01
   1.814  0.401E-01  0.401E-01
   1.824  0.431E-01  0.431E-01
   1.834  0.461E-01  0.461E-01
   1.844  0.493E-01  0.493E-01
   1.854  0.525E-01  0.525E-01
   1.864  0.558E-01  0.558E-01
   1.874  0.591E-01  0.591E-01
   1.884  0.626E-01  0.626E-01
   1.894  0.661E-01  0.661E-01
   1.904  0.698E-01  0.698E-01
   1.914  0.734E-01  0.734E-01
   1.924  0.772E-01  0.772E-01
   1.934  0.810E-01  0.810E-01
   1.944  0.849E-01  0.849E-01
   1.954  0.889E-01  0.889E-01
   1.964  0.929E-01  0.929E-01
   1.974  0.970E-01  0.970E-01
   1.984  0.101E+00  0.101E+00
   1.994  0.105E+00  0.105E+00
   2.004  0.109E+00  0.109E+00
   2.014  0.114E+00  0.114E+00
   2.024  0.118E+00  0.118E+00
   2.034  0.122E+00  0.122E+00
   2.044  0.127E+00  0.127E+00
   2.054  0.131E+00  0.131E+00
   2.064  0.135E+00  0.135E+00
   2.074  0.140E+00  0.140E+00
   2.084  0.144E+00  0.144E+00
   2.094  0.149E+00  0.149E+00
   2.104  0.153E+00  0.153E+00
   2.114  0.157E+00  0.157E+00
   2.124  0.162E+00  0.162E+00
   2.134  0.166E+00  0.166E+00
   2.144  0.170E+00  0.170E+00
   2.154  0.175E+00  0.175E+00
   2.164  0.179E+00  0.179E+00
   2.174  0.183E+00  0.183E+00
   2.184  0.187E+00  0.187E+00
   2.194  0.191E+00  0.191E+00
   2.204  0.195E+00  0.195E+00
   2.214  0.199E+00  0.199E+00
   2.224  0.203E+00  0.203E+00
   2.234  0.207E+00  0.207E+00
   2.244  0.211E+00  0.211E+00
   2.254  0.215E+00  0.215E+00
   2.264  0.218E+00  0.218E+00
   2.274  0.222E+00  0.222E+00
   2.284  0.225E+00  0.225E+00
   2.294  0.228E+00  0.228E+00
   2.304  0.231E+00  0.231E+00
   2.314  0.234E+00  0.234E+00
   2.324  0.237E+00  0.237E+00
   2.334  0.240E+00  0.240E+00
   2.344  0.243E+00  0.243E+00
   2.354  0.245E+00  0.245E+00
   2.364  0.248E+00  0.248E+00
   2.374  0.250E+00  0.250E+00
   2.384  0.252E+00  0.252E+00
   2.394  0.254E+00  0.254E+00
   2.404  0.256E+00  0.256E+00
   2.414  0.257E+00  0.257E+00
   2.424  0.259E+00  0.259E+00
   2.434  0.260E+00  0.260E+00
   2.444  0.261E+00  0.261E+00
   2.454  0.262E+00  0.262E+00
   2.464  0.263E+00  0.263E+00
   2.474  0.264E+00  0.264E+00
   2.484  0.264E+00  0.264E+00
   2.494  0.265E+00  0.265E+00
   2.504  0.265E+00  0.265E+00
   2.514  0.265E+00  0.265E+00
   2.524  0.265E+00  0.265E+00
   2.534  0.264E+00  0.264E+00
   2.544  0.264E+00  0.264E+00
   2.554  0.263E+00  0.263E+00
   2.564  0.263E+00  0.263E+00
   2.574  0.262E+00  0.262E+00
   2.584  0.261E+00  0.261E+00
   2.594  0.259E+00  0.259E+00
   2.604  0.258E+00  0.258E+00
   2.614  0.256E+00  0.256E+00
   2.624  0.255E+00  0.255E+00
   2.634  0.253E+00  0.253E+00
   2.644  0.251E+00  0.251E+00
   2.654  0.249E+00  0.249E+00
   2.664  0.247E+00  0.247E+00
   2.674  0.244E+00  0.244E+00
   2.684  0.242E+00  0.242E+00
   2.694  0.239E+00  0.239E+00
   2.704  0.237E+00  0.237E+00
   2.714  0.234E+00  0.234E+00
   2.724  0.231E+00  0.231E+00
   2.734  0.228E+00  0.228E+00
   2.744  0.225E+00  0.225E+00
   2.754  0.222E+00  0.222E+00
   2.764  0.218E+00  0.218E+00
   2.774  0.215E+00  0.215E+00
   2.784  0.212E+00  0.212E+00
   2.794  0.208E+00  0.208E+00
   2.804  0.205E+00  0.205E+00
   2.814  0.201E+00  0.201E+00
   2.824  0.197E+00  0.197E+00
   2.834  0.194E+00  0.194E+00
   2.844  0.190E+00  0.190E+00
   2.854  0.186E+00  0.186E+00
   2.864  0.182E+00  0.182E+00
   2.874  0.178E+00  0.178E+00
   2.884  0.174E+00  0.174E+00
   2.894  0.170E+00  0.170E+00
   2.904  0.166E+00  0.166E+00
   2.914  0.163E+00  0.163E+00
   2.924  0.159E+00  0.159E+00
   2.934  0.155E+00  0.155E+00
   2.944  0.151E+00  0.151E+00
   2.954  0.147E+00  0.147E+00
   2.964  0.143E+00  0.143E+00
   2.974  0.139E+00  0.139E+00
   2.984  0.135E+00  0.135E+00
   2.994  0.131E+00  0.131E+00
   3.004  0.127E+00  0.127E+00
   3.014  0.123E+00  0.123E+00
   3.024  0.120E+00  0.120E+00
   3.034  0.116E+00  0.116E+00
   3.044  0.112E+00  0.112E+00
   3.054  0.108E+00  0.108E+00
   3.064  0.105E+00  0.105E+00
   3.074  0.101E+00  0.101E+00
   3.084  0.977E-01  0.977E-01
   3.094  0.942E-01  0.942E-01
   3.104  0.908E-01  0.908E-01
   3.114  0.874E-01  0.874E-01
   3.124  0.841E-01  0.841E-01
   3.134  0.809E-01  0.809E-01
   3.144  0.777E-01  0.777E-01
   3.154  0.746E-01  0.746E-01
   3.164  0.715E-01  0.715E-01
   3.174  0.685E-01  0.685E-01
   3.184  0.656E-01  0.656E-01
   3.194  0.627E-01  0.627E-01
   3.204  0.599E-01  0.599E-01
   3.214  0.572E-01  0.572E-01
   3.224  0.545E-01  0.545E-01
   3.234  0.519E-01  0.519E-01
   3.244  0.494E-01  0.494E-01
   3.254  0.469E-01  0.469E-01
   3.264  0.445E-01  0.445E-01
   3.274  0.422E-01  0.422E-01
   3.284  0.400E-01  0.400E-01
   3.294  0.378E-01  0.378E-01
   3.304  0.357E-01  0.357E-01
   3.314  0.336E-01  0.336E-01
   3.324  0.317E-01  0.317E-01
   3.334  0.297E-01  0.297E-01
   3.344  0.279E-01  0.279E-01
   3.354  0.261E-01  0.261E-01
   3.364  0.244E-01  0.244E-01
   3.374  0.227E-01  0.227E-01
   3.384  0.211E-01  0.211E-01
   3.394  0.196E-01  0.196E-01
   3.404  0.181E-01  0.181E-01
   3.414  0.167E-01  0.167E-01
   3.424  0.153E-01  0.153E-01
   3.434  0.140E-01  0.140E-01
   3.444  0.128E-01  0.128E-01
   3.454  0.116E-01  0.116E-01
   3.464  0.104E-01  0.104E-01
   3.474  0.933E-02  0.933E-02
   3.484  0.829E-02  0.829E-02
   3.494  0.730E-02  0.730E-02
   3.504  0.635E-02  0.635E-02
   3.514  0.545E-02  0.545E-02
   3.524  0.459E-02  0.459E-02
   3.534  0.378E-02  0.378E-02
   3.544  0.301E-02  0.301E-02
   3.554  0.228E-02  0.228E-02
   3.564  0.159E-02  0.159E-02
   3.574  0.937E-03  0.937E-03
   3.584  0.322E-03  0.322E-03
   3.594 -0.256E-03 -0.256E-03
   3.604 -0.799E-03 -0.799E-03
   3.614 -0.131E-02 -0.131E-02
   3.624 -0.179E-02 -0.179E-02
   3.634 -0.223E-02 -0.223E-02
   3.644 -0.265E-02 -0.265E-02
   3.654 -0.304E-02 -0.304E-02
   3.664 -0.340E-02 -0.340E-02
   3.674 -0.373E-02 -0.373E-02
   3.684 -0.404E-02 -0.404E-02
   3.694 -0.432E-02 -0.432E-02
   3.704 -0.458E-02 -0.458E-02
   3.714 -0.482E-02 -0.482E-02
   3.724 -0.503E-02 -0.503E-02
   3.734 -0.523E-02 -0.523E-02
   3.744 -0.540E-02 -0.540E-02
   3.754 -0.556E-02 -0.556E-02
   3.764 -0.570E-02 -0.570E-02
   3.774 -0.582E-02 -0.582E-02
   3.784 -0.592E-02 -0.592E-02
   3.794 -0.601E-02 -0.601E-02
   3.804 -0.609E-02 -0.609E-02
   3.814 -0.615E-02 -0.615E-02
   3.824 -0.620E-02 -0.620E-02
   3.834 -0.623E-02 -0.623E-02
   3.844 -0.626E-02 -0.626E-02
   3.854 -0.627E-02 -0.627E-02
   3.864 -0.627E-02 -0.627E-02
   3.874 -0.627E-02 -0.627E-02
   3.884 -0.625E-02 -0.625E-02
   3.894 -0.622E-02 -0.622E-02
   3.904 -0.619E-02 -0.619E-02
   3.914 -0.615E-02 -0.615E-02
   3.924 -0.610E-02 -0.610E-02
   3.934 -0.605E-02 -0.605E-02
   3.944 -0.599E-02 -0.599E-02
   3.954 -0.592E-02 -0.592E-02
   3.964 -0.585E-02 -0.585E-02
   3.974 -0.578E-02 -0.578E-02
   3.984 -0.570E-02 -0.570E-02
   3.994 -0.561E-02 -0.561E-02
   4.004 -0.553E-02 -0.553E-02
   4.014 -0.544E-02 -0.544E-02
   4.024 -0.534E-02 -0.534E-02
   4.034 -0.525E-02 -0.525E-02
   4.044 -0.515E-02 -0.515E-02
   4.054 -0.505E-02 -0.505E-02
   4.064 -0.494E-02 -0.494E-02
   4.074 -0.484E-02 -0.484E-02
   4.084 -0.474E-02 -0.474E-02
   4.094 -0.463E-02 -0.463E-02
   4.104 -0.452E-02 -0.452E-02
   4.114 -0.442E-02 -0.442E-02
   4.124 -0.431E-02 -0.431E-02
   4.134 -0.420E-02 -0.420E-02
   4.144 -0.410E-02 -0.410E-02
   4.154 -0.399E-02 -0.399E-02
   4.164 -0.388E-02 -0.388E-02
   4.174 -0.378E-02 -0.378E-02
   4.184 -0.367E-02 -0.367E-02
   4.194 -0.357E-02 -0.357E-02
   4.204 -0.347E-02 -0.347E-02
   4.214 -0.336E-02 -0.336E-02
   4.224 -0.326E-02 -0.326E-02
   4.234 -0.316E-02 -0.316E-02
   4.244 -0.306E-02 -0.306E-02
   4.254 -0.297E-02 -0.297E-02
   4.264 -0.287E-02 -0.287E-02
   4.274 -0.278E-02 -0.278E-02
   4.284 -0.268E-02 -0.268E-02
   4.294 -0.259E-02 -0.259E-02
   4.304 -0.250E-02 -0.250E-02
   4.314 -0.242E-02 -0.242E-02
   4.324 -0.233E-02 -0.233E-02
   4.334 -0.225E-02 -0.225E-02
   4.344 -0.217E-02 -0.217E-02
   4.354 -0.209E-02 -0.209E-02
   4.364 -0.201E-02 -0.201E-02
   4.374 -0.193E-02 -0.193E-02
   4.384 -0.186E-02 -0.186E-02
   4.394 -0.179E-02 -0.179E-02
   4.404 -0.172E-02 -0.172E-02
   4.414 -0.165E-02 -0.165E-02
   4.424 -0.158E-02 -0.158E-02
   4.434 -0.152E-02 -0.152E-02
   4.444 -0.146E-02 -0.146E-02
   4.454 -0.140E-02 -0.140E-02
   4.464 -0.134E-02 -0.134E-02
   4.474 -0.128E-02 -0.128E-02
   4.484 -0.122E-02 -0.122E-02
   4.494 -0.117E-02 -0.117E-02
   4.504 -0.112E-02 -0.112E-02
   4.514 -0.107E-02 -0.107E-02
   4.524 -0.102E-02 -0.102E-02
   4.534 -0.975E-03 -0.975E-03
   4.544 -0.931E-03 -0.931E-03
   4.554 -0.887E-03 -0.887E-03
   4.564 -0.846E-03 -0.846E-03
   4.574 -0.806E-03 -0.806E-03
   4.584 -0.767E-03 -0.767E-03
   4.594 -0.730E-03 -0.730E-03
   4.604 -0.695E-03 -0.695E-03
   4.614 -0.661E-03 -0.661E-03
   4.624 -0.628E-03 -0.628E-03
   4.634 -0.597E-03 -0.597E-03
   4.644 -0.567E-03 -0.567E-03
   4.654 -0.538E-03 -0.538E-03
   4.664 -0.510E-03 -0.510E-03
   4.674 -0.484E-03 -0.484E-03
   4.684 -0.458E-03 -0.458E-03
   4.694 -0.434E-03 -0.434E-03
   4.704 -0.411E-03 -0.411E-03
   4.714 -0.389E-03 -0.389E-03
   4.724 -0.368E-03 -0.368E-03
   4.734 -0.348E-03 -0.348E-03
   4.744 -0.329E-03 -0.329E-03
   4.754 -0.311E-03 -0.311E-03
   4.764 -0.293E-03 -0.293E-03
   4.774 -0.277E-03 -0.277E-03
   4.784 -0.261E-03 -0.261E-03
   4.794 -0.246E-03 -0.246E-03
   4.804 -0.232E-03 -0.232E-03
   4.814 -0.218E-03 -0.218E-03
   4.824 -0.206E-03 -0.206E-03
   4.834 -0.193E-03 -0.193E-03
   4.844 -0.182E-03 -0.182E-03
   4.854 -0.171E-03 -0.171E-03
   4.864 -0.161E-03 -0.161E-03
   4.874 -0.151E-03 -0.151E-03
   4.884 -0.142E-03 -0.142E-03
   4.894 -0.133E-03 -0.133E-03
   4.904 -0.125E-03 -0.125E-03
   4.914 -0.117E-03 -0.117E-03
   4.924 -0.110E-03 -0.110E-03
   4.934 -0.103E-03 -0.103E-03
   4.944 -0.961E-04 -0.961E-04
   4.954 -0.899E-04 -0.899E-04
   4.964 -0.841E-04 -0.841E-04
   4.974 -0.786E-04 -0.786E-04
   4.984 -0.734E-04 -0.734E-04
   4.994 -0.686E-04 -0.686E-04
   5.004 -0.640E-04 -0.640E-04
   5.014 -0.597E-04 -0.597E-04
   5.024 -0.557E-04 -0.557E-04
   5.034 -0.519E-04 -0.519E-04
   5.044 -0.484E-04 -0.484E-04
   5.054 -0.451E-04 -0.451E-04
   5.064 -0.420E-04 -0.420E-04
   5.074 -0.390E-04 -0.390E-04
   5.084 -0.363E-04 -0.363E-04
   5.094 -0.338E-04 -0.338E-04
   5.104 -0.314E-04 -0.314E-04
   5.114 -0.291E-04 -0.291E-04
   5.124 -0.270E-04 -0.270E-04
   5.134 -0.251E-04 -0.251E-04
   5.144 -0.233E-04 -0.233E-04
   5.154 -0.216E-04 -0.216E-04
   5.164 -0.200E-04 -0.200E-04
   5.174 -0.185E-04 -0.185E-04
   5.184 -0.171E-04 -0.171E-04
   5.194 -0.159E-04 -0.159E-04
   5.204 -0.147E-04 -0.147E-04
   5.214 -0.136E-04 -0.136E-04
   5.224 -0.125E-04 -0.125E-04
   5.234 -0.116E-04 -0.116E-04
   5.244 -0.107E-04 -0.107E-04
   5.254 -0.986E-05 -0.986E-05
   5.264 -0.909E-05 -0.909E-05
   5.274 -0.838E-05 -0.838E-05
   5.284 -0.772E-05 -0.772E-05
   5.294 -0.711E-05 -0.711E-05
