# E (eV)   ldos(E)   pdos(E)   
 -27.116 -0.195E-08 -0.195E-08
 -27.106 -0.211E-08 -0.211E-08
 -27.096 -0.228E-08 -0.228E-08
 -27.086 -0.245E-08 -0.245E-08
 -27.076 -0.264E-08 -0.264E-08
 -27.066 -0.285E-08 -0.285E-08
 -27.056 -0.307E-08 -0.307E-08
 -27.046 -0.330E-08 -0.330E-08
 -27.036 -0.355E-08 -0.355E-08
 -27.026 -0.382E-08 -0.382E-08
 -27.016 -0.410E-08 -0.410E-08
 -27.006 -0.440E-08 -0.440E-08
 -26.996 -0.473E-08 -0.473E-08
 -26.986 -0.507E-08 -0.507E-08
 -26.976 -0.543E-08 -0.543E-08
 -26.966 -0.582E-08 -0.582E-08
 -26.956 -0.624E-08 -0.624E-08
 -26.946 -0.668E-08 -0.668E-08
 -26.936 -0.714E-08 -0.714E-08
 -26.926 -0.764E-08 -0.764E-08
 -26.916 -0.816E-08 -0.816E-08
 -26.906 -0.872E-08 -0.872E-08
 -26.896 -0.931E-08 -0.931E-08
 -26.886 -0.993E-08 -0.993E-08
 -26.876 -0.106E-07 -0.106E-07
 -26.866 -0.113E-07 -0.113E-07
 -26.856 -0.120E-07 -0.120E-07
 -26.846 -0.128E-07 -0.128E-07
 -26.836 -0.136E-07 -0.136E-07
 -26.826 -0.145E-07 -0.145E-07
 -26.816 -0.154E-07 -0.154E-07
 -26.806 -0.164E-07 -0.164E-07
 -26.796 -0.174E-07 -0.174E-07
 -26.786 -0.184E-07 -0.184E-07
 -26.776 -0.195E-07 -0.195E-07
 -26.766 -0.207E-07 -0.207E-07
 -26.756 -0.219E-07 -0.219E-07
 -26.746 -0.232E-07 -0.232E-07
 -26.736 -0.245E-07 -0.245E-07
 -26.726 -0.260E-07 -0.260E-07
 -26.716 -0.274E-07 -0.274E-07
 -26.706 -0.290E-07 -0.290E-07
 -26.696 -0.306E-07 -0.306E-07
 -26.686 -0.322E-07 -0.322E-07
 -26.676 -0.340E-07 -0.340E-07
 -26.666 -0.358E-07 -0.358E-07
 -26.656 -0.377E-07 -0.377E-07
 -26.646 -0.397E-07 -0.397E-07
 -26.636 -0.417E-07 -0.417E-07
 -26.626 -0.438E-07 -0.438E-07
 -26.616 -0.460E-07 -0.460E-07
 -26.606 -0.483E-07 -0.483E-07
 -26.596 -0.506E-07 -0.506E-07
 -26.586 -0.531E-07 -0.531E-07
 -26.576 -0.556E-07 -0.556E-07
 -26.566 -0.582E-07 -0.582E-07
 -26.556 -0.609E-07 -0.609E-07
 -26.546 -0.636E-07 -0.636E-07
 -26.536 -0.664E-07 -0.664E-07
 -26.526 -0.694E-07 -0.694E-07
 -26.516 -0.723E-07 -0.723E-07
 -26.506 -0.754E-07 -0.754E-07
 -26.496 -0.785E-07 -0.785E-07
 -26.486 -0.817E-07 -0.817E-07
 -26.476 -0.850E-07 -0.850E-07
 -26.466 -0.883E-07 -0.883E-07
 -26.456 -0.917E-07 -0.917E-07
 -26.446 -0.952E-07 -0.952E-07
 -26.436 -0.987E-07 -0.987E-07
 -26.426 -0.102E-06 -0.102E-06
 -26.416 -0.106E-06 -0.106E-06
 -26.406 -0.109E-06 -0.109E-06
 -26.396 -0.113E-06 -0.113E-06
 -26.386 -0.117E-06 -0.117E-06
 -26.376 -0.120E-06 -0.120E-06
 -26.366 -0.124E-06 -0.124E-06
 -26.356 -0.128E-06 -0.128E-06
 -26.346 -0.132E-06 -0.132E-06
 -26.336 -0.135E-06 -0.135E-06
 -26.326 -0.139E-06 -0.139E-06
 -26.316 -0.142E-06 -0.142E-06
 -26.306 -0.146E-06 -0.146E-06
 -26.296 -0.149E-06 -0.149E-06
 -26.286 -0.153E-06 -0.153E-06
 -26.276 -0.156E-06 -0.156E-06
 -26.266 -0.159E-06 -0.159E-06
 -26.256 -0.162E-06 -0.162E-06
 -26.246 -0.165E-06 -0.165E-06
 -26.236 -0.167E-06 -0.167E-06
 -26.226 -0.170E-06 -0.170E-06
 -26.216 -0.172E-06 -0.172E-06
 -26.206 -0.174E-06 -0.174E-06
 -26.196 -0.176E-06 -0.176E-06
 -26.186 -0.178E-06 -0.178E-06
 -26.176 -0.179E-06 -0.179E-06
 -26.166 -0.180E-06 -0.180E-06
 -26.156 -0.180E-06 -0.180E-06
 -26.146 -0.180E-06 -0.180E-06
 -26.136 -0.180E-06 -0.180E-06
 -26.126 -0.180E-06 -0.180E-06
 -26.116 -0.179E-06 -0.179E-06
 -26.106 -0.177E-06 -0.177E-06
 -26.096 -0.175E-06 -0.175E-06
 -26.086 -0.173E-06 -0.173E-06
 -26.076 -0.170E-06 -0.170E-06
 -26.066 -0.166E-06 -0.166E-06
 -26.056 -0.162E-06 -0.162E-06
 -26.046 -0.157E-06 -0.157E-06
 -26.036 -0.151E-06 -0.151E-06
 -26.026 -0.145E-06 -0.145E-06
 -26.016 -0.138E-06 -0.138E-06
 -26.006 -0.130E-06 -0.130E-06
 -25.996 -0.122E-06 -0.122E-06
 -25.986 -0.112E-06 -0.112E-06
 -25.976 -0.102E-06 -0.102E-06
 -25.966 -0.913E-07 -0.913E-07
 -25.956 -0.793E-07 -0.793E-07
 -25.946 -0.665E-07 -0.665E-07
 -25.936 -0.527E-07 -0.527E-07
 -25.926 -0.379E-07 -0.379E-07
 -25.916 -0.221E-07 -0.221E-07
 -25.906 -0.526E-08 -0.526E-08
 -25.896  0.126E-07  0.126E-07
 -25.886  0.316E-07  0.316E-07
 -25.876  0.516E-07  0.516E-07
 -25.866  0.728E-07  0.728E-07
 -25.856  0.951E-07  0.951E-07
 -25.846  0.119E-06  0.119E-06
 -25.836  0.143E-06  0.143E-06
 -25.826  0.169E-06  0.169E-06
 -25.816  0.196E-06  0.196E-06
 -25.806  0.224E-06  0.224E-06
 -25.796  0.254E-06  0.254E-06
 -25.786  0.284E-06  0.284E-06
 -25.776  0.316E-06  0.316E-06
 -25.766  0.349E-06  0.349E-06
 -25.756  0.384E-06  0.384E-06
 -25.746  0.419E-06  0.419E-06
 -25.736  0.456E-06  0.456E-06
 -25.726  0.494E-06  0.494E-06
 -25.716  0.533E-06  0.533E-06
 -25.706  0.573E-06  0.573E-06
 -25.696  0.615E-06  0.615E-06
 -25.686  0.658E-06  0.658E-06
 -25.676  0.702E-06  0.702E-06
 -25.666  0.747E-06  0.747E-06
 -25.656  0.793E-06  0.793E-06
 -25.646  0.840E-06  0.840E-06
 -25.636  0.888E-06  0.888E-06
 -25.626  0.937E-06  0.937E-06
 -25.616  0.987E-06  0.987E-06
 -25.606  0.104E-05  0.104E-05
 -25.596  0.109E-05  0.109E-05
 -25.586  0.114E-05  0.114E-05
 -25.576  0.120E-05  0.120E-05
 -25.566  0.125E-05  0.125E-05
 -25.556  0.131E-05  0.131E-05
 -25.546  0.136E-05  0.136E-05
 -25.536  0.142E-05  0.142E-05
 -25.526  0.147E-05  0.147E-05
 -25.516  0.153E-05  0.153E-05
 -25.506  0.159E-05  0.159E-05
 -25.496  0.164E-05  0.164E-05
 -25.486  0.170E-05  0.170E-05
 -25.476  0.176E-05  0.176E-05
 -25.466  0.182E-05  0.182E-05
 -25.456  0.188E-05  0.188E-05
 -25.446  0.193E-05  0.193E-05
 -25.436  0.199E-05  0.199E-05
 -25.426  0.205E-05  0.205E-05
 -25.416  0.211E-05  0.211E-05
 -25.406  0.216E-05  0.216E-05
 -25.396  0.222E-05  0.222E-05
 -25.386  0.227E-05  0.227E-05
 -25.376  0.233E-05  0.233E-05
 -25.366  0.238E-05  0.238E-05
 -25.356  0.244E-05  0.244E-05
 -25.346  0.249E-05  0.249E-05
 -25.336  0.254E-05  0.254E-05
 -25.326  0.259E-05  0.259E-05
 -25.316  0.264E-05  0.264E-05
 -25.306  0.269E-05  0.269E-05
 -25.296  0.274E-05  0.274E-05
 -25.286  0.278E-05  0.278E-05
 -25.276  0.282E-05  0.282E-05
 -25.266  0.287E-05  0.287E-05
 -25.256  0.291E-05  0.291E-05
 -25.246  0.295E-05  0.295E-05
 -25.236  0.298E-05  0.298E-05
 -25.226  0.302E-05  0.302E-05
 -25.216  0.305E-05  0.305E-05
 -25.206  0.308E-05  0.308E-05
 -25.196  0.311E-05  0.311E-05
 -25.186  0.314E-05  0.314E-05
 -25.176  0.317E-05  0.317E-05
 -25.166  0.319E-05  0.319E-05
 -25.156  0.321E-05  0.321E-05
 -25.146  0.323E-05  0.323E-05
 -25.136  0.325E-05  0.325E-05
 -25.126  0.326E-05  0.326E-05
 -25.116  0.327E-05  0.327E-05
 -25.106  0.328E-05  0.328E-05
 -25.096  0.329E-05  0.329E-05
 -25.086  0.329E-05  0.329E-05
 -25.076  0.330E-05  0.330E-05
 -25.066  0.330E-05  0.330E-05
 -25.056  0.330E-05  0.330E-05
 -25.046  0.329E-05  0.329E-05
 -25.036  0.328E-05  0.328E-05
 -25.026  0.328E-05  0.328E-05
 -25.016  0.326E-05  0.326E-05
 -25.006  0.325E-05  0.325E-05
 -24.996  0.323E-05  0.323E-05
 -24.986  0.322E-05  0.322E-05
 -24.976  0.319E-05  0.319E-05
 -24.966  0.317E-05  0.317E-05
 -24.956  0.315E-05  0.315E-05
 -24.946  0.312E-05  0.312E-05
 -24.936  0.309E-05  0.309E-05
 -24.926  0.306E-05  0.306E-05
 -24.916  0.303E-05  0.303E-05
 -24.906  0.299E-05  0.299E-05
 -24.896  0.295E-05  0.295E-05
 -24.886  0.292E-05  0.292E-05
 -24.876  0.288E-05  0.288E-05
 -24.866  0.283E-05  0.283E-05
 -24.856  0.279E-05  0.279E-05
 -24.846  0.275E-05  0.275E-05
 -24.836  0.270E-05  0.270E-05
 -24.826  0.265E-05  0.265E-05
 -24.816  0.260E-05  0.260E-05
 -24.806  0.255E-05  0.255E-05
 -24.796  0.250E-05  0.250E-05
 -24.786  0.245E-05  0.245E-05
 -24.776  0.240E-05  0.240E-05
 -24.766  0.234E-05  0.234E-05
 -24.756  0.229E-05  0.229E-05
 -24.746  0.223E-05  0.223E-05
 -24.736  0.218E-05  0.218E-05
 -24.726  0.212E-05  0.212E-05
 -24.716  0.206E-05  0.206E-05
 -24.706  0.201E-05  0.201E-05
 -24.696  0.195E-05  0.195E-05
 -24.686  0.189E-05  0.189E-05
 -24.676  0.183E-05  0.183E-05
 -24.666  0.177E-05  0.177E-05
 -24.656  0.172E-05  0.172E-05
 -24.646  0.166E-05  0.166E-05
 -24.636  0.160E-05  0.160E-05
 -24.626  0.154E-05  0.154E-05
 -24.616  0.149E-05  0.149E-05
 -24.606  0.143E-05  0.143E-05
 -24.596  0.137E-05  0.137E-05
 -24.586  0.132E-05  0.132E-05
 -24.576  0.126E-05  0.126E-05
 -24.566  0.121E-05  0.121E-05
 -24.556  0.116E-05  0.116E-05
 -24.546  0.110E-05  0.110E-05
 -24.536  0.105E-05  0.105E-05
 -24.526  0.999E-06  0.999E-06
 -24.516  0.949E-06  0.949E-06
 -24.506  0.899E-06  0.899E-06
 -24.496  0.851E-06  0.851E-06
 -24.486  0.804E-06  0.804E-06
 -24.476  0.757E-06  0.757E-06
 -24.466  0.712E-06  0.712E-06
 -24.456  0.668E-06  0.668E-06
 -24.446  0.625E-06  0.625E-06
 -24.436  0.583E-06  0.583E-06
 -24.426  0.543E-06  0.543E-06
 -24.416  0.503E-06  0.503E-06
 -24.406  0.465E-06  0.465E-06
 -24.396  0.428E-06  0.428E-06
 -24.386  0.392E-06  0.392E-06
 -24.376  0.357E-06  0.357E-06
 -24.366  0.324E-06  0.324E-06
 -24.356  0.292E-06  0.292E-06
 -24.346  0.261E-06  0.261E-06
 -24.336  0.231E-06  0.231E-06
 -24.326  0.203E-06  0.203E-06
 -24.316  0.175E-06  0.175E-06
 -24.306  0.149E-06  0.149E-06
 -24.296  0.124E-06  0.124E-06
 -24.286  0.101E-06  0.101E-06
 -24.276  0.779E-07  0.779E-07
 -24.266  0.565E-07  0.565E-07
 -24.256  0.362E-07  0.362E-07
 -24.246  0.170E-07  0.170E-07
 -24.236 -0.113E-08 -0.113E-08
 -24.226 -0.182E-07 -0.182E-07
 -24.216 -0.342E-07 -0.342E-07
 -24.206 -0.493E-07 -0.493E-07
 -24.196 -0.633E-07 -0.633E-07
 -24.186 -0.764E-07 -0.764E-07
 -24.176 -0.885E-07 -0.885E-07
 -24.166 -0.998E-07 -0.998E-07
 -24.156 -0.110E-06 -0.110E-06
 -24.146 -0.120E-06 -0.120E-06
 -24.136 -0.128E-06 -0.128E-06
 -24.126 -0.136E-06 -0.136E-06
 -24.116 -0.143E-06 -0.143E-06
 -24.106 -0.150E-06 -0.150E-06
 -24.096 -0.156E-06 -0.156E-06
 -24.086 -0.161E-06 -0.161E-06
 -24.076 -0.165E-06 -0.165E-06
 -24.066 -0.169E-06 -0.169E-06
 -24.056 -0.172E-06 -0.172E-06
 -24.046 -0.175E-06 -0.175E-06
 -24.036 -0.177E-06 -0.177E-06
 -24.026 -0.178E-06 -0.178E-06
 -24.016 -0.179E-06 -0.179E-06
 -24.006 -0.180E-06 -0.180E-06
 -23.996 -0.180E-06 -0.180E-06
 -23.986 -0.180E-06 -0.180E-06
 -23.976 -0.180E-06 -0.180E-06
 -23.966 -0.179E-06 -0.179E-06
 -23.956 -0.178E-06 -0.178E-06
 -23.946 -0.176E-06 -0.176E-06
 -23.936 -0.175E-06 -0.175E-06
 -23.926 -0.173E-06 -0.173E-06
 -23.916 -0.170E-06 -0.170E-06
 -23.906 -0.168E-06 -0.168E-06
 -23.896 -0.165E-06 -0.165E-06
 -23.886 -0.163E-06 -0.163E-06
 -23.876 -0.160E-06 -0.160E-06
 -23.866 -0.157E-06 -0.157E-06
 -23.856 -0.153E-06 -0.153E-06
 -23.846 -0.150E-06 -0.150E-06
 -23.836 -0.147E-06 -0.147E-06
 -23.826 -0.143E-06 -0.143E-06
 -23.816 -0.140E-06 -0.140E-06
 -23.806 -0.136E-06 -0.136E-06
 -23.796 -0.132E-06 -0.132E-06
 -23.786 -0.129E-06 -0.129E-06
 -23.776 -0.125E-06 -0.125E-06
 -23.766 -0.121E-06 -0.121E-06
 -23.756 -0.118E-06 -0.118E-06
 -23.746 -0.114E-06 -0.114E-06
 -23.736 -0.110E-06 -0.110E-06
 -23.726 -0.107E-06 -0.107E-06
 -23.716 -0.103E-06 -0.103E-06
 -23.706 -0.995E-07 -0.995E-07
 -23.696 -0.960E-07 -0.960E-07
 -23.686 -0.925E-07 -0.925E-07
 -23.676 -0.891E-07 -0.891E-07
 -23.666 -0.858E-07 -0.858E-07
 -23.656 -0.825E-07 -0.825E-07
 -23.646 -0.793E-07 -0.793E-07
 -23.636 -0.761E-07 -0.761E-07
 -23.626 -0.731E-07 -0.731E-07
 -23.616 -0.700E-07 -0.700E-07
 -23.606 -0.671E-07 -0.671E-07
 -23.596 -0.643E-07 -0.643E-07
 -23.586 -0.615E-07 -0.615E-07
 -23.576 -0.588E-07 -0.588E-07
 -23.566 -0.562E-07 -0.562E-07
 -23.556 -0.537E-07 -0.537E-07
 -23.546 -0.512E-07 -0.512E-07
 -23.536 -0.488E-07 -0.488E-07
 -23.526 -0.465E-07 -0.465E-07
 -23.516 -0.443E-07 -0.443E-07
 -23.506 -0.422E-07 -0.422E-07
 -23.496 -0.401E-07 -0.401E-07
 -23.486 -0.381E-07 -0.381E-07
 -23.476 -0.362E-07 -0.362E-07
 -23.466 -0.344E-07 -0.344E-07
 -23.456 -0.326E-07 -0.326E-07
 -23.446 -0.310E-07 -0.310E-07
 -23.436 -0.293E-07 -0.293E-07
 -23.426 -0.278E-07 -0.278E-07
 -23.416 -0.263E-07 -0.263E-07
 -23.406 -0.249E-07 -0.249E-07
 -23.396 -0.235E-07 -0.235E-07
 -23.386 -0.222E-07 -0.222E-07
 -23.376 -0.210E-07 -0.210E-07
 -23.366 -0.198E-07 -0.198E-07
 -23.356 -0.187E-07 -0.187E-07
 -23.346 -0.176E-07 -0.176E-07
 -23.336 -0.166E-07 -0.166E-07
 -23.326 -0.156E-07 -0.156E-07
 -23.316 -0.147E-07 -0.147E-07
 -23.306 -0.138E-07 -0.138E-07
 -23.296 -0.130E-07 -0.130E-07
 -23.286 -0.122E-07 -0.122E-07
 -23.276 -0.115E-07 -0.115E-07
 -23.266 -0.108E-07 -0.108E-07
 -23.256 -0.101E-07 -0.101E-07
 -23.246 -0.945E-08 -0.945E-08
 -23.236 -0.886E-08 -0.886E-08
 -23.226 -0.829E-08 -0.829E-08
 -23.216 -0.776E-08 -0.776E-08
 -23.206 -0.726E-08 -0.726E-08
 -23.196 -0.679E-08 -0.679E-08
 -23.186 -0.634E-08 -0.634E-08
 -23.176 -0.592E-08 -0.592E-08
 -23.166 -0.553E-08 -0.553E-08
 -23.156 -0.516E-08 -0.516E-08
 -23.146 -0.481E-08 -0.481E-08
 -23.136 -0.449E-08 -0.449E-08
 -23.126 -0.418E-08 -0.418E-08
 -23.116 -0.389E-08 -0.389E-08
 -23.106 -0.362E-08 -0.362E-08
 -23.096 -0.337E-08 -0.337E-08
 -23.086 -0.313E-08 -0.313E-08
 -23.076 -0.291E-08 -0.291E-08
 -23.066 -0.271E-08 -0.271E-08
 -23.056 -0.252E-08 -0.252E-08
 -23.046 -0.234E-08 -0.234E-08
 -23.036 -0.217E-08 -0.217E-08
 -23.026 -0.202E-08 -0.202E-08
 -23.016 -0.187E-08 -0.187E-08
 -23.006 -0.174E-08 -0.174E-08
 -22.996 -0.162E-08 -0.162E-08
 -22.986 -0.150E-08 -0.150E-08
 -22.976 -0.140E-08 -0.140E-08
 -22.966 -0.130E-08 -0.130E-08
 -22.956 -0.121E-08 -0.121E-08
 -22.946 -0.113E-08 -0.113E-08
 -22.936 -0.105E-08 -0.105E-08
 -22.926 -0.984E-09 -0.984E-09
 -22.916 -0.922E-09 -0.922E-09
 -22.906 -0.867E-09 -0.867E-09
 -22.896 -0.817E-09 -0.817E-09
 -22.886 -0.773E-09 -0.773E-09
 -22.876 -0.735E-09 -0.735E-09
 -22.866 -0.702E-09 -0.702E-09
 -22.856 -0.674E-09 -0.674E-09
 -22.846 -0.651E-09 -0.651E-09
 -22.836 -0.633E-09 -0.633E-09
 -22.826 -0.620E-09 -0.620E-09
 -22.816 -0.613E-09 -0.613E-09
 -22.806 -0.610E-09 -0.610E-09
 -22.796 -0.612E-09 -0.612E-09
 -22.786 -0.620E-09 -0.620E-09
 -22.776 -0.632E-09 -0.632E-09
 -22.766 -0.650E-09 -0.650E-09
 -22.756 -0.674E-09 -0.674E-09
 -22.746 -0.703E-09 -0.703E-09
 -22.736 -0.739E-09 -0.739E-09
 -22.726 -0.781E-09 -0.781E-09
 -22.716 -0.829E-09 -0.829E-09
 -22.706 -0.885E-09 -0.885E-09
 -22.696 -0.948E-09 -0.948E-09
 -22.686 -0.102E-08 -0.102E-08
 -22.676 -0.110E-08 -0.110E-08
 -22.666 -0.119E-08 -0.119E-08
 -22.656 -0.129E-08 -0.129E-08
 -22.646 -0.140E-08 -0.140E-08
 -22.636 -0.152E-08 -0.152E-08
 -22.626 -0.165E-08 -0.165E-08
 -22.616 -0.180E-08 -0.180E-08
 -22.606 -0.196E-08 -0.196E-08
 -22.596 -0.213E-08 -0.213E-08
 -22.586 -0.232E-08 -0.232E-08
 -22.576 -0.253E-08 -0.253E-08
 -22.566 -0.276E-08 -0.276E-08
 -22.556 -0.301E-08 -0.301E-08
 -22.546 -0.327E-08 -0.327E-08
 -22.536 -0.357E-08 -0.357E-08
 -22.526 -0.389E-08 -0.389E-08
 -22.516 -0.423E-08 -0.423E-08
 -22.506 -0.461E-08 -0.461E-08
 -22.496 -0.501E-08 -0.501E-08
 -22.486 -0.545E-08 -0.545E-08
 -22.476 -0.593E-08 -0.593E-08
 -22.466 -0.645E-08 -0.645E-08
 -22.456 -0.700E-08 -0.700E-08
 -22.446 -0.761E-08 -0.761E-08
 -22.436 -0.826E-08 -0.826E-08
 -22.426 -0.896E-08 -0.896E-08
 -22.416 -0.971E-08 -0.971E-08
 -22.406 -0.105E-07 -0.105E-07
 -22.396 -0.114E-07 -0.114E-07
 -22.386 -0.124E-07 -0.124E-07
 -22.376 -0.134E-07 -0.134E-07
 -22.366 -0.145E-07 -0.145E-07
 -22.356 -0.156E-07 -0.156E-07
 -22.346 -0.169E-07 -0.169E-07
 -22.336 -0.183E-07 -0.183E-07
 -22.326 -0.197E-07 -0.197E-07
 -22.316 -0.213E-07 -0.213E-07
 -22.306 -0.230E-07 -0.230E-07
 -22.296 -0.247E-07 -0.247E-07
 -22.286 -0.267E-07 -0.267E-07
 -22.276 -0.287E-07 -0.287E-07
 -22.266 -0.309E-07 -0.309E-07
 -22.256 -0.332E-07 -0.332E-07
 -22.246 -0.357E-07 -0.357E-07
 -22.236 -0.384E-07 -0.384E-07
 -22.226 -0.413E-07 -0.413E-07
 -22.216 -0.443E-07 -0.443E-07
 -22.206 -0.475E-07 -0.475E-07
 -22.196 -0.510E-07 -0.510E-07
 -22.186 -0.546E-07 -0.546E-07
 -22.176 -0.585E-07 -0.585E-07
 -22.166 -0.627E-07 -0.627E-07
 -22.156 -0.671E-07 -0.671E-07
 -22.146 -0.717E-07 -0.717E-07
 -22.136 -0.767E-07 -0.767E-07
 -22.126 -0.819E-07 -0.819E-07
 -22.116 -0.875E-07 -0.875E-07
 -22.106 -0.934E-07 -0.934E-07
 -22.096 -0.996E-07 -0.996E-07
 -22.086 -0.106E-06 -0.106E-06
 -22.076 -0.113E-06 -0.113E-06
 -22.066 -0.120E-06 -0.120E-06
 -22.056 -0.128E-06 -0.128E-06
 -22.046 -0.136E-06 -0.136E-06
 -22.036 -0.145E-06 -0.145E-06
 -22.026 -0.154E-06 -0.154E-06
 -22.016 -0.164E-06 -0.164E-06
 -22.006 -0.174E-06 -0.174E-06
 -21.996 -0.184E-06 -0.184E-06
 -21.986 -0.195E-06 -0.195E-06
 -21.976 -0.207E-06 -0.207E-06
 -21.966 -0.219E-06 -0.219E-06
 -21.956 -0.232E-06 -0.232E-06
 -21.946 -0.245E-06 -0.245E-06
 -21.936 -0.259E-06 -0.259E-06
 -21.926 -0.274E-06 -0.274E-06
 -21.916 -0.289E-06 -0.289E-06
 -21.906 -0.305E-06 -0.305E-06
 -21.896 -0.321E-06 -0.321E-06
 -21.886 -0.339E-06 -0.339E-06
 -21.876 -0.356E-06 -0.356E-06
 -21.866 -0.375E-06 -0.375E-06
 -21.856 -0.395E-06 -0.395E-06
 -21.846 -0.415E-06 -0.415E-06
 -21.836 -0.436E-06 -0.436E-06
 -21.826 -0.457E-06 -0.457E-06
 -21.816 -0.480E-06 -0.480E-06
 -21.806 -0.503E-06 -0.503E-06
 -21.796 -0.527E-06 -0.527E-06
 -21.786 -0.552E-06 -0.552E-06
 -21.776 -0.577E-06 -0.577E-06
 -21.766 -0.604E-06 -0.604E-06
 -21.756 -0.631E-06 -0.631E-06
 -21.746 -0.659E-06 -0.659E-06
 -21.736 -0.687E-06 -0.687E-06
 -21.726 -0.717E-06 -0.717E-06
 -21.716 -0.747E-06 -0.747E-06
 -21.706 -0.777E-06 -0.777E-06
 -21.696 -0.809E-06 -0.809E-06
 -21.686 -0.841E-06 -0.841E-06
 -21.676 -0.873E-06 -0.873E-06
 -21.666 -0.906E-06 -0.906E-06
 -21.656 -0.940E-06 -0.940E-06
 -21.646 -0.974E-06 -0.974E-06
 -21.636 -0.101E-05 -0.101E-05
 -21.626 -0.104E-05 -0.104E-05
 -21.616 -0.108E-05 -0.108E-05
 -21.606 -0.111E-05 -0.111E-05
 -21.596 -0.115E-05 -0.115E-05
 -21.586 -0.119E-05 -0.119E-05
 -21.576 -0.122E-05 -0.122E-05
 -21.566 -0.126E-05 -0.126E-05
 -21.556 -0.129E-05 -0.129E-05
 -21.546 -0.133E-05 -0.133E-05
 -21.536 -0.136E-05 -0.136E-05
 -21.526 -0.140E-05 -0.140E-05
 -21.516 -0.143E-05 -0.143E-05
 -21.506 -0.146E-05 -0.146E-05
 -21.496 -0.150E-05 -0.150E-05
 -21.486 -0.153E-05 -0.153E-05
 -21.476 -0.156E-05 -0.156E-05
 -21.466 -0.158E-05 -0.158E-05
 -21.456 -0.161E-05 -0.161E-05
 -21.446 -0.164E-05 -0.164E-05
 -21.436 -0.166E-05 -0.166E-05
 -21.426 -0.168E-05 -0.168E-05
 -21.416 -0.170E-05 -0.170E-05
 -21.406 -0.171E-05 -0.171E-05
 -21.396 -0.173E-05 -0.173E-05
 -21.386 -0.174E-05 -0.174E-05
 -21.376 -0.174E-05 -0.174E-05
 -21.366 -0.175E-05 -0.175E-05
 -21.356 -0.175E-05 -0.175E-05
 -21.346 -0.174E-05 -0.174E-05
 -21.336 -0.174E-05 -0.174E-05
 -21.326 -0.172E-05 -0.172E-05
 -21.316 -0.171E-05 -0.171E-05
 -21.306 -0.168E-05 -0.168E-05
 -21.296 -0.166E-05 -0.166E-05
 -21.286 -0.163E-05 -0.163E-05
 -21.276 -0.159E-05 -0.159E-05
 -21.266 -0.154E-05 -0.154E-05
 -21.256 -0.149E-05 -0.149E-05
 -21.246 -0.143E-05 -0.143E-05
 -21.236 -0.137E-05 -0.137E-05
 -21.226 -0.130E-05 -0.130E-05
 -21.216 -0.122E-05 -0.122E-05
 -21.206 -0.113E-05 -0.113E-05
 -21.196 -0.104E-05 -0.104E-05
 -21.186 -0.936E-06 -0.936E-06
 -21.176 -0.824E-06 -0.824E-06
 -21.166 -0.704E-06 -0.704E-06
 -21.156 -0.574E-06 -0.574E-06
 -21.146 -0.435E-06 -0.435E-06
 -21.136 -0.287E-06 -0.287E-06
 -21.126 -0.129E-06 -0.129E-06
 -21.116  0.396E-07  0.396E-07
 -21.106  0.218E-06  0.218E-06
 -21.096  0.408E-06  0.408E-06
 -21.086  0.607E-06  0.607E-06
 -21.076  0.818E-06  0.818E-06
 -21.066  0.104E-05  0.104E-05
 -21.056  0.127E-05  0.127E-05
 -21.046  0.152E-05  0.152E-05
 -21.036  0.177E-05  0.177E-05
 -21.026  0.204E-05  0.204E-05
 -21.016  0.232E-05  0.232E-05
 -21.006  0.261E-05  0.261E-05
 -20.996  0.292E-05  0.292E-05
 -20.986  0.323E-05  0.323E-05
 -20.976  0.356E-05  0.356E-05
 -20.966  0.390E-05  0.390E-05
 -20.956  0.425E-05  0.425E-05
 -20.946  0.461E-05  0.461E-05
 -20.936  0.498E-05  0.498E-05
 -20.926  0.537E-05  0.537E-05
 -20.916  0.577E-05  0.577E-05
 -20.906  0.618E-05  0.618E-05
 -20.896  0.660E-05  0.660E-05
 -20.886  0.703E-05  0.703E-05
 -20.876  0.747E-05  0.747E-05
 -20.866  0.792E-05  0.792E-05
 -20.856  0.838E-05  0.838E-05
 -20.846  0.885E-05  0.885E-05
 -20.836  0.933E-05  0.933E-05
 -20.826  0.982E-05  0.982E-05
 -20.816  0.103E-04  0.103E-04
 -20.806  0.108E-04  0.108E-04
 -20.796  0.113E-04  0.113E-04
 -20.786  0.119E-04  0.119E-04
 -20.776  0.124E-04  0.124E-04
 -20.766  0.129E-04  0.129E-04
 -20.756  0.135E-04  0.135E-04
 -20.746  0.140E-04  0.140E-04
 -20.736  0.146E-04  0.146E-04
 -20.726  0.151E-04  0.151E-04
 -20.716  0.157E-04  0.157E-04
 -20.706  0.162E-04  0.162E-04
 -20.696  0.168E-04  0.168E-04
 -20.686  0.173E-04  0.173E-04
 -20.676  0.179E-04  0.179E-04
 -20.666  0.185E-04  0.185E-04
 -20.656  0.190E-04  0.190E-04
 -20.646  0.196E-04  0.196E-04
 -20.636  0.201E-04  0.201E-04
 -20.626  0.207E-04  0.207E-04
 -20.616  0.212E-04  0.212E-04
 -20.606  0.218E-04  0.218E-04
 -20.596  0.223E-04  0.223E-04
 -20.586  0.228E-04  0.228E-04
 -20.576  0.234E-04  0.234E-04
 -20.566  0.239E-04  0.239E-04
 -20.556  0.244E-04  0.244E-04
 -20.546  0.249E-04  0.249E-04
 -20.536  0.253E-04  0.253E-04
 -20.526  0.258E-04  0.258E-04
 -20.516  0.263E-04  0.263E-04
 -20.506  0.267E-04  0.267E-04
 -20.496  0.272E-04  0.272E-04
 -20.486  0.276E-04  0.276E-04
 -20.476  0.280E-04  0.280E-04
 -20.466  0.284E-04  0.284E-04
 -20.456  0.287E-04  0.287E-04
 -20.446  0.291E-04  0.291E-04
 -20.436  0.294E-04  0.294E-04
 -20.426  0.297E-04  0.297E-04
 -20.416  0.300E-04  0.300E-04
 -20.406  0.303E-04  0.303E-04
 -20.396  0.305E-04  0.305E-04
 -20.386  0.308E-04  0.308E-04
 -20.376  0.310E-04  0.310E-04
 -20.366  0.312E-04  0.312E-04
 -20.356  0.314E-04  0.314E-04
 -20.346  0.315E-04  0.315E-04
 -20.336  0.316E-04  0.316E-04
 -20.326  0.317E-04  0.317E-04
 -20.316  0.318E-04  0.318E-04
 -20.306  0.319E-04  0.319E-04
 -20.296  0.319E-04  0.319E-04
 -20.286  0.319E-04  0.319E-04
 -20.276  0.319E-04  0.319E-04
 -20.266  0.319E-04  0.319E-04
 -20.256  0.318E-04  0.318E-04
 -20.246  0.317E-04  0.317E-04
 -20.236  0.316E-04  0.316E-04
 -20.226  0.315E-04  0.315E-04
 -20.216  0.314E-04  0.314E-04
 -20.206  0.312E-04  0.312E-04
 -20.196  0.310E-04  0.310E-04
 -20.186  0.308E-04  0.308E-04
 -20.176  0.306E-04  0.306E-04
 -20.166  0.303E-04  0.303E-04
 -20.156  0.300E-04  0.300E-04
 -20.146  0.297E-04  0.297E-04
 -20.136  0.294E-04  0.294E-04
 -20.126  0.291E-04  0.291E-04
 -20.116  0.288E-04  0.288E-04
 -20.106  0.284E-04  0.284E-04
 -20.096  0.280E-04  0.280E-04
 -20.086  0.276E-04  0.276E-04
 -20.076  0.272E-04  0.272E-04
 -20.066  0.268E-04  0.268E-04
 -20.056  0.263E-04  0.263E-04
 -20.046  0.259E-04  0.259E-04
 -20.036  0.254E-04  0.254E-04
 -20.026  0.249E-04  0.249E-04
 -20.016  0.244E-04  0.244E-04
 -20.006  0.239E-04  0.239E-04
 -19.996  0.234E-04  0.234E-04
 -19.986  0.229E-04  0.229E-04
 -19.976  0.224E-04  0.224E-04
 -19.966  0.218E-04  0.218E-04
 -19.956  0.213E-04  0.213E-04
 -19.946  0.208E-04  0.208E-04
 -19.936  0.202E-04  0.202E-04
 -19.926  0.197E-04  0.197E-04
 -19.916  0.191E-04  0.191E-04
 -19.906  0.185E-04  0.185E-04
 -19.896  0.180E-04  0.180E-04
 -19.886  0.174E-04  0.174E-04
 -19.876  0.169E-04  0.169E-04
 -19.866  0.163E-04  0.163E-04
 -19.856  0.158E-04  0.158E-04
 -19.846  0.152E-04  0.152E-04
 -19.836  0.147E-04  0.147E-04
 -19.826  0.141E-04  0.141E-04
 -19.816  0.136E-04  0.136E-04
 -19.806  0.130E-04  0.130E-04
 -19.796  0.125E-04  0.125E-04
 -19.786  0.120E-04  0.120E-04
 -19.776  0.115E-04  0.115E-04
 -19.766  0.110E-04  0.110E-04
 -19.756  0.105E-04  0.105E-04
 -19.746  0.996E-05  0.996E-05
 -19.736  0.948E-05  0.948E-05
 -19.726  0.900E-05  0.900E-05
 -19.716  0.854E-05  0.854E-05
 -19.706  0.808E-05  0.808E-05
 -19.696  0.764E-05  0.764E-05
 -19.686  0.721E-05  0.721E-05
 -19.676  0.678E-05  0.678E-05
 -19.666  0.637E-05  0.637E-05
 -19.656  0.597E-05  0.597E-05
 -19.646  0.558E-05  0.558E-05
 -19.636  0.520E-05  0.520E-05
 -19.626  0.484E-05  0.484E-05
 -19.616  0.449E-05  0.449E-05
 -19.606  0.414E-05  0.414E-05
 -19.596  0.381E-05  0.381E-05
 -19.586  0.350E-05  0.350E-05
 -19.576  0.319E-05  0.319E-05
 -19.566  0.290E-05  0.290E-05
 -19.556  0.262E-05  0.262E-05
 -19.546  0.235E-05  0.235E-05
 -19.536  0.209E-05  0.209E-05
 -19.526  0.185E-05  0.185E-05
 -19.516  0.162E-05  0.162E-05
 -19.506  0.140E-05  0.140E-05
 -19.496  0.119E-05  0.119E-05
 -19.486  0.988E-06  0.988E-06
 -19.476  0.800E-06  0.800E-06
 -19.466  0.624E-06  0.624E-06
 -19.456  0.458E-06  0.458E-06
 -19.446  0.303E-06  0.303E-06
 -19.436  0.158E-06  0.158E-06
 -19.426  0.230E-07  0.230E-07
 -19.416 -0.102E-06 -0.102E-06
 -19.406 -0.218E-06 -0.218E-06
 -19.396 -0.325E-06 -0.325E-06
 -19.386 -0.423E-06 -0.423E-06
 -19.376 -0.512E-06 -0.512E-06
 -19.366 -0.593E-06 -0.593E-06
 -19.356 -0.666E-06 -0.666E-06
 -19.346 -0.731E-06 -0.731E-06
 -19.336 -0.789E-06 -0.789E-06
 -19.326 -0.840E-06 -0.840E-06
 -19.316 -0.884E-06 -0.884E-06
 -19.306 -0.922E-06 -0.922E-06
 -19.296 -0.953E-06 -0.953E-06
 -19.286 -0.978E-06 -0.978E-06
 -19.276 -0.998E-06 -0.998E-06
 -19.266 -0.101E-05 -0.101E-05
 -19.256 -0.102E-05 -0.102E-05
 -19.246 -0.103E-05 -0.103E-05
 -19.236 -0.103E-05 -0.103E-05
 -19.226 -0.103E-05 -0.103E-05
 -19.216 -0.102E-05 -0.102E-05
 -19.206 -0.101E-05 -0.101E-05
 -19.196 -0.993E-06 -0.993E-06
 -19.186 -0.976E-06 -0.976E-06
 -19.176 -0.956E-06 -0.956E-06
 -19.166 -0.933E-06 -0.933E-06
 -19.156 -0.909E-06 -0.909E-06
 -19.146 -0.882E-06 -0.882E-06
 -19.136 -0.853E-06 -0.853E-06
 -19.126 -0.823E-06 -0.823E-06
 -19.116 -0.792E-06 -0.792E-06
 -19.106 -0.759E-06 -0.759E-06
 -19.096 -0.725E-06 -0.725E-06
 -19.086 -0.690E-06 -0.690E-06
 -19.076 -0.655E-06 -0.655E-06
 -19.066 -0.619E-06 -0.619E-06
 -19.056 -0.582E-06 -0.582E-06
 -19.046 -0.546E-06 -0.546E-06
 -19.036 -0.509E-06 -0.509E-06
 -19.026 -0.473E-06 -0.473E-06
 -19.016 -0.437E-06 -0.437E-06
 -19.006 -0.401E-06 -0.401E-06
 -18.996 -0.365E-06 -0.365E-06
 -18.986 -0.330E-06 -0.330E-06
 -18.976 -0.296E-06 -0.296E-06
 -18.966 -0.262E-06 -0.262E-06
 -18.956 -0.229E-06 -0.229E-06
 -18.946 -0.197E-06 -0.197E-06
 -18.936 -0.165E-06 -0.165E-06
 -18.926 -0.135E-06 -0.135E-06
 -18.916 -0.106E-06 -0.106E-06
 -18.906 -0.776E-07 -0.776E-07
 -18.896 -0.504E-07 -0.504E-07
 -18.886 -0.243E-07 -0.243E-07
 -18.876  0.621E-09  0.621E-09
 -18.866  0.244E-07  0.244E-07
 -18.856  0.470E-07  0.470E-07
 -18.846  0.683E-07  0.683E-07
 -18.836  0.885E-07  0.885E-07
 -18.826  0.107E-06  0.107E-06
 -18.816  0.125E-06  0.125E-06
 -18.806  0.142E-06  0.142E-06
 -18.796  0.157E-06  0.157E-06
 -18.786  0.171E-06  0.171E-06
 -18.776  0.184E-06  0.184E-06
 -18.766  0.196E-06  0.196E-06
 -18.756  0.207E-06  0.207E-06
 -18.746  0.217E-06  0.217E-06
 -18.736  0.225E-06  0.225E-06
 -18.726  0.233E-06  0.233E-06
 -18.716  0.240E-06  0.240E-06
 -18.706  0.245E-06  0.245E-06
 -18.696  0.250E-06  0.250E-06
 -18.686  0.253E-06  0.253E-06
 -18.676  0.256E-06  0.256E-06
 -18.666  0.258E-06  0.258E-06
 -18.656  0.259E-06  0.259E-06
 -18.646  0.260E-06  0.260E-06
 -18.636  0.259E-06  0.259E-06
 -18.626  0.258E-06  0.258E-06
 -18.616  0.256E-06  0.256E-06
 -18.606  0.254E-06  0.254E-06
 -18.596  0.251E-06  0.251E-06
 -18.586  0.248E-06  0.248E-06
 -18.576  0.243E-06  0.243E-06
 -18.566  0.239E-06  0.239E-06
 -18.556  0.234E-06  0.234E-06
 -18.546  0.229E-06  0.229E-06
 -18.536  0.223E-06  0.223E-06
 -18.526  0.217E-06  0.217E-06
 -18.516  0.210E-06  0.210E-06
 -18.506  0.204E-06  0.204E-06
 -18.496  0.197E-06  0.197E-06
 -18.486  0.190E-06  0.190E-06
 -18.476  0.182E-06  0.182E-06
 -18.466  0.175E-06  0.175E-06
 -18.456  0.167E-06  0.167E-06
 -18.446  0.160E-06  0.160E-06
 -18.436  0.152E-06  0.152E-06
 -18.426  0.144E-06  0.144E-06
 -18.416  0.137E-06  0.137E-06
 -18.406  0.129E-06  0.129E-06
 -18.396  0.121E-06  0.121E-06
 -18.386  0.113E-06  0.113E-06
 -18.376  0.106E-06  0.106E-06
 -18.366  0.979E-07  0.979E-07
 -18.356  0.904E-07  0.904E-07
 -18.346  0.830E-07  0.830E-07
 -18.336  0.757E-07  0.757E-07
 -18.326  0.685E-07  0.685E-07
 -18.316  0.615E-07  0.615E-07
 -18.306  0.546E-07  0.546E-07
 -18.296  0.479E-07  0.479E-07
 -18.286  0.413E-07  0.413E-07
 -18.276  0.350E-07  0.350E-07
 -18.266  0.288E-07  0.288E-07
 -18.256  0.228E-07  0.228E-07
 -18.246  0.170E-07  0.170E-07
 -18.236  0.114E-07  0.114E-07
 -18.226  0.602E-08  0.602E-08
 -18.216  0.830E-09  0.830E-09
 -18.206 -0.415E-08 -0.415E-08
 -18.196 -0.892E-08 -0.892E-08
 -18.186 -0.135E-07 -0.135E-07
 -18.176 -0.178E-07 -0.178E-07
 -18.166 -0.220E-07 -0.220E-07
 -18.156 -0.259E-07 -0.259E-07
 -18.146 -0.297E-07 -0.297E-07
 -18.136 -0.332E-07 -0.332E-07
 -18.126 -0.366E-07 -0.366E-07
 -18.116 -0.397E-07 -0.397E-07
 -18.106 -0.426E-07 -0.426E-07
 -18.096 -0.454E-07 -0.454E-07
 -18.086 -0.480E-07 -0.480E-07
 -18.076 -0.504E-07 -0.504E-07
 -18.066 -0.526E-07 -0.526E-07
 -18.056 -0.546E-07 -0.546E-07
 -18.046 -0.565E-07 -0.565E-07
 -18.036 -0.582E-07 -0.582E-07
 -18.026 -0.598E-07 -0.598E-07
 -18.016 -0.612E-07 -0.612E-07
 -18.006 -0.625E-07 -0.625E-07
 -17.996 -0.636E-07 -0.636E-07
 -17.986 -0.646E-07 -0.646E-07
 -17.976 -0.655E-07 -0.655E-07
 -17.966 -0.662E-07 -0.662E-07
 -17.956 -0.668E-07 -0.668E-07
 -17.946 -0.673E-07 -0.673E-07
 -17.936 -0.677E-07 -0.677E-07
 -17.926 -0.680E-07 -0.680E-07
 -17.916 -0.682E-07 -0.682E-07
 -17.906 -0.683E-07 -0.683E-07
 -17.896 -0.683E-07 -0.683E-07
 -17.886 -0.682E-07 -0.682E-07
 -17.876 -0.681E-07 -0.681E-07
 -17.866 -0.678E-07 -0.678E-07
 -17.856 -0.675E-07 -0.675E-07
 -17.846 -0.672E-07 -0.672E-07
 -17.836 -0.667E-07 -0.667E-07
 -17.826 -0.662E-07 -0.662E-07
 -17.816 -0.657E-07 -0.657E-07
 -17.806 -0.651E-07 -0.651E-07
 -17.796 -0.644E-07 -0.644E-07
 -17.786 -0.637E-07 -0.637E-07
 -17.776 -0.630E-07 -0.630E-07
 -17.766 -0.622E-07 -0.622E-07
 -17.756 -0.614E-07 -0.614E-07
 -17.746 -0.606E-07 -0.606E-07
 -17.736 -0.597E-07 -0.597E-07
 -17.726 -0.588E-07 -0.588E-07
 -17.716 -0.578E-07 -0.578E-07
 -17.706 -0.569E-07 -0.569E-07
 -17.696 -0.559E-07 -0.559E-07
 -17.686 -0.549E-07 -0.549E-07
 -17.676 -0.538E-07 -0.538E-07
 -17.666 -0.528E-07 -0.528E-07
 -17.656 -0.517E-07 -0.517E-07
 -17.646 -0.506E-07 -0.506E-07
 -17.636 -0.495E-07 -0.495E-07
 -17.626 -0.484E-07 -0.484E-07
 -17.616 -0.473E-07 -0.473E-07
 -17.606 -0.461E-07 -0.461E-07
 -17.596 -0.450E-07 -0.450E-07
 -17.586 -0.438E-07 -0.438E-07
 -17.576 -0.426E-07 -0.426E-07
 -17.566 -0.414E-07 -0.414E-07
 -17.556 -0.402E-07 -0.402E-07
 -17.546 -0.389E-07 -0.389E-07
 -17.536 -0.377E-07 -0.377E-07
 -17.526 -0.364E-07 -0.364E-07
 -17.516 -0.351E-07 -0.351E-07
 -17.506 -0.338E-07 -0.338E-07
 -17.496 -0.325E-07 -0.325E-07
 -17.486 -0.312E-07 -0.312E-07
 -17.476 -0.298E-07 -0.298E-07
 -17.466 -0.284E-07 -0.284E-07
 -17.456 -0.270E-07 -0.270E-07
 -17.446 -0.256E-07 -0.256E-07
 -17.436 -0.242E-07 -0.242E-07
 -17.426 -0.227E-07 -0.227E-07
 -17.416 -0.211E-07 -0.211E-07
 -17.406 -0.196E-07 -0.196E-07
 -17.396 -0.180E-07 -0.180E-07
 -17.386 -0.164E-07 -0.164E-07
 -17.376 -0.147E-07 -0.147E-07
 -17.366 -0.129E-07 -0.129E-07
 -17.356 -0.111E-07 -0.111E-07
 -17.346 -0.928E-08 -0.928E-08
 -17.336 -0.736E-08 -0.736E-08
 -17.326 -0.537E-08 -0.537E-08
 -17.316 -0.330E-08 -0.330E-08
 -17.306 -0.115E-08 -0.115E-08
 -17.296  0.109E-08  0.109E-08
 -17.286  0.342E-08  0.342E-08
 -17.276  0.586E-08  0.586E-08
 -17.266  0.841E-08  0.841E-08
 -17.256  0.111E-07  0.111E-07
 -17.246  0.139E-07  0.139E-07
 -17.236  0.168E-07  0.168E-07
 -17.226  0.199E-07  0.199E-07
 -17.216  0.231E-07  0.231E-07
 -17.206  0.265E-07  0.265E-07
 -17.196  0.301E-07  0.301E-07
 -17.186  0.339E-07  0.339E-07
 -17.176  0.378E-07  0.378E-07
 -17.166  0.420E-07  0.420E-07
 -17.156  0.464E-07  0.464E-07
 -17.146  0.511E-07  0.511E-07
 -17.136  0.560E-07  0.560E-07
 -17.126  0.611E-07  0.611E-07
 -17.116  0.666E-07  0.666E-07
 -17.106  0.723E-07  0.723E-07
 -17.096  0.783E-07  0.783E-07
 -17.086  0.847E-07  0.847E-07
 -17.076  0.914E-07  0.914E-07
 -17.066  0.984E-07  0.984E-07
 -17.056  0.106E-06  0.106E-06
 -17.046  0.114E-06  0.114E-06
 -17.036  0.122E-06  0.122E-06
 -17.026  0.131E-06  0.131E-06
 -17.016  0.140E-06  0.140E-06
 -17.006  0.149E-06  0.149E-06
 -16.996  0.159E-06  0.159E-06
 -16.986  0.170E-06  0.170E-06
 -16.976  0.181E-06  0.181E-06
 -16.966  0.192E-06  0.192E-06
 -16.956  0.204E-06  0.204E-06
 -16.946  0.217E-06  0.217E-06
 -16.936  0.230E-06  0.230E-06
 -16.926  0.243E-06  0.243E-06
 -16.916  0.258E-06  0.258E-06
 -16.906  0.273E-06  0.273E-06
 -16.896  0.288E-06  0.288E-06
 -16.886  0.304E-06  0.304E-06
 -16.876  0.321E-06  0.321E-06
 -16.866  0.338E-06  0.338E-06
 -16.856  0.357E-06  0.357E-06
 -16.846  0.375E-06  0.375E-06
 -16.836  0.395E-06  0.395E-06
 -16.826  0.415E-06  0.415E-06
 -16.816  0.436E-06  0.436E-06
 -16.806  0.457E-06  0.457E-06
 -16.796  0.480E-06  0.480E-06
 -16.786  0.502E-06  0.502E-06
 -16.776  0.526E-06  0.526E-06
 -16.766  0.550E-06  0.550E-06
 -16.756  0.575E-06  0.575E-06
 -16.746  0.601E-06  0.601E-06
 -16.736  0.628E-06  0.628E-06
 -16.726  0.655E-06  0.655E-06
 -16.716  0.682E-06  0.682E-06
 -16.706  0.711E-06  0.711E-06
 -16.696  0.740E-06  0.740E-06
 -16.686  0.770E-06  0.770E-06
 -16.676  0.800E-06  0.800E-06
 -16.666  0.831E-06  0.831E-06
 -16.656  0.862E-06  0.862E-06
 -16.646  0.894E-06  0.894E-06
 -16.636  0.927E-06  0.927E-06
 -16.626  0.960E-06  0.960E-06
 -16.616  0.994E-06  0.994E-06
 -16.606  0.103E-05  0.103E-05
 -16.596  0.106E-05  0.106E-05
 -16.586  0.110E-05  0.110E-05
 -16.576  0.113E-05  0.113E-05
 -16.566  0.117E-05  0.117E-05
 -16.556  0.120E-05  0.120E-05
 -16.546  0.124E-05  0.124E-05
 -16.536  0.128E-05  0.128E-05
 -16.526  0.131E-05  0.131E-05
 -16.516  0.135E-05  0.135E-05
 -16.506  0.139E-05  0.139E-05
 -16.496  0.142E-05  0.142E-05
 -16.486  0.146E-05  0.146E-05
 -16.476  0.150E-05  0.150E-05
 -16.466  0.153E-05  0.153E-05
 -16.456  0.157E-05  0.157E-05
 -16.446  0.160E-05  0.160E-05
 -16.436  0.164E-05  0.164E-05
 -16.426  0.167E-05  0.167E-05
 -16.416  0.171E-05  0.171E-05
 -16.406  0.174E-05  0.174E-05
 -16.396  0.178E-05  0.178E-05
 -16.386  0.181E-05  0.181E-05
 -16.376  0.184E-05  0.184E-05
 -16.366  0.188E-05  0.188E-05
 -16.356  0.191E-05  0.191E-05
 -16.346  0.194E-05  0.194E-05
 -16.336  0.197E-05  0.197E-05
 -16.326  0.200E-05  0.200E-05
 -16.316  0.203E-05  0.203E-05
 -16.306  0.205E-05  0.205E-05
 -16.296  0.208E-05  0.208E-05
 -16.286  0.210E-05  0.210E-05
 -16.276  0.213E-05  0.213E-05
 -16.266  0.215E-05  0.215E-05
 -16.256  0.217E-05  0.217E-05
 -16.246  0.219E-05  0.219E-05
 -16.236  0.221E-05  0.221E-05
 -16.226  0.223E-05  0.223E-05
 -16.216  0.225E-05  0.225E-05
 -16.206  0.226E-05  0.226E-05
 -16.196  0.227E-05  0.227E-05
 -16.186  0.229E-05  0.229E-05
 -16.176  0.230E-05  0.230E-05
 -16.166  0.231E-05  0.231E-05
 -16.156  0.231E-05  0.231E-05
 -16.146  0.232E-05  0.232E-05
 -16.136  0.232E-05  0.232E-05
 -16.126  0.233E-05  0.233E-05
 -16.116  0.233E-05  0.233E-05
 -16.106  0.233E-05  0.233E-05
 -16.096  0.233E-05  0.233E-05
 -16.086  0.232E-05  0.232E-05
 -16.076  0.232E-05  0.232E-05
 -16.066  0.231E-05  0.231E-05
 -16.056  0.230E-05  0.230E-05
 -16.046  0.229E-05  0.229E-05
 -16.036  0.228E-05  0.228E-05
 -16.026  0.227E-05  0.227E-05
 -16.016  0.225E-05  0.225E-05
 -16.006  0.224E-05  0.224E-05
 -15.996  0.222E-05  0.222E-05
 -15.986  0.220E-05  0.220E-05
 -15.976  0.218E-05  0.218E-05
 -15.966  0.216E-05  0.216E-05
 -15.956  0.214E-05  0.214E-05
 -15.946  0.211E-05  0.211E-05
 -15.936  0.209E-05  0.209E-05
 -15.926  0.206E-05  0.206E-05
 -15.916  0.203E-05  0.203E-05
 -15.906  0.200E-05  0.200E-05
 -15.896  0.197E-05  0.197E-05
 -15.886  0.194E-05  0.194E-05
 -15.876  0.191E-05  0.191E-05
 -15.866  0.188E-05  0.188E-05
 -15.856  0.184E-05  0.184E-05
 -15.846  0.181E-05  0.181E-05
 -15.836  0.177E-05  0.177E-05
 -15.826  0.173E-05  0.173E-05
 -15.816  0.170E-05  0.170E-05
 -15.806  0.166E-05  0.166E-05
 -15.796  0.162E-05  0.162E-05
 -15.786  0.158E-05  0.158E-05
 -15.776  0.154E-05  0.154E-05
 -15.766  0.150E-05  0.150E-05
 -15.756  0.146E-05  0.146E-05
 -15.746  0.142E-05  0.142E-05
 -15.736  0.138E-05  0.138E-05
 -15.726  0.134E-05  0.134E-05
 -15.716  0.130E-05  0.130E-05
 -15.706  0.126E-05  0.126E-05
 -15.696  0.122E-05  0.122E-05
 -15.686  0.117E-05  0.117E-05
 -15.676  0.113E-05  0.113E-05
 -15.666  0.109E-05  0.109E-05
 -15.656  0.105E-05  0.105E-05
 -15.646  0.101E-05  0.101E-05
 -15.636  0.968E-06  0.968E-06
 -15.626  0.927E-06  0.927E-06
 -15.616  0.887E-06  0.887E-06
 -15.606  0.847E-06  0.847E-06
 -15.596  0.807E-06  0.807E-06
 -15.586  0.768E-06  0.768E-06
 -15.576  0.729E-06  0.729E-06
 -15.566  0.691E-06  0.691E-06
 -15.556  0.653E-06  0.653E-06
 -15.546  0.616E-06  0.616E-06
 -15.536  0.579E-06  0.579E-06
 -15.526  0.543E-06  0.543E-06
 -15.516  0.507E-06  0.507E-06
 -15.506  0.472E-06  0.472E-06
 -15.496  0.437E-06  0.437E-06
 -15.486  0.403E-06  0.403E-06
 -15.476  0.370E-06  0.370E-06
 -15.466  0.337E-06  0.337E-06
 -15.456  0.305E-06  0.305E-06
 -15.446  0.273E-06  0.273E-06
 -15.436  0.242E-06  0.242E-06
 -15.426  0.212E-06  0.212E-06
 -15.416  0.182E-06  0.182E-06
 -15.406  0.153E-06  0.153E-06
 -15.396  0.125E-06  0.125E-06
 -15.386  0.968E-07  0.968E-07
 -15.376  0.695E-07  0.695E-07
 -15.366  0.427E-07  0.427E-07
 -15.356  0.164E-07  0.164E-07
 -15.346 -0.928E-08 -0.928E-08
 -15.336 -0.345E-07 -0.345E-07
 -15.326 -0.592E-07 -0.592E-07
 -15.316 -0.834E-07 -0.834E-07
 -15.306 -0.107E-06 -0.107E-06
 -15.296 -0.131E-06 -0.131E-06
 -15.286 -0.154E-06 -0.154E-06
 -15.276 -0.176E-06 -0.176E-06
 -15.266 -0.198E-06 -0.198E-06
 -15.256 -0.220E-06 -0.220E-06
 -15.246 -0.242E-06 -0.242E-06
 -15.236 -0.263E-06 -0.263E-06
 -15.226 -0.284E-06 -0.284E-06
 -15.216 -0.305E-06 -0.305E-06
 -15.206 -0.326E-06 -0.326E-06
 -15.196 -0.346E-06 -0.346E-06
 -15.186 -0.367E-06 -0.367E-06
 -15.176 -0.387E-06 -0.387E-06
 -15.166 -0.407E-06 -0.407E-06
 -15.156 -0.428E-06 -0.428E-06
 -15.146 -0.448E-06 -0.448E-06
 -15.136 -0.468E-06 -0.468E-06
 -15.126 -0.488E-06 -0.488E-06
 -15.116 -0.508E-06 -0.508E-06
 -15.106 -0.528E-06 -0.528E-06
 -15.096 -0.549E-06 -0.549E-06
 -15.086 -0.569E-06 -0.569E-06
 -15.076 -0.590E-06 -0.590E-06
 -15.066 -0.611E-06 -0.611E-06
 -15.056 -0.632E-06 -0.632E-06
 -15.046 -0.653E-06 -0.653E-06
 -15.036 -0.674E-06 -0.674E-06
 -15.026 -0.695E-06 -0.695E-06
 -15.016 -0.717E-06 -0.717E-06
 -15.006 -0.739E-06 -0.739E-06
 -14.996 -0.761E-06 -0.761E-06
 -14.986 -0.783E-06 -0.783E-06
 -14.976 -0.805E-06 -0.805E-06
 -14.966 -0.828E-06 -0.828E-06
 -14.956 -0.851E-06 -0.851E-06
 -14.946 -0.874E-06 -0.874E-06
 -14.936 -0.897E-06 -0.897E-06
 -14.926 -0.920E-06 -0.920E-06
 -14.916 -0.943E-06 -0.943E-06
 -14.906 -0.967E-06 -0.967E-06
 -14.896 -0.990E-06 -0.990E-06
 -14.886 -0.101E-05 -0.101E-05
 -14.876 -0.104E-05 -0.104E-05
 -14.866 -0.106E-05 -0.106E-05
 -14.856 -0.108E-05 -0.108E-05
 -14.846 -0.111E-05 -0.111E-05
 -14.836 -0.113E-05 -0.113E-05
 -14.826 -0.115E-05 -0.115E-05
 -14.816 -0.117E-05 -0.117E-05
 -14.806 -0.119E-05 -0.119E-05
 -14.796 -0.122E-05 -0.122E-05
 -14.786 -0.124E-05 -0.124E-05
 -14.776 -0.126E-05 -0.126E-05
 -14.766 -0.127E-05 -0.127E-05
 -14.756 -0.129E-05 -0.129E-05
 -14.746 -0.131E-05 -0.131E-05
 -14.736 -0.133E-05 -0.133E-05
 -14.726 -0.134E-05 -0.134E-05
 -14.716 -0.135E-05 -0.135E-05
 -14.706 -0.137E-05 -0.137E-05
 -14.696 -0.138E-05 -0.138E-05
 -14.686 -0.139E-05 -0.139E-05
 -14.676 -0.139E-05 -0.139E-05
 -14.666 -0.140E-05 -0.140E-05
 -14.656 -0.140E-05 -0.140E-05
 -14.646 -0.140E-05 -0.140E-05
 -14.636 -0.140E-05 -0.140E-05
 -14.626 -0.140E-05 -0.140E-05
 -14.616 -0.139E-05 -0.139E-05
 -14.606 -0.138E-05 -0.138E-05
 -14.596 -0.137E-05 -0.137E-05
 -14.586 -0.135E-05 -0.135E-05
 -14.576 -0.133E-05 -0.133E-05
 -14.566 -0.131E-05 -0.131E-05
 -14.556 -0.128E-05 -0.128E-05
 -14.546 -0.125E-05 -0.125E-05
 -14.536 -0.121E-05 -0.121E-05
 -14.526 -0.117E-05 -0.117E-05
 -14.516 -0.112E-05 -0.112E-05
 -14.506 -0.107E-05 -0.107E-05
 -14.496 -0.102E-05 -0.102E-05
 -14.486 -0.959E-06 -0.959E-06
 -14.476 -0.894E-06 -0.894E-06
 -14.466 -0.822E-06 -0.822E-06
 -14.456 -0.744E-06 -0.744E-06
 -14.446 -0.660E-06 -0.660E-06
 -14.436 -0.570E-06 -0.570E-06
 -14.426 -0.473E-06 -0.473E-06
 -14.416 -0.370E-06 -0.370E-06
 -14.406 -0.259E-06 -0.259E-06
 -14.396 -0.141E-06 -0.141E-06
 -14.386 -0.154E-07 -0.154E-07
 -14.376  0.118E-06  0.118E-06
 -14.366  0.259E-06  0.259E-06
 -14.356  0.408E-06  0.408E-06
 -14.346  0.566E-06  0.566E-06
 -14.336  0.732E-06  0.732E-06
 -14.326  0.906E-06  0.906E-06
 -14.316  0.109E-05  0.109E-05
 -14.306  0.128E-05  0.128E-05
 -14.296  0.148E-05  0.148E-05
 -14.286  0.170E-05  0.170E-05
 -14.276  0.192E-05  0.192E-05
 -14.266  0.215E-05  0.215E-05
 -14.256  0.239E-05  0.239E-05
 -14.246  0.264E-05  0.264E-05
 -14.236  0.290E-05  0.290E-05
 -14.226  0.317E-05  0.317E-05
 -14.216  0.345E-05  0.345E-05
 -14.206  0.374E-05  0.374E-05
 -14.196  0.404E-05  0.404E-05
 -14.186  0.435E-05  0.435E-05
 -14.176  0.467E-05  0.467E-05
 -14.166  0.500E-05  0.500E-05
 -14.156  0.534E-05  0.534E-05
 -14.146  0.570E-05  0.570E-05
 -14.136  0.606E-05  0.606E-05
 -14.126  0.643E-05  0.643E-05
 -14.116  0.681E-05  0.681E-05
 -14.106  0.721E-05  0.721E-05
 -14.096  0.761E-05  0.761E-05
 -14.086  0.802E-05  0.802E-05
 -14.076  0.845E-05  0.845E-05
 -14.066  0.888E-05  0.888E-05
 -14.056  0.932E-05  0.932E-05
 -14.046  0.977E-05  0.977E-05
 -14.036  0.102E-04  0.102E-04
 -14.026  0.107E-04  0.107E-04
 -14.016  0.112E-04  0.112E-04
 -14.006  0.117E-04  0.117E-04
 -13.996  0.121E-04  0.121E-04
 -13.986  0.126E-04  0.126E-04
 -13.976  0.131E-04  0.131E-04
 -13.966  0.137E-04  0.137E-04
 -13.956  0.142E-04  0.142E-04
 -13.946  0.147E-04  0.147E-04
 -13.936  0.152E-04  0.152E-04
 -13.926  0.158E-04  0.158E-04
 -13.916  0.163E-04  0.163E-04
 -13.906  0.168E-04  0.168E-04
 -13.896  0.174E-04  0.174E-04
 -13.886  0.179E-04  0.179E-04
 -13.876  0.185E-04  0.185E-04
 -13.866  0.190E-04  0.190E-04
 -13.856  0.196E-04  0.196E-04
 -13.846  0.201E-04  0.201E-04
 -13.836  0.207E-04  0.207E-04
 -13.826  0.212E-04  0.212E-04
 -13.816  0.218E-04  0.218E-04
 -13.806  0.223E-04  0.223E-04
 -13.796  0.229E-04  0.229E-04
 -13.786  0.234E-04  0.234E-04
 -13.776  0.239E-04  0.239E-04
 -13.766  0.245E-04  0.245E-04
 -13.756  0.250E-04  0.250E-04
 -13.746  0.255E-04  0.255E-04
 -13.736  0.260E-04  0.260E-04
 -13.726  0.265E-04  0.265E-04
 -13.716  0.270E-04  0.270E-04
 -13.706  0.275E-04  0.275E-04
 -13.696  0.280E-04  0.280E-04
 -13.686  0.284E-04  0.284E-04
 -13.676  0.289E-04  0.289E-04
 -13.666  0.293E-04  0.293E-04
 -13.656  0.297E-04  0.297E-04
 -13.646  0.302E-04  0.302E-04
 -13.636  0.306E-04  0.306E-04
 -13.626  0.310E-04  0.310E-04
 -13.616  0.313E-04  0.313E-04
 -13.606  0.317E-04  0.317E-04
 -13.596  0.320E-04  0.320E-04
 -13.586  0.323E-04  0.323E-04
 -13.576  0.326E-04  0.326E-04
 -13.566  0.329E-04  0.329E-04
 -13.556  0.332E-04  0.332E-04
 -13.546  0.335E-04  0.335E-04
 -13.536  0.337E-04  0.337E-04
 -13.526  0.339E-04  0.339E-04
 -13.516  0.341E-04  0.341E-04
 -13.506  0.343E-04  0.343E-04
 -13.496  0.344E-04  0.344E-04
 -13.486  0.345E-04  0.345E-04
 -13.476  0.347E-04  0.347E-04
 -13.466  0.347E-04  0.347E-04
 -13.456  0.348E-04  0.348E-04
 -13.446  0.349E-04  0.349E-04
 -13.436  0.349E-04  0.349E-04
 -13.426  0.349E-04  0.349E-04
 -13.416  0.349E-04  0.349E-04
 -13.406  0.348E-04  0.348E-04
 -13.396  0.348E-04  0.348E-04
 -13.386  0.347E-04  0.347E-04
 -13.376  0.346E-04  0.346E-04
 -13.366  0.345E-04  0.345E-04
 -13.356  0.343E-04  0.343E-04
 -13.346  0.341E-04  0.341E-04
 -13.336  0.340E-04  0.340E-04
 -13.326  0.338E-04  0.338E-04
 -13.316  0.335E-04  0.335E-04
 -13.306  0.333E-04  0.333E-04
 -13.296  0.330E-04  0.330E-04
 -13.286  0.327E-04  0.327E-04
 -13.276  0.324E-04  0.324E-04
 -13.266  0.321E-04  0.321E-04
 -13.256  0.318E-04  0.318E-04
 -13.246  0.314E-04  0.314E-04
 -13.236  0.310E-04  0.310E-04
 -13.226  0.306E-04  0.306E-04
 -13.216  0.302E-04  0.302E-04
 -13.206  0.298E-04  0.298E-04
 -13.196  0.294E-04  0.294E-04
 -13.186  0.289E-04  0.289E-04
 -13.176  0.285E-04  0.285E-04
 -13.166  0.280E-04  0.280E-04
 -13.156  0.275E-04  0.275E-04
 -13.146  0.270E-04  0.270E-04
 -13.136  0.265E-04  0.265E-04
 -13.126  0.260E-04  0.260E-04
 -13.116  0.255E-04  0.255E-04
 -13.106  0.250E-04  0.250E-04
 -13.096  0.244E-04  0.244E-04
 -13.086  0.239E-04  0.239E-04
 -13.076  0.233E-04  0.233E-04
 -13.066  0.228E-04  0.228E-04
 -13.056  0.222E-04  0.222E-04
 -13.046  0.216E-04  0.216E-04
 -13.036  0.211E-04  0.211E-04
 -13.026  0.205E-04  0.205E-04
 -13.016  0.199E-04  0.199E-04
 -13.006  0.194E-04  0.194E-04
 -12.996  0.188E-04  0.188E-04
 -12.986  0.182E-04  0.182E-04
 -12.976  0.177E-04  0.177E-04
 -12.966  0.171E-04  0.171E-04
 -12.956  0.165E-04  0.165E-04
 -12.946  0.160E-04  0.160E-04
 -12.936  0.154E-04  0.154E-04
 -12.926  0.148E-04  0.148E-04
 -12.916  0.143E-04  0.143E-04
 -12.906  0.137E-04  0.137E-04
 -12.896  0.132E-04  0.132E-04
 -12.886  0.127E-04  0.127E-04
 -12.876  0.121E-04  0.121E-04
 -12.866  0.116E-04  0.116E-04
 -12.856  0.111E-04  0.111E-04
 -12.846  0.106E-04  0.106E-04
 -12.836  0.101E-04  0.101E-04
 -12.826  0.961E-05  0.961E-05
 -12.816  0.913E-05  0.913E-05
 -12.806  0.865E-05  0.865E-05
 -12.796  0.819E-05  0.819E-05
 -12.786  0.774E-05  0.774E-05
 -12.776  0.729E-05  0.729E-05
 -12.766  0.686E-05  0.686E-05
 -12.756  0.643E-05  0.643E-05
 -12.746  0.601E-05  0.601E-05
 -12.736  0.561E-05  0.561E-05
 -12.726  0.522E-05  0.522E-05
 -12.716  0.483E-05  0.483E-05
 -12.706  0.446E-05  0.446E-05
 -12.696  0.409E-05  0.409E-05
 -12.686  0.374E-05  0.374E-05
 -12.676  0.340E-05  0.340E-05
 -12.666  0.307E-05  0.307E-05
 -12.656  0.275E-05  0.275E-05
 -12.646  0.243E-05  0.243E-05
 -12.636  0.213E-05  0.213E-05
 -12.626  0.184E-05  0.184E-05
 -12.616  0.156E-05  0.156E-05
 -12.606  0.129E-05  0.129E-05
 -12.596  0.103E-05  0.103E-05
 -12.586  0.781E-06  0.781E-06
 -12.576  0.539E-06  0.539E-06
 -12.566  0.308E-06  0.308E-06
 -12.556  0.854E-07  0.854E-07
 -12.546 -0.128E-06 -0.128E-06
 -12.536 -0.332E-06 -0.332E-06
 -12.526 -0.527E-06 -0.527E-06
 -12.516 -0.714E-06 -0.714E-06
 -12.506 -0.893E-06 -0.893E-06
 -12.496 -0.106E-05 -0.106E-05
 -12.486 -0.122E-05 -0.122E-05
 -12.476 -0.138E-05 -0.138E-05
 -12.466 -0.152E-05 -0.152E-05
 -12.456 -0.166E-05 -0.166E-05
 -12.446 -0.180E-05 -0.180E-05
 -12.436 -0.192E-05 -0.192E-05
 -12.426 -0.204E-05 -0.204E-05
 -12.416 -0.215E-05 -0.215E-05
 -12.406 -0.225E-05 -0.225E-05
 -12.396 -0.235E-05 -0.235E-05
 -12.386 -0.244E-05 -0.244E-05
 -12.376 -0.252E-05 -0.252E-05
 -12.366 -0.260E-05 -0.260E-05
 -12.356 -0.267E-05 -0.267E-05
 -12.346 -0.274E-05 -0.274E-05
 -12.336 -0.280E-05 -0.280E-05
 -12.326 -0.286E-05 -0.286E-05
 -12.316 -0.291E-05 -0.291E-05
 -12.306 -0.295E-05 -0.295E-05
 -12.296 -0.299E-05 -0.299E-05
 -12.286 -0.303E-05 -0.303E-05
 -12.276 -0.306E-05 -0.306E-05
 -12.266 -0.308E-05 -0.308E-05
 -12.256 -0.310E-05 -0.310E-05
 -12.246 -0.311E-05 -0.311E-05
 -12.236 -0.312E-05 -0.312E-05
 -12.226 -0.312E-05 -0.312E-05
 -12.216 -0.312E-05 -0.312E-05
 -12.206 -0.312E-05 -0.312E-05
 -12.196 -0.310E-05 -0.310E-05
 -12.186 -0.309E-05 -0.309E-05
 -12.176 -0.306E-05 -0.306E-05
 -12.166 -0.304E-05 -0.304E-05
 -12.156 -0.300E-05 -0.300E-05
 -12.146 -0.297E-05 -0.297E-05
 -12.136 -0.292E-05 -0.292E-05
 -12.126 -0.287E-05 -0.287E-05
 -12.116 -0.282E-05 -0.282E-05
 -12.106 -0.276E-05 -0.276E-05
 -12.096 -0.269E-05 -0.269E-05
 -12.086 -0.262E-05 -0.262E-05
 -12.076 -0.254E-05 -0.254E-05
 -12.066 -0.246E-05 -0.246E-05
 -12.056 -0.237E-05 -0.237E-05
 -12.046 -0.227E-05 -0.227E-05
 -12.036 -0.217E-05 -0.217E-05
 -12.026 -0.206E-05 -0.206E-05
 -12.016 -0.194E-05 -0.194E-05
 -12.006 -0.182E-05 -0.182E-05
 -11.996 -0.168E-05 -0.168E-05
 -11.986 -0.155E-05 -0.155E-05
 -11.976 -0.140E-05 -0.140E-05
 -11.966 -0.125E-05 -0.125E-05
 -11.956 -0.109E-05 -0.109E-05
 -11.946 -0.921E-06 -0.921E-06
 -11.936 -0.746E-06 -0.746E-06
 -11.926 -0.563E-06 -0.563E-06
 -11.916 -0.372E-06 -0.372E-06
 -11.906 -0.173E-06 -0.173E-06
 -11.896  0.344E-07  0.344E-07
 -11.886  0.249E-06  0.249E-06
 -11.876  0.473E-06  0.473E-06
 -11.866  0.704E-06  0.704E-06
 -11.856  0.943E-06  0.943E-06
 -11.846  0.119E-05  0.119E-05
 -11.836  0.145E-05  0.145E-05
 -11.826  0.171E-05  0.171E-05
 -11.816  0.198E-05  0.198E-05
 -11.806  0.226E-05  0.226E-05
 -11.796  0.255E-05  0.255E-05
 -11.786  0.285E-05  0.285E-05
 -11.776  0.315E-05  0.315E-05
 -11.766  0.347E-05  0.347E-05
 -11.756  0.379E-05  0.379E-05
 -11.746  0.412E-05  0.412E-05
 -11.736  0.445E-05  0.445E-05
 -11.726  0.479E-05  0.479E-05
 -11.716  0.514E-05  0.514E-05
 -11.706  0.550E-05  0.550E-05
 -11.696  0.586E-05  0.586E-05
 -11.686  0.624E-05  0.624E-05
 -11.676  0.661E-05  0.661E-05
 -11.666  0.700E-05  0.700E-05
 -11.656  0.738E-05  0.738E-05
 -11.646  0.778E-05  0.778E-05
 -11.636  0.818E-05  0.818E-05
 -11.626  0.858E-05  0.858E-05
 -11.616  0.899E-05  0.899E-05
 -11.606  0.941E-05  0.941E-05
 -11.596  0.983E-05  0.983E-05
 -11.586  0.102E-04  0.102E-04
 -11.576  0.107E-04  0.107E-04
 -11.566  0.111E-04  0.111E-04
 -11.556  0.115E-04  0.115E-04
 -11.546  0.120E-04  0.120E-04
 -11.536  0.124E-04  0.124E-04
 -11.526  0.128E-04  0.128E-04
 -11.516  0.133E-04  0.133E-04
 -11.506  0.137E-04  0.137E-04
 -11.496  0.141E-04  0.141E-04
 -11.486  0.146E-04  0.146E-04
 -11.476  0.150E-04  0.150E-04
 -11.466  0.154E-04  0.154E-04
 -11.456  0.159E-04  0.159E-04
 -11.446  0.163E-04  0.163E-04
 -11.436  0.167E-04  0.167E-04
 -11.426  0.171E-04  0.171E-04
 -11.416  0.176E-04  0.176E-04
 -11.406  0.180E-04  0.180E-04
 -11.396  0.184E-04  0.184E-04
 -11.386  0.188E-04  0.188E-04
 -11.376  0.192E-04  0.192E-04
 -11.366  0.195E-04  0.195E-04
 -11.356  0.199E-04  0.199E-04
 -11.346  0.203E-04  0.203E-04
 -11.336  0.206E-04  0.206E-04
 -11.326  0.209E-04  0.209E-04
 -11.316  0.213E-04  0.213E-04
 -11.306  0.216E-04  0.216E-04
 -11.296  0.219E-04  0.219E-04
 -11.286  0.221E-04  0.221E-04
 -11.276  0.224E-04  0.224E-04
 -11.266  0.226E-04  0.226E-04
 -11.256  0.228E-04  0.228E-04
 -11.246  0.230E-04  0.230E-04
 -11.236  0.232E-04  0.232E-04
 -11.226  0.233E-04  0.233E-04
 -11.216  0.234E-04  0.234E-04
 -11.206  0.235E-04  0.235E-04
 -11.196  0.236E-04  0.236E-04
 -11.186  0.236E-04  0.236E-04
 -11.176  0.235E-04  0.235E-04
 -11.166  0.235E-04  0.235E-04
 -11.156  0.233E-04  0.233E-04
 -11.146  0.232E-04  0.232E-04
 -11.136  0.230E-04  0.230E-04
 -11.126  0.227E-04  0.227E-04
 -11.116  0.223E-04  0.223E-04
 -11.106  0.219E-04  0.219E-04
 -11.096  0.215E-04  0.215E-04
 -11.086  0.209E-04  0.209E-04
 -11.076  0.203E-04  0.203E-04
 -11.066  0.196E-04  0.196E-04
 -11.056  0.188E-04  0.188E-04
 -11.046  0.180E-04  0.180E-04
 -11.036  0.170E-04  0.170E-04
 -11.026  0.159E-04  0.159E-04
 -11.016  0.147E-04  0.147E-04
 -11.006  0.134E-04  0.134E-04
 -10.996  0.119E-04  0.119E-04
 -10.986  0.103E-04  0.103E-04
 -10.976  0.856E-05  0.856E-05
 -10.966  0.666E-05  0.666E-05
 -10.956  0.459E-05  0.459E-05
 -10.946  0.235E-05  0.235E-05
 -10.936 -0.860E-07 -0.860E-07
 -10.926 -0.272E-05 -0.272E-05
 -10.916 -0.557E-05 -0.557E-05
 -10.906 -0.863E-05 -0.863E-05
 -10.896 -0.119E-04 -0.119E-04
 -10.886 -0.155E-04 -0.155E-04
 -10.876 -0.193E-04 -0.193E-04
 -10.866 -0.234E-04 -0.234E-04
 -10.856 -0.278E-04 -0.278E-04
 -10.846 -0.325E-04 -0.325E-04
 -10.836 -0.376E-04 -0.376E-04
 -10.826 -0.429E-04 -0.429E-04
 -10.816 -0.487E-04 -0.487E-04
 -10.806 -0.548E-04 -0.548E-04
 -10.796 -0.613E-04 -0.613E-04
 -10.786 -0.683E-04 -0.683E-04
 -10.776 -0.756E-04 -0.756E-04
 -10.766 -0.835E-04 -0.835E-04
 -10.756 -0.918E-04 -0.918E-04
 -10.746 -0.101E-03 -0.101E-03
 -10.736 -0.110E-03 -0.110E-03
 -10.726 -0.120E-03 -0.120E-03
 -10.716 -0.130E-03 -0.130E-03
 -10.706 -0.141E-03 -0.141E-03
 -10.696 -0.153E-03 -0.153E-03
 -10.686 -0.165E-03 -0.165E-03
 -10.676 -0.178E-03 -0.178E-03
 -10.666 -0.192E-03 -0.192E-03
 -10.656 -0.207E-03 -0.207E-03
 -10.646 -0.222E-03 -0.222E-03
 -10.636 -0.238E-03 -0.238E-03
 -10.626 -0.254E-03 -0.254E-03
 -10.616 -0.272E-03 -0.272E-03
 -10.606 -0.290E-03 -0.290E-03
 -10.596 -0.310E-03 -0.310E-03
 -10.586 -0.330E-03 -0.330E-03
 -10.576 -0.351E-03 -0.351E-03
 -10.566 -0.373E-03 -0.373E-03
 -10.556 -0.396E-03 -0.396E-03
 -10.546 -0.420E-03 -0.420E-03
 -10.536 -0.445E-03 -0.445E-03
 -10.526 -0.471E-03 -0.471E-03
 -10.516 -0.498E-03 -0.498E-03
 -10.506 -0.526E-03 -0.526E-03
 -10.496 -0.555E-03 -0.555E-03
 -10.486 -0.585E-03 -0.585E-03
 -10.476 -0.616E-03 -0.616E-03
 -10.466 -0.649E-03 -0.649E-03
 -10.456 -0.682E-03 -0.682E-03
 -10.446 -0.717E-03 -0.717E-03
 -10.436 -0.753E-03 -0.753E-03
 -10.426 -0.790E-03 -0.790E-03
 -10.416 -0.828E-03 -0.828E-03
 -10.406 -0.867E-03 -0.867E-03
 -10.396 -0.907E-03 -0.907E-03
 -10.386 -0.948E-03 -0.948E-03
 -10.376 -0.991E-03 -0.991E-03
 -10.366 -0.103E-02 -0.103E-02
 -10.356 -0.108E-02 -0.108E-02
 -10.346 -0.112E-02 -0.112E-02
 -10.336 -0.117E-02 -0.117E-02
 -10.326 -0.122E-02 -0.122E-02
 -10.316 -0.126E-02 -0.126E-02
 -10.306 -0.131E-02 -0.131E-02
 -10.296 -0.136E-02 -0.136E-02
 -10.286 -0.141E-02 -0.141E-02
 -10.276 -0.146E-02 -0.146E-02
 -10.266 -0.152E-02 -0.152E-02
 -10.256 -0.157E-02 -0.157E-02
 -10.246 -0.162E-02 -0.162E-02
 -10.236 -0.167E-02 -0.167E-02
 -10.226 -0.172E-02 -0.172E-02
 -10.216 -0.177E-02 -0.177E-02
 -10.206 -0.183E-02 -0.183E-02
 -10.196 -0.188E-02 -0.188E-02
 -10.186 -0.193E-02 -0.193E-02
 -10.176 -0.198E-02 -0.198E-02
 -10.166 -0.203E-02 -0.203E-02
 -10.156 -0.208E-02 -0.208E-02
 -10.146 -0.213E-02 -0.213E-02
 -10.136 -0.217E-02 -0.217E-02
 -10.126 -0.222E-02 -0.222E-02
 -10.116 -0.226E-02 -0.226E-02
 -10.106 -0.230E-02 -0.230E-02
 -10.096 -0.234E-02 -0.234E-02
 -10.086 -0.238E-02 -0.238E-02
 -10.076 -0.241E-02 -0.241E-02
 -10.066 -0.244E-02 -0.244E-02
 -10.056 -0.247E-02 -0.247E-02
 -10.046 -0.250E-02 -0.250E-02
 -10.036 -0.252E-02 -0.252E-02
 -10.026 -0.253E-02 -0.253E-02
 -10.016 -0.254E-02 -0.254E-02
 -10.006 -0.255E-02 -0.255E-02
  -9.996 -0.256E-02 -0.256E-02
  -9.986 -0.255E-02 -0.255E-02
  -9.976 -0.254E-02 -0.254E-02
  -9.966 -0.253E-02 -0.253E-02
  -9.956 -0.251E-02 -0.251E-02
  -9.946 -0.248E-02 -0.248E-02
  -9.936 -0.245E-02 -0.245E-02
  -9.926 -0.241E-02 -0.241E-02
  -9.916 -0.236E-02 -0.236E-02
  -9.906 -0.230E-02 -0.230E-02
  -9.896 -0.224E-02 -0.224E-02
  -9.886 -0.216E-02 -0.216E-02
  -9.876 -0.208E-02 -0.208E-02
  -9.866 -0.199E-02 -0.199E-02
  -9.856 -0.188E-02 -0.188E-02
  -9.846 -0.177E-02 -0.177E-02
  -9.836 -0.165E-02 -0.165E-02
  -9.826 -0.151E-02 -0.151E-02
  -9.816 -0.136E-02 -0.136E-02
  -9.806 -0.121E-02 -0.121E-02
  -9.796 -0.104E-02 -0.104E-02
  -9.786 -0.855E-03 -0.855E-03
  -9.776 -0.661E-03 -0.661E-03
  -9.766 -0.453E-03 -0.453E-03
  -9.756 -0.232E-03 -0.232E-03
  -9.746  0.229E-05  0.229E-05
  -9.736  0.251E-03  0.251E-03
  -9.726  0.513E-03  0.513E-03
  -9.716  0.789E-03  0.789E-03
  -9.706  0.108E-02  0.108E-02
  -9.696  0.139E-02  0.139E-02
  -9.686  0.171E-02  0.171E-02
  -9.676  0.204E-02  0.204E-02
  -9.666  0.239E-02  0.239E-02
  -9.656  0.276E-02  0.276E-02
  -9.646  0.314E-02  0.314E-02
  -9.636  0.354E-02  0.354E-02
  -9.626  0.396E-02  0.396E-02
  -9.616  0.438E-02  0.438E-02
  -9.606  0.483E-02  0.483E-02
  -9.596  0.529E-02  0.529E-02
  -9.586  0.577E-02  0.577E-02
  -9.576  0.626E-02  0.626E-02
  -9.566  0.677E-02  0.677E-02
  -9.556  0.729E-02  0.729E-02
  -9.546  0.783E-02  0.783E-02
  -9.536  0.838E-02  0.838E-02
  -9.526  0.895E-02  0.895E-02
  -9.516  0.953E-02  0.953E-02
  -9.506  0.101E-01  0.101E-01
  -9.496  0.107E-01  0.107E-01
  -9.486  0.114E-01  0.114E-01
  -9.476  0.120E-01  0.120E-01
  -9.466  0.127E-01  0.127E-01
  -9.456  0.133E-01  0.133E-01
  -9.446  0.140E-01  0.140E-01
  -9.436  0.147E-01  0.147E-01
  -9.426  0.154E-01  0.154E-01
  -9.416  0.161E-01  0.161E-01
  -9.406  0.168E-01  0.168E-01
  -9.396  0.175E-01  0.175E-01
  -9.386  0.183E-01  0.183E-01
  -9.376  0.190E-01  0.190E-01
  -9.366  0.198E-01  0.198E-01
  -9.356  0.205E-01  0.205E-01
  -9.346  0.213E-01  0.213E-01
  -9.336  0.221E-01  0.221E-01
  -9.326  0.229E-01  0.229E-01
  -9.316  0.236E-01  0.236E-01
  -9.306  0.244E-01  0.244E-01
  -9.296  0.252E-01  0.252E-01
  -9.286  0.260E-01  0.260E-01
  -9.276  0.268E-01  0.268E-01
  -9.266  0.276E-01  0.276E-01
  -9.256  0.284E-01  0.284E-01
  -9.246  0.292E-01  0.292E-01
  -9.236  0.300E-01  0.300E-01
  -9.226  0.307E-01  0.307E-01
  -9.216  0.315E-01  0.315E-01
  -9.206  0.323E-01  0.323E-01
  -9.196  0.331E-01  0.331E-01
  -9.186  0.339E-01  0.339E-01
  -9.176  0.346E-01  0.346E-01
  -9.166  0.354E-01  0.354E-01
  -9.156  0.361E-01  0.361E-01
  -9.146  0.369E-01  0.369E-01
  -9.136  0.376E-01  0.376E-01
  -9.126  0.383E-01  0.383E-01
  -9.116  0.390E-01  0.390E-01
  -9.106  0.397E-01  0.397E-01
  -9.096  0.404E-01  0.404E-01
  -9.086  0.411E-01  0.411E-01
  -9.076  0.417E-01  0.417E-01
  -9.066  0.424E-01  0.424E-01
  -9.056  0.430E-01  0.430E-01
  -9.046  0.436E-01  0.436E-01
  -9.036  0.442E-01  0.442E-01
  -9.026  0.448E-01  0.448E-01
  -9.016  0.454E-01  0.454E-01
  -9.006  0.459E-01  0.459E-01
  -8.996  0.465E-01  0.465E-01
  -8.986  0.470E-01  0.470E-01
  -8.976  0.475E-01  0.475E-01
  -8.966  0.480E-01  0.480E-01
  -8.956  0.484E-01  0.484E-01
  -8.946  0.489E-01  0.489E-01
  -8.936  0.493E-01  0.493E-01
  -8.926  0.497E-01  0.497E-01
  -8.916  0.501E-01  0.501E-01
  -8.906  0.504E-01  0.504E-01
  -8.896  0.508E-01  0.508E-01
  -8.886  0.511E-01  0.511E-01
  -8.876  0.514E-01  0.514E-01
  -8.866  0.517E-01  0.517E-01
  -8.856  0.520E-01  0.520E-01
  -8.846  0.522E-01  0.522E-01
  -8.836  0.524E-01  0.524E-01
  -8.826  0.526E-01  0.526E-01
  -8.816  0.528E-01  0.528E-01
  -8.806  0.530E-01  0.530E-01
  -8.796  0.531E-01  0.531E-01
  -8.786  0.532E-01  0.532E-01
  -8.776  0.533E-01  0.533E-01
  -8.766  0.534E-01  0.534E-01
  -8.756  0.535E-01  0.535E-01
  -8.746  0.535E-01  0.535E-01
  -8.736  0.535E-01  0.535E-01
  -8.726  0.535E-01  0.535E-01
  -8.716  0.535E-01  0.535E-01
  -8.706  0.535E-01  0.535E-01
  -8.696  0.534E-01  0.534E-01
  -8.686  0.533E-01  0.533E-01
  -8.676  0.532E-01  0.532E-01
  -8.666  0.531E-01  0.531E-01
  -8.656  0.530E-01  0.530E-01
  -8.646  0.529E-01  0.529E-01
  -8.636  0.527E-01  0.527E-01
  -8.626  0.525E-01  0.525E-01
  -8.616  0.523E-01  0.523E-01
  -8.606  0.521E-01  0.521E-01
  -8.596  0.519E-01  0.519E-01
  -8.586  0.517E-01  0.517E-01
  -8.576  0.514E-01  0.514E-01
  -8.566  0.512E-01  0.512E-01
  -8.556  0.509E-01  0.509E-01
  -8.546  0.506E-01  0.506E-01
  -8.536  0.503E-01  0.503E-01
  -8.526  0.500E-01  0.500E-01
  -8.516  0.497E-01  0.497E-01
  -8.506  0.494E-01  0.494E-01
  -8.496  0.490E-01  0.490E-01
  -8.486  0.487E-01  0.487E-01
  -8.476  0.484E-01  0.484E-01
  -8.466  0.480E-01  0.480E-01
  -8.456  0.477E-01  0.477E-01
  -8.446  0.473E-01  0.473E-01
  -8.436  0.469E-01  0.469E-01
  -8.426  0.466E-01  0.466E-01
  -8.416  0.462E-01  0.462E-01
  -8.406  0.459E-01  0.459E-01
  -8.396  0.455E-01  0.455E-01
  -8.386  0.452E-01  0.452E-01
  -8.376  0.448E-01  0.448E-01
  -8.366  0.445E-01  0.445E-01
  -8.356  0.442E-01  0.442E-01
  -8.346  0.439E-01  0.439E-01
  -8.336  0.436E-01  0.436E-01
  -8.326  0.433E-01  0.433E-01
  -8.316  0.430E-01  0.430E-01
  -8.306  0.427E-01  0.427E-01
  -8.296  0.425E-01  0.425E-01
  -8.286  0.423E-01  0.423E-01
  -8.276  0.421E-01  0.421E-01
  -8.266  0.419E-01  0.419E-01
  -8.256  0.418E-01  0.418E-01
  -8.246  0.417E-01  0.417E-01
  -8.236  0.416E-01  0.416E-01
  -8.226  0.415E-01  0.415E-01
  -8.216  0.415E-01  0.415E-01
  -8.206  0.415E-01  0.415E-01
  -8.196  0.416E-01  0.416E-01
  -8.186  0.417E-01  0.417E-01
  -8.176  0.418E-01  0.418E-01
  -8.166  0.420E-01  0.420E-01
  -8.156  0.423E-01  0.423E-01
  -8.146  0.425E-01  0.425E-01
  -8.136  0.429E-01  0.429E-01
  -8.126  0.433E-01  0.433E-01
  -8.116  0.437E-01  0.437E-01
  -8.106  0.442E-01  0.442E-01
  -8.096  0.447E-01  0.447E-01
  -8.086  0.454E-01  0.454E-01
  -8.076  0.460E-01  0.460E-01
  -8.066  0.468E-01  0.468E-01
  -8.056  0.476E-01  0.476E-01
  -8.046  0.485E-01  0.485E-01
  -8.036  0.494E-01  0.494E-01
  -8.026  0.504E-01  0.504E-01
  -8.016  0.515E-01  0.515E-01
  -8.006  0.527E-01  0.527E-01
  -7.996  0.539E-01  0.539E-01
  -7.986  0.552E-01  0.552E-01
  -7.976  0.566E-01  0.566E-01
  -7.966  0.580E-01  0.580E-01
  -7.956  0.596E-01  0.596E-01
  -7.946  0.612E-01  0.612E-01
  -7.936  0.629E-01  0.629E-01
  -7.926  0.647E-01  0.647E-01
  -7.916  0.665E-01  0.665E-01
  -7.906  0.684E-01  0.684E-01
  -7.896  0.704E-01  0.704E-01
  -7.886  0.725E-01  0.725E-01
  -7.876  0.747E-01  0.747E-01
  -7.866  0.769E-01  0.769E-01
  -7.856  0.792E-01  0.792E-01
  -7.846  0.816E-01  0.816E-01
  -7.836  0.841E-01  0.841E-01
  -7.826  0.866E-01  0.866E-01
  -7.816  0.892E-01  0.892E-01
  -7.806  0.918E-01  0.918E-01
  -7.796  0.945E-01  0.945E-01
  -7.786  0.973E-01  0.973E-01
  -7.776  0.100E+00  0.100E+00
  -7.766  0.103E+00  0.103E+00
  -7.756  0.106E+00  0.106E+00
  -7.746  0.109E+00  0.109E+00
  -7.736  0.112E+00  0.112E+00
  -7.726  0.115E+00  0.115E+00
  -7.716  0.118E+00  0.118E+00
  -7.706  0.121E+00  0.121E+00
  -7.696  0.125E+00  0.125E+00
  -7.686  0.128E+00  0.128E+00
  -7.676  0.131E+00  0.131E+00
  -7.666  0.134E+00  0.134E+00
  -7.656  0.138E+00  0.138E+00
  -7.646  0.141E+00  0.141E+00
  -7.636  0.144E+00  0.144E+00
  -7.626  0.148E+00  0.148E+00
  -7.616  0.151E+00  0.151E+00
  -7.606  0.154E+00  0.154E+00
  -7.596  0.158E+00  0.158E+00
  -7.586  0.161E+00  0.161E+00
  -7.576  0.164E+00  0.164E+00
  -7.566  0.167E+00  0.167E+00
  -7.556  0.171E+00  0.171E+00
  -7.546  0.174E+00  0.174E+00
  -7.536  0.177E+00  0.177E+00
  -7.526  0.180E+00  0.180E+00
  -7.516  0.183E+00  0.183E+00
  -7.506  0.186E+00  0.186E+00
  -7.496  0.189E+00  0.189E+00
  -7.486  0.191E+00  0.191E+00
  -7.476  0.194E+00  0.194E+00
  -7.466  0.197E+00  0.197E+00
  -7.456  0.199E+00  0.199E+00
  -7.446  0.202E+00  0.202E+00
  -7.436  0.204E+00  0.204E+00
  -7.426  0.206E+00  0.206E+00
  -7.416  0.209E+00  0.209E+00
  -7.406  0.211E+00  0.211E+00
  -7.396  0.213E+00  0.213E+00
  -7.386  0.214E+00  0.214E+00
  -7.376  0.216E+00  0.216E+00
  -7.366  0.218E+00  0.218E+00
  -7.356  0.219E+00  0.219E+00
  -7.346  0.221E+00  0.221E+00
  -7.336  0.222E+00  0.222E+00
  -7.326  0.223E+00  0.223E+00
  -7.316  0.224E+00  0.224E+00
  -7.306  0.225E+00  0.225E+00
  -7.296  0.225E+00  0.225E+00
  -7.286  0.226E+00  0.226E+00
  -7.276  0.226E+00  0.226E+00
  -7.266  0.226E+00  0.226E+00
  -7.256  0.226E+00  0.226E+00
  -7.246  0.226E+00  0.226E+00
  -7.236  0.226E+00  0.226E+00
  -7.226  0.226E+00  0.226E+00
  -7.216  0.225E+00  0.225E+00
  -7.206  0.225E+00  0.225E+00
  -7.196  0.224E+00  0.224E+00
  -7.186  0.223E+00  0.223E+00
  -7.176  0.222E+00  0.222E+00
  -7.166  0.220E+00  0.220E+00
  -7.156  0.219E+00  0.219E+00
  -7.146  0.217E+00  0.217E+00
  -7.136  0.216E+00  0.216E+00
  -7.126  0.214E+00  0.214E+00
  -7.116  0.212E+00  0.212E+00
  -7.106  0.210E+00  0.210E+00
  -7.096  0.208E+00  0.208E+00
  -7.086  0.205E+00  0.205E+00
  -7.076  0.203E+00  0.203E+00
  -7.066  0.200E+00  0.200E+00
  -7.056  0.197E+00  0.197E+00
  -7.046  0.195E+00  0.195E+00
  -7.036  0.192E+00  0.192E+00
  -7.026  0.189E+00  0.189E+00
  -7.016  0.185E+00  0.185E+00
  -7.006  0.182E+00  0.182E+00
  -6.996  0.179E+00  0.179E+00
  -6.986  0.175E+00  0.175E+00
  -6.976  0.172E+00  0.172E+00
  -6.966  0.168E+00  0.168E+00
  -6.956  0.165E+00  0.165E+00
  -6.946  0.161E+00  0.161E+00
  -6.936  0.157E+00  0.157E+00
  -6.926  0.153E+00  0.153E+00
  -6.916  0.149E+00  0.149E+00
  -6.906  0.146E+00  0.146E+00
  -6.896  0.142E+00  0.142E+00
  -6.886  0.138E+00  0.138E+00
  -6.876  0.133E+00  0.133E+00
  -6.866  0.129E+00  0.129E+00
  -6.856  0.125E+00  0.125E+00
  -6.846  0.121E+00  0.121E+00
  -6.836  0.117E+00  0.117E+00
  -6.826  0.113E+00  0.113E+00
  -6.816  0.109E+00  0.109E+00
  -6.806  0.105E+00  0.105E+00
  -6.796  0.101E+00  0.101E+00
  -6.786  0.966E-01  0.966E-01
  -6.776  0.925E-01  0.925E-01
  -6.766  0.885E-01  0.885E-01
  -6.756  0.845E-01  0.845E-01
  -6.746  0.805E-01  0.805E-01
  -6.736  0.766E-01  0.766E-01
  -6.726  0.727E-01  0.727E-01
  -6.716  0.689E-01  0.689E-01
  -6.706  0.652E-01  0.652E-01
  -6.696  0.615E-01  0.615E-01
  -6.686  0.578E-01  0.578E-01
  -6.676  0.542E-01  0.542E-01
  -6.666  0.507E-01  0.507E-01
  -6.656  0.473E-01  0.473E-01
  -6.646  0.440E-01  0.440E-01
  -6.636  0.407E-01  0.407E-01
  -6.626  0.376E-01  0.376E-01
  -6.616  0.345E-01  0.345E-01
  -6.606  0.315E-01  0.315E-01
  -6.596  0.286E-01  0.286E-01
  -6.586  0.259E-01  0.259E-01
  -6.576  0.232E-01  0.232E-01
  -6.566  0.206E-01  0.206E-01
  -6.556  0.182E-01  0.182E-01
  -6.546  0.158E-01  0.158E-01
  -6.536  0.136E-01  0.136E-01
  -6.526  0.115E-01  0.115E-01
  -6.516  0.957E-02  0.957E-02
  -6.506  0.773E-02  0.773E-02
  -6.496  0.602E-02  0.602E-02
  -6.486  0.443E-02  0.443E-02
  -6.476  0.298E-02  0.298E-02
  -6.466  0.167E-02  0.167E-02
  -6.456  0.494E-03  0.494E-03
  -6.446 -0.543E-03 -0.543E-03
  -6.436 -0.144E-02 -0.144E-02
  -6.426 -0.219E-02 -0.219E-02
  -6.416 -0.280E-02 -0.280E-02
  -6.406 -0.326E-02 -0.326E-02
  -6.396 -0.358E-02 -0.358E-02
  -6.386 -0.375E-02 -0.375E-02
  -6.376 -0.376E-02 -0.376E-02
  -6.366 -0.363E-02 -0.363E-02
  -6.356 -0.334E-02 -0.334E-02
  -6.346 -0.290E-02 -0.290E-02
  -6.336 -0.231E-02 -0.231E-02
  -6.326 -0.156E-02 -0.156E-02
  -6.316 -0.660E-03 -0.660E-03
  -6.306  0.397E-03  0.397E-03
  -6.296  0.161E-02  0.161E-02
  -6.286  0.298E-02  0.298E-02
  -6.276  0.450E-02  0.450E-02
  -6.266  0.618E-02  0.618E-02
  -6.256  0.801E-02  0.801E-02
  -6.246  0.100E-01  0.100E-01
  -6.236  0.121E-01  0.121E-01
  -6.226  0.144E-01  0.144E-01
  -6.216  0.169E-01  0.169E-01
  -6.206  0.195E-01  0.195E-01
  -6.196  0.222E-01  0.222E-01
  -6.186  0.251E-01  0.251E-01
  -6.176  0.282E-01  0.282E-01
  -6.166  0.314E-01  0.314E-01
  -6.156  0.347E-01  0.347E-01
  -6.146  0.382E-01  0.382E-01
  -6.136  0.418E-01  0.418E-01
  -6.126  0.455E-01  0.455E-01
  -6.116  0.494E-01  0.494E-01
  -6.106  0.534E-01  0.534E-01
  -6.096  0.575E-01  0.575E-01
  -6.086  0.618E-01  0.618E-01
  -6.076  0.662E-01  0.662E-01
  -6.066  0.707E-01  0.707E-01
  -6.056  0.753E-01  0.753E-01
  -6.046  0.800E-01  0.800E-01
  -6.036  0.848E-01  0.848E-01
  -6.026  0.897E-01  0.897E-01
  -6.016  0.947E-01  0.947E-01
  -6.006  0.998E-01  0.998E-01
  -5.996  0.105E+00  0.105E+00
  -5.986  0.110E+00  0.110E+00
  -5.976  0.116E+00  0.116E+00
  -5.966  0.121E+00  0.121E+00
  -5.956  0.127E+00  0.127E+00
  -5.946  0.132E+00  0.132E+00
  -5.936  0.138E+00  0.138E+00
  -5.926  0.143E+00  0.143E+00
  -5.916  0.149E+00  0.149E+00
  -5.906  0.155E+00  0.155E+00
  -5.896  0.160E+00  0.160E+00
  -5.886  0.166E+00  0.166E+00
  -5.876  0.172E+00  0.172E+00
  -5.866  0.177E+00  0.177E+00
  -5.856  0.183E+00  0.183E+00
  -5.846  0.189E+00  0.189E+00
  -5.836  0.194E+00  0.194E+00
  -5.826  0.200E+00  0.200E+00
  -5.816  0.206E+00  0.206E+00
  -5.806  0.211E+00  0.211E+00
  -5.796  0.217E+00  0.217E+00
  -5.786  0.222E+00  0.222E+00
  -5.776  0.228E+00  0.228E+00
  -5.766  0.233E+00  0.233E+00
  -5.756  0.238E+00  0.238E+00
  -5.746  0.243E+00  0.243E+00
  -5.736  0.248E+00  0.248E+00
  -5.726  0.253E+00  0.253E+00
  -5.716  0.258E+00  0.258E+00
  -5.706  0.263E+00  0.263E+00
  -5.696  0.267E+00  0.267E+00
  -5.686  0.272E+00  0.272E+00
  -5.676  0.276E+00  0.276E+00
  -5.666  0.280E+00  0.280E+00
  -5.656  0.284E+00  0.284E+00
  -5.646  0.288E+00  0.288E+00
  -5.636  0.291E+00  0.291E+00
  -5.626  0.295E+00  0.295E+00
  -5.616  0.298E+00  0.298E+00
  -5.606  0.301E+00  0.301E+00
  -5.596  0.304E+00  0.304E+00
  -5.586  0.307E+00  0.307E+00
  -5.576  0.309E+00  0.309E+00
  -5.566  0.312E+00  0.312E+00
  -5.556  0.314E+00  0.314E+00
  -5.546  0.316E+00  0.316E+00
  -5.536  0.317E+00  0.317E+00
  -5.526  0.319E+00  0.319E+00
  -5.516  0.320E+00  0.320E+00
  -5.506  0.321E+00  0.321E+00
  -5.496  0.322E+00  0.322E+00
  -5.486  0.323E+00  0.323E+00
  -5.476  0.323E+00  0.323E+00
  -5.466  0.323E+00  0.323E+00
  -5.456  0.323E+00  0.323E+00
  -5.446  0.323E+00  0.323E+00
  -5.436  0.322E+00  0.322E+00
  -5.426  0.322E+00  0.322E+00
  -5.416  0.321E+00  0.321E+00
  -5.406  0.320E+00  0.320E+00
  -5.396  0.318E+00  0.318E+00
  -5.386  0.317E+00  0.317E+00
  -5.376  0.315E+00  0.315E+00
  -5.366  0.313E+00  0.313E+00
  -5.356  0.311E+00  0.311E+00
  -5.346  0.308E+00  0.308E+00
  -5.336  0.306E+00  0.306E+00
  -5.326  0.303E+00  0.303E+00
  -5.316  0.300E+00  0.300E+00
  -5.306  0.297E+00  0.297E+00
  -5.296  0.294E+00  0.294E+00
  -5.286  0.290E+00  0.290E+00
  -5.276  0.287E+00  0.287E+00
  -5.266  0.283E+00  0.283E+00
  -5.256  0.279E+00  0.279E+00
  -5.246  0.275E+00  0.275E+00
  -5.236  0.271E+00  0.271E+00
  -5.226  0.267E+00  0.267E+00
  -5.216  0.262E+00  0.262E+00
  -5.206  0.258E+00  0.258E+00
  -5.196  0.253E+00  0.253E+00
  -5.186  0.249E+00  0.249E+00
  -5.176  0.244E+00  0.244E+00
  -5.166  0.239E+00  0.239E+00
  -5.156  0.234E+00  0.234E+00
  -5.146  0.229E+00  0.229E+00
  -5.136  0.224E+00  0.224E+00
  -5.126  0.219E+00  0.219E+00
  -5.116  0.214E+00  0.214E+00
  -5.106  0.208E+00  0.208E+00
  -5.096  0.203E+00  0.203E+00
  -5.086  0.198E+00  0.198E+00
  -5.076  0.193E+00  0.193E+00
  -5.066  0.188E+00  0.188E+00
  -5.056  0.182E+00  0.182E+00
  -5.046  0.177E+00  0.177E+00
  -5.036  0.172E+00  0.172E+00
  -5.026  0.167E+00  0.167E+00
  -5.016  0.162E+00  0.162E+00
  -5.006  0.156E+00  0.156E+00
  -4.996  0.151E+00  0.151E+00
  -4.986  0.146E+00  0.146E+00
  -4.976  0.141E+00  0.141E+00
  -4.966  0.137E+00  0.137E+00
  -4.956  0.132E+00  0.132E+00
  -4.946  0.127E+00  0.127E+00
  -4.936  0.122E+00  0.122E+00
  -4.926  0.118E+00  0.118E+00
  -4.916  0.113E+00  0.113E+00
  -4.906  0.109E+00  0.109E+00
  -4.896  0.105E+00  0.105E+00
  -4.886  0.100E+00  0.100E+00
  -4.876  0.962E-01  0.962E-01
  -4.866  0.922E-01  0.922E-01
  -4.856  0.883E-01  0.883E-01
  -4.846  0.845E-01  0.845E-01
  -4.836  0.808E-01  0.808E-01
  -4.826  0.772E-01  0.772E-01
  -4.816  0.738E-01  0.738E-01
  -4.806  0.704E-01  0.704E-01
  -4.796  0.672E-01  0.672E-01
  -4.786  0.641E-01  0.641E-01
  -4.776  0.611E-01  0.611E-01
  -4.766  0.582E-01  0.582E-01
  -4.756  0.555E-01  0.555E-01
  -4.746  0.528E-01  0.528E-01
  -4.736  0.503E-01  0.503E-01
  -4.726  0.479E-01  0.479E-01
  -4.716  0.457E-01  0.457E-01
  -4.706  0.435E-01  0.435E-01
  -4.696  0.414E-01  0.414E-01
  -4.686  0.395E-01  0.395E-01
  -4.676  0.377E-01  0.377E-01
  -4.666  0.360E-01  0.360E-01
  -4.656  0.344E-01  0.344E-01
  -4.646  0.329E-01  0.329E-01
  -4.636  0.315E-01  0.315E-01
  -4.626  0.303E-01  0.303E-01
  -4.616  0.291E-01  0.291E-01
  -4.606  0.280E-01  0.280E-01
  -4.596  0.271E-01  0.271E-01
  -4.586  0.262E-01  0.262E-01
  -4.576  0.254E-01  0.254E-01
  -4.566  0.247E-01  0.247E-01
  -4.556  0.241E-01  0.241E-01
  -4.546  0.236E-01  0.236E-01
  -4.536  0.231E-01  0.231E-01
  -4.526  0.228E-01  0.228E-01
  -4.516  0.225E-01  0.225E-01
  -4.506  0.223E-01  0.223E-01
  -4.496  0.222E-01  0.222E-01
  -4.486  0.221E-01  0.221E-01
  -4.476  0.221E-01  0.221E-01
  -4.466  0.222E-01  0.222E-01
  -4.456  0.223E-01  0.223E-01
  -4.446  0.225E-01  0.225E-01
  -4.436  0.227E-01  0.227E-01
  -4.426  0.230E-01  0.230E-01
  -4.416  0.234E-01  0.234E-01
  -4.406  0.238E-01  0.238E-01
  -4.396  0.242E-01  0.242E-01
  -4.386  0.247E-01  0.247E-01
  -4.376  0.253E-01  0.253E-01
  -4.366  0.258E-01  0.258E-01
  -4.356  0.265E-01  0.265E-01
  -4.346  0.271E-01  0.271E-01
  -4.336  0.278E-01  0.278E-01
  -4.326  0.285E-01  0.285E-01
  -4.316  0.292E-01  0.292E-01
  -4.306  0.300E-01  0.300E-01
  -4.296  0.308E-01  0.308E-01
  -4.286  0.317E-01  0.317E-01
  -4.276  0.325E-01  0.325E-01
  -4.266  0.334E-01  0.334E-01
  -4.256  0.343E-01  0.343E-01
  -4.246  0.352E-01  0.352E-01
  -4.236  0.361E-01  0.361E-01
  -4.226  0.371E-01  0.371E-01
  -4.216  0.381E-01  0.381E-01
  -4.206  0.391E-01  0.391E-01
  -4.196  0.401E-01  0.401E-01
  -4.186  0.411E-01  0.411E-01
  -4.176  0.421E-01  0.421E-01
  -4.166  0.432E-01  0.432E-01
  -4.156  0.442E-01  0.442E-01
  -4.146  0.453E-01  0.453E-01
  -4.136  0.464E-01  0.464E-01
  -4.126  0.475E-01  0.475E-01
  -4.116  0.486E-01  0.486E-01
  -4.106  0.497E-01  0.497E-01
  -4.096  0.508E-01  0.508E-01
  -4.086  0.519E-01  0.519E-01
  -4.076  0.531E-01  0.531E-01
  -4.066  0.542E-01  0.542E-01
  -4.056  0.553E-01  0.553E-01
  -4.046  0.565E-01  0.565E-01
  -4.036  0.576E-01  0.576E-01
  -4.026  0.588E-01  0.588E-01
  -4.016  0.600E-01  0.600E-01
  -4.006  0.612E-01  0.612E-01
  -3.996  0.623E-01  0.623E-01
  -3.986  0.635E-01  0.635E-01
  -3.976  0.647E-01  0.647E-01
  -3.966  0.659E-01  0.659E-01
  -3.956  0.671E-01  0.671E-01
  -3.946  0.683E-01  0.683E-01
  -3.936  0.695E-01  0.695E-01
  -3.926  0.707E-01  0.707E-01
  -3.916  0.719E-01  0.719E-01
  -3.906  0.731E-01  0.731E-01
  -3.896  0.743E-01  0.743E-01
  -3.886  0.754E-01  0.754E-01
  -3.876  0.766E-01  0.766E-01
  -3.866  0.778E-01  0.778E-01
  -3.856  0.790E-01  0.790E-01
  -3.846  0.802E-01  0.802E-01
  -3.836  0.814E-01  0.814E-01
  -3.826  0.826E-01  0.826E-01
  -3.816  0.837E-01  0.837E-01
  -3.806  0.849E-01  0.849E-01
  -3.796  0.861E-01  0.861E-01
  -3.786  0.872E-01  0.872E-01
  -3.776  0.883E-01  0.883E-01
  -3.766  0.895E-01  0.895E-01
  -3.756  0.906E-01  0.906E-01
  -3.746  0.917E-01  0.917E-01
  -3.736  0.928E-01  0.928E-01
  -3.726  0.939E-01  0.939E-01
  -3.716  0.950E-01  0.950E-01
  -3.706  0.960E-01  0.960E-01
  -3.696  0.970E-01  0.970E-01
  -3.686  0.981E-01  0.981E-01
  -3.676  0.991E-01  0.991E-01
  -3.666  0.100E+00  0.100E+00
  -3.656  0.101E+00  0.101E+00
  -3.646  0.102E+00  0.102E+00
  -3.636  0.103E+00  0.103E+00
  -3.626  0.104E+00  0.104E+00
  -3.616  0.105E+00  0.105E+00
  -3.606  0.105E+00  0.105E+00
  -3.596  0.106E+00  0.106E+00
  -3.586  0.107E+00  0.107E+00
  -3.576  0.108E+00  0.108E+00
  -3.566  0.109E+00  0.109E+00
  -3.556  0.109E+00  0.109E+00
  -3.546  0.110E+00  0.110E+00
  -3.536  0.111E+00  0.111E+00
  -3.526  0.111E+00  0.111E+00
  -3.516  0.112E+00  0.112E+00
  -3.506  0.112E+00  0.112E+00
  -3.496  0.113E+00  0.113E+00
  -3.486  0.113E+00  0.113E+00
  -3.476  0.114E+00  0.114E+00
  -3.466  0.114E+00  0.114E+00
  -3.456  0.114E+00  0.114E+00
  -3.446  0.115E+00  0.115E+00
  -3.436  0.115E+00  0.115E+00
  -3.426  0.115E+00  0.115E+00
  -3.416  0.115E+00  0.115E+00
  -3.406  0.115E+00  0.115E+00
  -3.396  0.116E+00  0.116E+00
  -3.386  0.116E+00  0.116E+00
  -3.376  0.116E+00  0.116E+00
  -3.366  0.116E+00  0.116E+00
  -3.356  0.116E+00  0.116E+00
  -3.346  0.115E+00  0.115E+00
  -3.336  0.115E+00  0.115E+00
  -3.326  0.115E+00  0.115E+00
  -3.316  0.115E+00  0.115E+00
  -3.306  0.115E+00  0.115E+00
  -3.296  0.114E+00  0.114E+00
  -3.286  0.114E+00  0.114E+00
  -3.276  0.114E+00  0.114E+00
  -3.266  0.113E+00  0.113E+00
  -3.256  0.113E+00  0.113E+00
  -3.246  0.112E+00  0.112E+00
  -3.236  0.112E+00  0.112E+00
  -3.226  0.111E+00  0.111E+00
  -3.216  0.111E+00  0.111E+00
  -3.206  0.110E+00  0.110E+00
  -3.196  0.110E+00  0.110E+00
  -3.186  0.109E+00  0.109E+00
  -3.176  0.108E+00  0.108E+00
  -3.166  0.108E+00  0.108E+00
  -3.156  0.107E+00  0.107E+00
  -3.146  0.106E+00  0.106E+00
  -3.136  0.105E+00  0.105E+00
  -3.126  0.105E+00  0.105E+00
  -3.116  0.104E+00  0.104E+00
  -3.106  0.103E+00  0.103E+00
  -3.096  0.102E+00  0.102E+00
  -3.086  0.101E+00  0.101E+00
  -3.076  0.101E+00  0.101E+00
  -3.066  0.997E-01  0.997E-01
  -3.056  0.989E-01  0.989E-01
  -3.046  0.981E-01  0.981E-01
  -3.036  0.973E-01  0.973E-01
  -3.026  0.964E-01  0.964E-01
  -3.016  0.956E-01  0.956E-01
  -3.006  0.949E-01  0.949E-01
  -2.996  0.941E-01  0.941E-01
  -2.986  0.933E-01  0.933E-01
  -2.976  0.926E-01  0.926E-01
  -2.966  0.919E-01  0.919E-01
  -2.956  0.912E-01  0.912E-01
  -2.946  0.906E-01  0.906E-01
  -2.936  0.900E-01  0.900E-01
  -2.926  0.894E-01  0.894E-01
  -2.916  0.889E-01  0.889E-01
  -2.906  0.884E-01  0.884E-01
  -2.896  0.879E-01  0.879E-01
  -2.886  0.875E-01  0.875E-01
  -2.876  0.872E-01  0.872E-01
  -2.866  0.868E-01  0.868E-01
  -2.856  0.866E-01  0.866E-01
  -2.846  0.864E-01  0.864E-01
  -2.836  0.863E-01  0.863E-01
  -2.826  0.862E-01  0.862E-01
  -2.816  0.862E-01  0.862E-01
  -2.806  0.863E-01  0.863E-01
  -2.796  0.864E-01  0.864E-01
  -2.786  0.866E-01  0.866E-01
  -2.776  0.869E-01  0.869E-01
  -2.766  0.873E-01  0.873E-01
  -2.756  0.877E-01  0.877E-01
  -2.746  0.882E-01  0.882E-01
  -2.736  0.888E-01  0.888E-01
  -2.726  0.895E-01  0.895E-01
  -2.716  0.903E-01  0.903E-01
  -2.706  0.911E-01  0.911E-01
  -2.696  0.921E-01  0.921E-01
  -2.686  0.931E-01  0.931E-01
  -2.676  0.942E-01  0.942E-01
  -2.666  0.954E-01  0.954E-01
  -2.656  0.967E-01  0.967E-01
  -2.646  0.981E-01  0.981E-01
  -2.636  0.996E-01  0.996E-01
  -2.626  0.101E+00  0.101E+00
  -2.616  0.103E+00  0.103E+00
  -2.606  0.105E+00  0.105E+00
  -2.596  0.106E+00  0.106E+00
  -2.586  0.108E+00  0.108E+00
  -2.576  0.110E+00  0.110E+00
  -2.566  0.112E+00  0.112E+00
  -2.556  0.114E+00  0.114E+00
  -2.546  0.117E+00  0.117E+00
  -2.536  0.119E+00  0.119E+00
  -2.526  0.121E+00  0.121E+00
  -2.516  0.124E+00  0.124E+00
  -2.506  0.126E+00  0.126E+00
  -2.496  0.129E+00  0.129E+00
  -2.486  0.132E+00  0.132E+00
  -2.476  0.135E+00  0.135E+00
  -2.466  0.137E+00  0.137E+00
  -2.456  0.140E+00  0.140E+00
  -2.446  0.143E+00  0.143E+00
  -2.436  0.146E+00  0.146E+00
  -2.426  0.149E+00  0.149E+00
  -2.416  0.152E+00  0.152E+00
  -2.406  0.155E+00  0.155E+00
  -2.396  0.158E+00  0.158E+00
  -2.386  0.161E+00  0.161E+00
  -2.376  0.165E+00  0.165E+00
  -2.366  0.168E+00  0.168E+00
  -2.356  0.171E+00  0.171E+00
  -2.346  0.174E+00  0.174E+00
  -2.336  0.177E+00  0.177E+00
  -2.326  0.180E+00  0.180E+00
  -2.316  0.184E+00  0.184E+00
  -2.306  0.187E+00  0.187E+00
  -2.296  0.190E+00  0.190E+00
  -2.286  0.193E+00  0.193E+00
  -2.276  0.196E+00  0.196E+00
  -2.266  0.199E+00  0.199E+00
  -2.256  0.202E+00  0.202E+00
  -2.246  0.205E+00  0.205E+00
  -2.236  0.208E+00  0.208E+00
  -2.226  0.211E+00  0.211E+00
  -2.216  0.213E+00  0.213E+00
  -2.206  0.216E+00  0.216E+00
  -2.196  0.219E+00  0.219E+00
  -2.186  0.221E+00  0.221E+00
  -2.176  0.224E+00  0.224E+00
  -2.166  0.226E+00  0.226E+00
  -2.156  0.228E+00  0.228E+00
  -2.146  0.230E+00  0.230E+00
  -2.136  0.232E+00  0.232E+00
  -2.126  0.234E+00  0.234E+00
  -2.116  0.236E+00  0.236E+00
  -2.106  0.238E+00  0.238E+00
  -2.096  0.239E+00  0.239E+00
  -2.086  0.241E+00  0.241E+00
  -2.076  0.242E+00  0.242E+00
  -2.066  0.243E+00  0.243E+00
  -2.056  0.244E+00  0.244E+00
  -2.046  0.245E+00  0.245E+00
  -2.036  0.246E+00  0.246E+00
  -2.026  0.247E+00  0.247E+00
  -2.016  0.247E+00  0.247E+00
  -2.006  0.247E+00  0.247E+00
  -1.996  0.248E+00  0.248E+00
  -1.986  0.248E+00  0.248E+00
  -1.976  0.248E+00  0.248E+00
  -1.966  0.247E+00  0.247E+00
  -1.956  0.247E+00  0.247E+00
  -1.946  0.246E+00  0.246E+00
  -1.936  0.246E+00  0.246E+00
  -1.926  0.245E+00  0.245E+00
  -1.916  0.244E+00  0.244E+00
  -1.906  0.242E+00  0.242E+00
  -1.896  0.241E+00  0.241E+00
  -1.886  0.240E+00  0.240E+00
  -1.876  0.238E+00  0.238E+00
  -1.866  0.236E+00  0.236E+00
  -1.856  0.234E+00  0.234E+00
  -1.846  0.232E+00  0.232E+00
  -1.836  0.230E+00  0.230E+00
  -1.826  0.228E+00  0.228E+00
  -1.816  0.226E+00  0.226E+00
  -1.806  0.223E+00  0.223E+00
  -1.796  0.220E+00  0.220E+00
  -1.786  0.218E+00  0.218E+00
  -1.776  0.215E+00  0.215E+00
  -1.766  0.212E+00  0.212E+00
  -1.756  0.208E+00  0.208E+00
  -1.746  0.205E+00  0.205E+00
  -1.736  0.202E+00  0.202E+00
  -1.726  0.199E+00  0.199E+00
  -1.716  0.195E+00  0.195E+00
  -1.706  0.192E+00  0.192E+00
  -1.696  0.188E+00  0.188E+00
  -1.686  0.184E+00  0.184E+00
  -1.676  0.180E+00  0.180E+00
  -1.666  0.177E+00  0.177E+00
  -1.656  0.173E+00  0.173E+00
  -1.646  0.169E+00  0.169E+00
  -1.636  0.165E+00  0.165E+00
  -1.626  0.161E+00  0.161E+00
  -1.616  0.157E+00  0.157E+00
  -1.606  0.153E+00  0.153E+00
  -1.596  0.149E+00  0.149E+00
  -1.586  0.144E+00  0.144E+00
  -1.576  0.140E+00  0.140E+00
  -1.566  0.136E+00  0.136E+00
  -1.556  0.132E+00  0.132E+00
  -1.546  0.128E+00  0.128E+00
  -1.536  0.124E+00  0.124E+00
  -1.526  0.120E+00  0.120E+00
  -1.516  0.116E+00  0.116E+00
  -1.506  0.111E+00  0.111E+00
  -1.496  0.107E+00  0.107E+00
  -1.486  0.103E+00  0.103E+00
  -1.476  0.994E-01  0.994E-01
  -1.466  0.954E-01  0.954E-01
  -1.456  0.915E-01  0.915E-01
  -1.446  0.876E-01  0.876E-01
  -1.436  0.838E-01  0.838E-01
  -1.426  0.801E-01  0.801E-01
  -1.416  0.764E-01  0.764E-01
  -1.406  0.727E-01  0.727E-01
  -1.396  0.691E-01  0.691E-01
  -1.386  0.656E-01  0.656E-01
  -1.376  0.621E-01  0.621E-01
  -1.366  0.587E-01  0.587E-01
  -1.356  0.554E-01  0.554E-01
  -1.346  0.522E-01  0.522E-01
  -1.336  0.490E-01  0.490E-01
  -1.326  0.459E-01  0.459E-01
  -1.316  0.429E-01  0.429E-01
  -1.306  0.400E-01  0.400E-01
  -1.296  0.371E-01  0.371E-01
  -1.286  0.343E-01  0.343E-01
  -1.276  0.316E-01  0.316E-01
  -1.266  0.290E-01  0.290E-01
  -1.256  0.265E-01  0.265E-01
  -1.246  0.240E-01  0.240E-01
  -1.236  0.217E-01  0.217E-01
  -1.226  0.194E-01  0.194E-01
  -1.216  0.172E-01  0.172E-01
  -1.206  0.151E-01  0.151E-01
  -1.196  0.131E-01  0.131E-01
  -1.186  0.111E-01  0.111E-01
  -1.176  0.926E-02  0.926E-02
  -1.166  0.749E-02  0.749E-02
  -1.156  0.580E-02  0.580E-02
  -1.146  0.419E-02  0.419E-02
  -1.136  0.267E-02  0.267E-02
  -1.126  0.122E-02  0.122E-02
  -1.116 -0.138E-03 -0.138E-03
  -1.106 -0.142E-02 -0.142E-02
  -1.096 -0.262E-02 -0.262E-02
  -1.086 -0.375E-02 -0.375E-02
  -1.076 -0.480E-02 -0.480E-02
  -1.066 -0.577E-02 -0.577E-02
  -1.056 -0.666E-02 -0.666E-02
  -1.046 -0.748E-02 -0.748E-02
  -1.036 -0.822E-02 -0.822E-02
  -1.026 -0.889E-02 -0.889E-02
  -1.016 -0.949E-02 -0.949E-02
  -1.006 -0.100E-01 -0.100E-01
  -0.996 -0.105E-01 -0.105E-01
  -0.986 -0.109E-01 -0.109E-01
  -0.976 -0.112E-01 -0.112E-01
  -0.966 -0.114E-01 -0.114E-01
  -0.956 -0.116E-01 -0.116E-01
  -0.946 -0.117E-01 -0.117E-01
  -0.936 -0.118E-01 -0.118E-01
  -0.926 -0.117E-01 -0.117E-01
  -0.916 -0.117E-01 -0.117E-01
  -0.906 -0.115E-01 -0.115E-01
  -0.896 -0.113E-01 -0.113E-01
  -0.886 -0.110E-01 -0.110E-01
  -0.876 -0.107E-01 -0.107E-01
  -0.866 -0.103E-01 -0.103E-01
  -0.856 -0.982E-02 -0.982E-02
  -0.846 -0.929E-02 -0.929E-02
  -0.836 -0.870E-02 -0.870E-02
  -0.826 -0.805E-02 -0.805E-02
  -0.816 -0.735E-02 -0.735E-02
  -0.806 -0.658E-02 -0.658E-02
  -0.796 -0.575E-02 -0.575E-02
  -0.786 -0.486E-02 -0.486E-02
  -0.776 -0.391E-02 -0.391E-02
  -0.766 -0.290E-02 -0.290E-02
  -0.756 -0.183E-02 -0.183E-02
  -0.746 -0.697E-03 -0.697E-03
  -0.736  0.492E-03  0.492E-03
  -0.726  0.174E-02  0.174E-02
  -0.716  0.305E-02  0.305E-02
  -0.706  0.441E-02  0.441E-02
  -0.696  0.584E-02  0.584E-02
  -0.686  0.732E-02  0.732E-02
  -0.676  0.886E-02  0.886E-02
  -0.666  0.105E-01  0.105E-01
  -0.656  0.121E-01  0.121E-01
  -0.646  0.138E-01  0.138E-01
  -0.636  0.156E-01  0.156E-01
  -0.626  0.174E-01  0.174E-01
  -0.616  0.193E-01  0.193E-01
  -0.606  0.213E-01  0.213E-01
  -0.596  0.233E-01  0.233E-01
  -0.586  0.253E-01  0.253E-01
  -0.576  0.275E-01  0.275E-01
  -0.566  0.296E-01  0.296E-01
  -0.556  0.318E-01  0.318E-01
  -0.546  0.341E-01  0.341E-01
  -0.536  0.364E-01  0.364E-01
  -0.526  0.388E-01  0.388E-01
  -0.516  0.412E-01  0.412E-01
  -0.506  0.437E-01  0.437E-01
  -0.496  0.463E-01  0.463E-01
  -0.486  0.488E-01  0.488E-01
  -0.476  0.514E-01  0.514E-01
  -0.466  0.541E-01  0.541E-01
  -0.456  0.568E-01  0.568E-01
  -0.446  0.595E-01  0.595E-01
  -0.436  0.623E-01  0.623E-01
  -0.426  0.652E-01  0.652E-01
  -0.416  0.680E-01  0.680E-01
  -0.406  0.709E-01  0.709E-01
  -0.396  0.738E-01  0.738E-01
  -0.386  0.768E-01  0.768E-01
  -0.376  0.797E-01  0.797E-01
  -0.366  0.827E-01  0.827E-01
  -0.356  0.858E-01  0.858E-01
  -0.346  0.888E-01  0.888E-01
  -0.336  0.919E-01  0.919E-01
  -0.326  0.949E-01  0.949E-01
  -0.316  0.980E-01  0.980E-01
  -0.306  0.101E+00  0.101E+00
  -0.296  0.104E+00  0.104E+00
  -0.286  0.107E+00  0.107E+00
  -0.276  0.110E+00  0.110E+00
  -0.266  0.113E+00  0.113E+00
  -0.256  0.117E+00  0.117E+00
  -0.246  0.120E+00  0.120E+00
  -0.236  0.123E+00  0.123E+00
  -0.226  0.126E+00  0.126E+00
  -0.216  0.129E+00  0.129E+00
  -0.206  0.132E+00  0.132E+00
  -0.196  0.135E+00  0.135E+00
  -0.186  0.138E+00  0.138E+00
  -0.176  0.140E+00  0.140E+00
  -0.166  0.143E+00  0.143E+00
  -0.156  0.146E+00  0.146E+00
  -0.146  0.149E+00  0.149E+00
  -0.136  0.152E+00  0.152E+00
  -0.126  0.154E+00  0.154E+00
  -0.116  0.157E+00  0.157E+00
  -0.106  0.159E+00  0.159E+00
  -0.096  0.162E+00  0.162E+00
  -0.086  0.164E+00  0.164E+00
  -0.076  0.167E+00  0.167E+00
  -0.066  0.169E+00  0.169E+00
  -0.056  0.171E+00  0.171E+00
  -0.046  0.173E+00  0.173E+00
  -0.036  0.175E+00  0.175E+00
  -0.026  0.177E+00  0.177E+00
  -0.016  0.179E+00  0.179E+00
  -0.006  0.181E+00  0.181E+00
   0.004  0.182E+00  0.182E+00
   0.014  0.184E+00  0.184E+00
   0.024  0.185E+00  0.185E+00
   0.034  0.187E+00  0.187E+00
   0.044  0.188E+00  0.188E+00
   0.054  0.189E+00  0.189E+00
   0.064  0.190E+00  0.190E+00
   0.074  0.191E+00  0.191E+00
   0.084  0.192E+00  0.192E+00
   0.094  0.192E+00  0.192E+00
   0.104  0.193E+00  0.193E+00
   0.114  0.194E+00  0.194E+00
   0.124  0.194E+00  0.194E+00
   0.134  0.194E+00  0.194E+00
   0.144  0.194E+00  0.194E+00
   0.154  0.194E+00  0.194E+00
   0.164  0.194E+00  0.194E+00
   0.174  0.194E+00  0.194E+00
   0.184  0.194E+00  0.194E+00
   0.194  0.193E+00  0.193E+00
   0.204  0.193E+00  0.193E+00
   0.214  0.192E+00  0.192E+00
   0.224  0.191E+00  0.191E+00
   0.234  0.190E+00  0.190E+00
   0.244  0.189E+00  0.189E+00
   0.254  0.188E+00  0.188E+00
   0.264  0.187E+00  0.187E+00
   0.274  0.186E+00  0.186E+00
   0.284  0.184E+00  0.184E+00
   0.294  0.183E+00  0.183E+00
   0.304  0.181E+00  0.181E+00
   0.314  0.180E+00  0.180E+00
   0.324  0.178E+00  0.178E+00
   0.334  0.176E+00  0.176E+00
   0.344  0.174E+00  0.174E+00
   0.354  0.172E+00  0.172E+00
   0.364  0.170E+00  0.170E+00
   0.374  0.168E+00  0.168E+00
   0.384  0.165E+00  0.165E+00
   0.394  0.163E+00  0.163E+00
   0.404  0.160E+00  0.160E+00
   0.414  0.158E+00  0.158E+00
   0.424  0.156E+00  0.156E+00
   0.434  0.153E+00  0.153E+00
   0.444  0.150E+00  0.150E+00
   0.454  0.148E+00  0.148E+00
   0.464  0.145E+00  0.145E+00
   0.474  0.142E+00  0.142E+00
   0.484  0.139E+00  0.139E+00
   0.494  0.137E+00  0.137E+00
   0.504  0.134E+00  0.134E+00
   0.514  0.131E+00  0.131E+00
   0.524  0.128E+00  0.128E+00
   0.534  0.125E+00  0.125E+00
   0.544  0.122E+00  0.122E+00
   0.554  0.119E+00  0.119E+00
   0.564  0.116E+00  0.116E+00
   0.574  0.113E+00  0.113E+00
   0.584  0.110E+00  0.110E+00
   0.594  0.108E+00  0.108E+00
   0.604  0.105E+00  0.105E+00
   0.614  0.102E+00  0.102E+00
   0.624  0.989E-01  0.989E-01
   0.634  0.961E-01  0.961E-01
   0.644  0.933E-01  0.933E-01
   0.654  0.905E-01  0.905E-01
   0.664  0.877E-01  0.877E-01
   0.674  0.850E-01  0.850E-01
   0.684  0.823E-01  0.823E-01
   0.694  0.797E-01  0.797E-01
   0.704  0.771E-01  0.771E-01
   0.714  0.745E-01  0.745E-01
   0.724  0.720E-01  0.720E-01
   0.734  0.695E-01  0.695E-01
   0.744  0.671E-01  0.671E-01
   0.754  0.647E-01  0.647E-01
   0.764  0.624E-01  0.624E-01
   0.774  0.602E-01  0.602E-01
   0.784  0.580E-01  0.580E-01
   0.794  0.558E-01  0.558E-01
   0.804  0.537E-01  0.537E-01
   0.814  0.517E-01  0.517E-01
   0.824  0.498E-01  0.498E-01
   0.834  0.479E-01  0.479E-01
   0.844  0.460E-01  0.460E-01
   0.854  0.442E-01  0.442E-01
   0.864  0.425E-01  0.425E-01
   0.874  0.409E-01  0.409E-01
   0.884  0.393E-01  0.393E-01
   0.894  0.377E-01  0.377E-01
   0.904  0.363E-01  0.363E-01
   0.914  0.348E-01  0.348E-01
   0.924  0.335E-01  0.335E-01
   0.934  0.322E-01  0.322E-01
   0.944  0.310E-01  0.310E-01
   0.954  0.298E-01  0.298E-01
   0.964  0.287E-01  0.287E-01
   0.974  0.277E-01  0.277E-01
   0.984  0.267E-01  0.267E-01
   0.994  0.257E-01  0.257E-01
   1.004  0.249E-01  0.249E-01
   1.014  0.240E-01  0.240E-01
   1.024  0.233E-01  0.233E-01
   1.034  0.225E-01  0.225E-01
   1.044  0.219E-01  0.219E-01
   1.054  0.212E-01  0.212E-01
   1.064  0.207E-01  0.207E-01
   1.074  0.201E-01  0.201E-01
   1.084  0.196E-01  0.196E-01
   1.094  0.192E-01  0.192E-01
   1.104  0.188E-01  0.188E-01
   1.114  0.184E-01  0.184E-01
   1.124  0.181E-01  0.181E-01
   1.134  0.178E-01  0.178E-01
   1.144  0.176E-01  0.176E-01
   1.154  0.173E-01  0.173E-01
   1.164  0.172E-01  0.172E-01
   1.174  0.170E-01  0.170E-01
   1.184  0.169E-01  0.169E-01
   1.194  0.168E-01  0.168E-01
   1.204  0.167E-01  0.167E-01
   1.214  0.166E-01  0.166E-01
   1.224  0.166E-01  0.166E-01
   1.234  0.166E-01  0.166E-01
   1.244  0.166E-01  0.166E-01
   1.254  0.167E-01  0.167E-01
   1.264  0.167E-01  0.167E-01
   1.274  0.168E-01  0.168E-01
   1.284  0.168E-01  0.168E-01
   1.294  0.169E-01  0.169E-01
   1.304  0.170E-01  0.170E-01
   1.314  0.172E-01  0.172E-01
   1.324  0.173E-01  0.173E-01
   1.334  0.174E-01  0.174E-01
   1.344  0.176E-01  0.176E-01
   1.354  0.177E-01  0.177E-01
   1.364  0.179E-01  0.179E-01
   1.374  0.181E-01  0.181E-01
   1.384  0.182E-01  0.182E-01
   1.394  0.184E-01  0.184E-01
   1.404  0.186E-01  0.186E-01
   1.414  0.188E-01  0.188E-01
   1.424  0.190E-01  0.190E-01
   1.434  0.191E-01  0.191E-01
   1.444  0.193E-01  0.193E-01
   1.454  0.195E-01  0.195E-01
   1.464  0.197E-01  0.197E-01
   1.474  0.199E-01  0.199E-01
   1.484  0.201E-01  0.201E-01
   1.494  0.203E-01  0.203E-01
   1.504  0.205E-01  0.205E-01
   1.514  0.207E-01  0.207E-01
   1.524  0.209E-01  0.209E-01
   1.534  0.211E-01  0.211E-01
   1.544  0.213E-01  0.213E-01
   1.554  0.215E-01  0.215E-01
   1.564  0.217E-01  0.217E-01
   1.574  0.219E-01  0.219E-01
   1.584  0.221E-01  0.221E-01
   1.594  0.223E-01  0.223E-01
   1.604  0.225E-01  0.225E-01
   1.614  0.227E-01  0.227E-01
   1.624  0.229E-01  0.229E-01
   1.634  0.231E-01  0.231E-01
   1.644  0.233E-01  0.233E-01
   1.654  0.235E-01  0.235E-01
   1.664  0.237E-01  0.237E-01
   1.674  0.239E-01  0.239E-01
   1.684  0.242E-01  0.242E-01
   1.694  0.244E-01  0.244E-01
   1.704  0.247E-01  0.247E-01
   1.714  0.249E-01  0.249E-01
   1.724  0.252E-01  0.252E-01
   1.734  0.254E-01  0.254E-01
   1.744  0.257E-01  0.257E-01
   1.754  0.260E-01  0.260E-01
   1.764  0.263E-01  0.263E-01
   1.774  0.266E-01  0.266E-01
   1.784  0.269E-01  0.269E-01
   1.794  0.273E-01  0.273E-01
   1.804  0.276E-01  0.276E-01
   1.814  0.280E-01  0.280E-01
   1.824  0.284E-01  0.284E-01
   1.834  0.288E-01  0.288E-01
   1.844  0.292E-01  0.292E-01
   1.854  0.297E-01  0.297E-01
   1.864  0.301E-01  0.301E-01
   1.874  0.306E-01  0.306E-01
   1.884  0.311E-01  0.311E-01
   1.894  0.316E-01  0.316E-01
   1.904  0.322E-01  0.322E-01
   1.914  0.327E-01  0.327E-01
   1.924  0.333E-01  0.333E-01
   1.934  0.340E-01  0.340E-01
   1.944  0.346E-01  0.346E-01
   1.954  0.353E-01  0.353E-01
   1.964  0.360E-01  0.360E-01
   1.974  0.367E-01  0.367E-01
   1.984  0.375E-01  0.375E-01
   1.994  0.382E-01  0.382E-01
   2.004  0.391E-01  0.391E-01
   2.014  0.399E-01  0.399E-01
   2.024  0.408E-01  0.408E-01
   2.034  0.417E-01  0.417E-01
   2.044  0.426E-01  0.426E-01
   2.054  0.436E-01  0.436E-01
   2.064  0.446E-01  0.446E-01
   2.074  0.456E-01  0.456E-01
   2.084  0.467E-01  0.467E-01
   2.094  0.478E-01  0.478E-01
   2.104  0.490E-01  0.490E-01
   2.114  0.501E-01  0.501E-01
   2.124  0.513E-01  0.513E-01
   2.134  0.526E-01  0.526E-01
   2.144  0.538E-01  0.538E-01
   2.154  0.551E-01  0.551E-01
   2.164  0.565E-01  0.565E-01
   2.174  0.578E-01  0.578E-01
   2.184  0.592E-01  0.592E-01
   2.194  0.607E-01  0.607E-01
   2.204  0.621E-01  0.621E-01
   2.214  0.636E-01  0.636E-01
   2.224  0.651E-01  0.651E-01
   2.234  0.667E-01  0.667E-01
   2.244  0.683E-01  0.683E-01
   2.254  0.699E-01  0.699E-01
   2.264  0.715E-01  0.715E-01
   2.274  0.731E-01  0.731E-01
   2.284  0.748E-01  0.748E-01
   2.294  0.765E-01  0.765E-01
   2.304  0.782E-01  0.782E-01
   2.314  0.799E-01  0.799E-01
   2.324  0.817E-01  0.817E-01
   2.334  0.834E-01  0.834E-01
   2.344  0.852E-01  0.852E-01
   2.354  0.870E-01  0.870E-01
   2.364  0.888E-01  0.888E-01
   2.374  0.906E-01  0.906E-01
   2.384  0.924E-01  0.924E-01
   2.394  0.943E-01  0.943E-01
   2.404  0.961E-01  0.961E-01
   2.414  0.979E-01  0.979E-01
   2.424  0.997E-01  0.997E-01
   2.434  0.102E+00  0.102E+00
   2.444  0.103E+00  0.103E+00
   2.454  0.105E+00  0.105E+00
   2.464  0.107E+00  0.107E+00
   2.474  0.109E+00  0.109E+00
   2.484  0.111E+00  0.111E+00
   2.494  0.112E+00  0.112E+00
   2.504  0.114E+00  0.114E+00
   2.514  0.116E+00  0.116E+00
   2.524  0.117E+00  0.117E+00
   2.534  0.119E+00  0.119E+00
   2.544  0.121E+00  0.121E+00
   2.554  0.122E+00  0.122E+00
   2.564  0.124E+00  0.124E+00
   2.574  0.125E+00  0.125E+00
   2.584  0.127E+00  0.127E+00
   2.594  0.128E+00  0.128E+00
   2.604  0.130E+00  0.130E+00
   2.614  0.131E+00  0.131E+00
   2.624  0.132E+00  0.132E+00
   2.634  0.134E+00  0.134E+00
   2.644  0.135E+00  0.135E+00
   2.654  0.136E+00  0.136E+00
   2.664  0.137E+00  0.137E+00
   2.674  0.138E+00  0.138E+00
   2.684  0.139E+00  0.139E+00
   2.694  0.140E+00  0.140E+00
   2.704  0.141E+00  0.141E+00
   2.714  0.142E+00  0.142E+00
   2.724  0.142E+00  0.142E+00
   2.734  0.143E+00  0.143E+00
   2.744  0.144E+00  0.144E+00
   2.754  0.144E+00  0.144E+00
   2.764  0.144E+00  0.144E+00
   2.774  0.145E+00  0.145E+00
   2.784  0.145E+00  0.145E+00
   2.794  0.145E+00  0.145E+00
   2.804  0.145E+00  0.145E+00
   2.814  0.145E+00  0.145E+00
   2.824  0.145E+00  0.145E+00
   2.834  0.145E+00  0.145E+00
   2.844  0.145E+00  0.145E+00
   2.854  0.145E+00  0.145E+00
   2.864  0.145E+00  0.145E+00
   2.874  0.144E+00  0.144E+00
   2.884  0.144E+00  0.144E+00
   2.894  0.143E+00  0.143E+00
   2.904  0.142E+00  0.142E+00
   2.914  0.142E+00  0.142E+00
   2.924  0.141E+00  0.141E+00
   2.934  0.140E+00  0.140E+00
   2.944  0.139E+00  0.139E+00
   2.954  0.138E+00  0.138E+00
   2.964  0.137E+00  0.137E+00
   2.974  0.136E+00  0.136E+00
   2.984  0.135E+00  0.135E+00
   2.994  0.133E+00  0.133E+00
   3.004  0.132E+00  0.132E+00
   3.014  0.131E+00  0.131E+00
   3.024  0.129E+00  0.129E+00
   3.034  0.128E+00  0.128E+00
   3.044  0.126E+00  0.126E+00
   3.054  0.124E+00  0.124E+00
   3.064  0.123E+00  0.123E+00
   3.074  0.121E+00  0.121E+00
   3.084  0.119E+00  0.119E+00
   3.094  0.117E+00  0.117E+00
   3.104  0.115E+00  0.115E+00
   3.114  0.113E+00  0.113E+00
   3.124  0.111E+00  0.111E+00
   3.134  0.109E+00  0.109E+00
   3.144  0.107E+00  0.107E+00
   3.154  0.105E+00  0.105E+00
   3.164  0.103E+00  0.103E+00
   3.174  0.101E+00  0.101E+00
   3.184  0.987E-01  0.987E-01
   3.194  0.965E-01  0.965E-01
   3.204  0.943E-01  0.943E-01
   3.214  0.920E-01  0.920E-01
   3.224  0.898E-01  0.898E-01
   3.234  0.875E-01  0.875E-01
   3.244  0.853E-01  0.853E-01
   3.254  0.830E-01  0.830E-01
   3.264  0.807E-01  0.807E-01
   3.274  0.784E-01  0.784E-01
   3.284  0.762E-01  0.762E-01
   3.294  0.739E-01  0.739E-01
   3.304  0.716E-01  0.716E-01
   3.314  0.694E-01  0.694E-01
   3.324  0.671E-01  0.671E-01
   3.334  0.649E-01  0.649E-01
   3.344  0.627E-01  0.627E-01
   3.354  0.605E-01  0.605E-01
   3.364  0.583E-01  0.583E-01
   3.374  0.561E-01  0.561E-01
   3.384  0.540E-01  0.540E-01
   3.394  0.519E-01  0.519E-01
   3.404  0.498E-01  0.498E-01
   3.414  0.477E-01  0.477E-01
   3.424  0.457E-01  0.457E-01
   3.434  0.437E-01  0.437E-01
   3.444  0.418E-01  0.418E-01
   3.454  0.398E-01  0.398E-01
   3.464  0.379E-01  0.379E-01
   3.474  0.361E-01  0.361E-01
   3.484  0.343E-01  0.343E-01
   3.494  0.325E-01  0.325E-01
   3.504  0.308E-01  0.308E-01
   3.514  0.291E-01  0.291E-01
   3.524  0.274E-01  0.274E-01
   3.534  0.258E-01  0.258E-01
   3.544  0.242E-01  0.242E-01
   3.554  0.227E-01  0.227E-01
   3.564  0.212E-01  0.212E-01
   3.574  0.198E-01  0.198E-01
   3.584  0.184E-01  0.184E-01
   3.594  0.170E-01  0.170E-01
   3.604  0.157E-01  0.157E-01
   3.614  0.144E-01  0.144E-01
   3.624  0.132E-01  0.132E-01
   3.634  0.120E-01  0.120E-01
   3.644  0.109E-01  0.109E-01
   3.654  0.979E-02  0.979E-02
   3.664  0.874E-02  0.874E-02
   3.674  0.773E-02  0.773E-02
   3.684  0.677E-02  0.677E-02
   3.694  0.585E-02  0.585E-02
   3.704  0.496E-02  0.496E-02
   3.714  0.412E-02  0.412E-02
   3.724  0.332E-02  0.332E-02
   3.734  0.256E-02  0.256E-02
   3.744  0.183E-02  0.183E-02
   3.754  0.115E-02  0.115E-02
   3.764  0.500E-03  0.500E-03
   3.774 -0.112E-03 -0.112E-03
   3.784 -0.689E-03 -0.689E-03
   3.794 -0.123E-02 -0.123E-02
   3.804 -0.174E-02 -0.174E-02
   3.814 -0.222E-02 -0.222E-02
   3.824 -0.266E-02 -0.266E-02
   3.834 -0.307E-02 -0.307E-02
   3.844 -0.346E-02 -0.346E-02
   3.854 -0.381E-02 -0.381E-02
   3.864 -0.414E-02 -0.414E-02
   3.874 -0.443E-02 -0.443E-02
   3.884 -0.471E-02 -0.471E-02
   3.894 -0.495E-02 -0.495E-02
   3.904 -0.518E-02 -0.518E-02
   3.914 -0.538E-02 -0.538E-02
   3.924 -0.555E-02 -0.555E-02
   3.934 -0.571E-02 -0.571E-02
   3.944 -0.585E-02 -0.585E-02
   3.954 -0.596E-02 -0.596E-02
   3.964 -0.606E-02 -0.606E-02
   3.974 -0.614E-02 -0.614E-02
   3.984 -0.621E-02 -0.621E-02
   3.994 -0.625E-02 -0.625E-02
   4.004 -0.629E-02 -0.629E-02
   4.014 -0.631E-02 -0.631E-02
   4.024 -0.631E-02 -0.631E-02
   4.034 -0.630E-02 -0.630E-02
   4.044 -0.629E-02 -0.629E-02
   4.054 -0.626E-02 -0.626E-02
   4.064 -0.622E-02 -0.622E-02
   4.074 -0.617E-02 -0.617E-02
   4.084 -0.611E-02 -0.611E-02
   4.094 -0.604E-02 -0.604E-02
   4.104 -0.597E-02 -0.597E-02
   4.114 -0.589E-02 -0.589E-02
   4.124 -0.580E-02 -0.580E-02
   4.134 -0.571E-02 -0.571E-02
   4.144 -0.561E-02 -0.561E-02
   4.154 -0.551E-02 -0.551E-02
   4.164 -0.540E-02 -0.540E-02
   4.174 -0.529E-02 -0.529E-02
   4.184 -0.518E-02 -0.518E-02
   4.194 -0.507E-02 -0.507E-02
   4.204 -0.495E-02 -0.495E-02
   4.214 -0.483E-02 -0.483E-02
   4.224 -0.471E-02 -0.471E-02
   4.234 -0.459E-02 -0.459E-02
   4.244 -0.447E-02 -0.447E-02
   4.254 -0.434E-02 -0.434E-02
   4.264 -0.422E-02 -0.422E-02
   4.274 -0.410E-02 -0.410E-02
   4.284 -0.397E-02 -0.397E-02
   4.294 -0.385E-02 -0.385E-02
   4.304 -0.373E-02 -0.373E-02
   4.314 -0.361E-02 -0.361E-02
   4.324 -0.349E-02 -0.349E-02
   4.334 -0.338E-02 -0.338E-02
   4.344 -0.326E-02 -0.326E-02
   4.354 -0.315E-02 -0.315E-02
   4.364 -0.303E-02 -0.303E-02
   4.374 -0.292E-02 -0.292E-02
   4.384 -0.282E-02 -0.282E-02
   4.394 -0.271E-02 -0.271E-02
   4.404 -0.261E-02 -0.261E-02
   4.414 -0.251E-02 -0.251E-02
   4.424 -0.241E-02 -0.241E-02
   4.434 -0.231E-02 -0.231E-02
   4.444 -0.222E-02 -0.222E-02
   4.454 -0.213E-02 -0.213E-02
   4.464 -0.204E-02 -0.204E-02
   4.474 -0.195E-02 -0.195E-02
   4.484 -0.187E-02 -0.187E-02
   4.494 -0.179E-02 -0.179E-02
   4.504 -0.171E-02 -0.171E-02
   4.514 -0.163E-02 -0.163E-02
   4.524 -0.156E-02 -0.156E-02
   4.534 -0.149E-02 -0.149E-02
   4.544 -0.142E-02 -0.142E-02
   4.554 -0.135E-02 -0.135E-02
   4.564 -0.129E-02 -0.129E-02
   4.574 -0.123E-02 -0.123E-02
   4.584 -0.117E-02 -0.117E-02
   4.594 -0.111E-02 -0.111E-02
   4.604 -0.105E-02 -0.105E-02
   4.614 -0.100E-02 -0.100E-02
   4.624 -0.951E-03 -0.951E-03
   4.634 -0.903E-03 -0.903E-03
   4.644 -0.856E-03 -0.856E-03
   4.654 -0.812E-03 -0.812E-03
   4.664 -0.769E-03 -0.769E-03
   4.674 -0.728E-03 -0.728E-03
   4.684 -0.689E-03 -0.689E-03
   4.694 -0.652E-03 -0.652E-03
   4.704 -0.617E-03 -0.617E-03
   4.714 -0.583E-03 -0.583E-03
   4.724 -0.550E-03 -0.550E-03
   4.734 -0.520E-03 -0.520E-03
   4.744 -0.490E-03 -0.490E-03
   4.754 -0.463E-03 -0.463E-03
   4.764 -0.436E-03 -0.436E-03
   4.774 -0.411E-03 -0.411E-03
   4.784 -0.387E-03 -0.387E-03
   4.794 -0.364E-03 -0.364E-03
   4.804 -0.343E-03 -0.343E-03
   4.814 -0.322E-03 -0.322E-03
   4.824 -0.303E-03 -0.303E-03
   4.834 -0.284E-03 -0.284E-03
   4.844 -0.267E-03 -0.267E-03
   4.854 -0.251E-03 -0.251E-03
   4.864 -0.235E-03 -0.235E-03
   4.874 -0.220E-03 -0.220E-03
   4.884 -0.207E-03 -0.207E-03
   4.894 -0.194E-03 -0.194E-03
   4.904 -0.181E-03 -0.181E-03
   4.914 -0.170E-03 -0.170E-03
   4.924 -0.159E-03 -0.159E-03
   4.934 -0.148E-03 -0.148E-03
   4.944 -0.139E-03 -0.139E-03
   4.954 -0.129E-03 -0.129E-03
   4.964 -0.121E-03 -0.121E-03
   4.974 -0.113E-03 -0.113E-03
   4.984 -0.105E-03 -0.105E-03
   4.994 -0.981E-04 -0.981E-04
   5.004 -0.914E-04 -0.914E-04
   5.014 -0.851E-04 -0.851E-04
   5.024 -0.793E-04 -0.793E-04
   5.034 -0.738E-04 -0.738E-04
   5.044 -0.686E-04 -0.686E-04
   5.054 -0.638E-04 -0.638E-04
   5.064 -0.593E-04 -0.593E-04
   5.074 -0.551E-04 -0.551E-04
   5.084 -0.511E-04 -0.511E-04
   5.094 -0.474E-04 -0.474E-04
   5.104 -0.440E-04 -0.440E-04
   5.114 -0.408E-04 -0.408E-04
   5.124 -0.378E-04 -0.378E-04
   5.134 -0.350E-04 -0.350E-04
   5.144 -0.324E-04 -0.324E-04
   5.154 -0.300E-04 -0.300E-04
   5.164 -0.278E-04 -0.278E-04
   5.174 -0.257E-04 -0.257E-04
   5.184 -0.237E-04 -0.237E-04
   5.194 -0.219E-04 -0.219E-04
   5.204 -0.202E-04 -0.202E-04
   5.214 -0.187E-04 -0.187E-04
   5.224 -0.172E-04 -0.172E-04
   5.234 -0.159E-04 -0.159E-04
   5.244 -0.146E-04 -0.146E-04
   5.254 -0.135E-04 -0.135E-04
   5.264 -0.124E-04 -0.124E-04
   5.274 -0.114E-04 -0.114E-04
   5.284 -0.105E-04 -0.105E-04
   5.294 -0.968E-05 -0.968E-05
