# E (eV)   ldos(E)   pdos(E)   
 -27.116 -0.668E-04 -0.668E-04
 -27.106 -0.721E-04 -0.721E-04
 -27.096 -0.777E-04 -0.777E-04
 -27.086 -0.838E-04 -0.838E-04
 -27.076 -0.904E-04 -0.904E-04
 -27.066 -0.973E-04 -0.973E-04
 -27.056 -0.105E-03 -0.105E-03
 -27.046 -0.113E-03 -0.113E-03
 -27.036 -0.121E-03 -0.121E-03
 -27.026 -0.130E-03 -0.130E-03
 -27.016 -0.140E-03 -0.140E-03
 -27.006 -0.150E-03 -0.150E-03
 -26.996 -0.161E-03 -0.161E-03
 -26.986 -0.173E-03 -0.173E-03
 -26.976 -0.186E-03 -0.186E-03
 -26.966 -0.199E-03 -0.199E-03
 -26.956 -0.213E-03 -0.213E-03
 -26.946 -0.228E-03 -0.228E-03
 -26.936 -0.244E-03 -0.244E-03
 -26.926 -0.261E-03 -0.261E-03
 -26.916 -0.279E-03 -0.279E-03
 -26.906 -0.298E-03 -0.298E-03
 -26.896 -0.318E-03 -0.318E-03
 -26.886 -0.339E-03 -0.339E-03
 -26.876 -0.362E-03 -0.362E-03
 -26.866 -0.386E-03 -0.386E-03
 -26.856 -0.411E-03 -0.411E-03
 -26.846 -0.437E-03 -0.437E-03
 -26.836 -0.465E-03 -0.465E-03
 -26.826 -0.495E-03 -0.495E-03
 -26.816 -0.526E-03 -0.526E-03
 -26.806 -0.559E-03 -0.559E-03
 -26.796 -0.593E-03 -0.593E-03
 -26.786 -0.629E-03 -0.629E-03
 -26.776 -0.667E-03 -0.667E-03
 -26.766 -0.707E-03 -0.707E-03
 -26.756 -0.749E-03 -0.749E-03
 -26.746 -0.793E-03 -0.793E-03
 -26.736 -0.839E-03 -0.839E-03
 -26.726 -0.887E-03 -0.887E-03
 -26.716 -0.937E-03 -0.937E-03
 -26.706 -0.990E-03 -0.990E-03
 -26.696 -0.104E-02 -0.104E-02
 -26.686 -0.110E-02 -0.110E-02
 -26.676 -0.116E-02 -0.116E-02
 -26.666 -0.122E-02 -0.122E-02
 -26.656 -0.129E-02 -0.129E-02
 -26.646 -0.136E-02 -0.136E-02
 -26.636 -0.142E-02 -0.142E-02
 -26.626 -0.150E-02 -0.150E-02
 -26.616 -0.157E-02 -0.157E-02
 -26.606 -0.165E-02 -0.165E-02
 -26.596 -0.173E-02 -0.173E-02
 -26.586 -0.181E-02 -0.181E-02
 -26.576 -0.190E-02 -0.190E-02
 -26.566 -0.199E-02 -0.199E-02
 -26.556 -0.208E-02 -0.208E-02
 -26.546 -0.217E-02 -0.217E-02
 -26.536 -0.227E-02 -0.227E-02
 -26.526 -0.237E-02 -0.237E-02
 -26.516 -0.247E-02 -0.247E-02
 -26.506 -0.258E-02 -0.258E-02
 -26.496 -0.268E-02 -0.268E-02
 -26.486 -0.279E-02 -0.279E-02
 -26.476 -0.290E-02 -0.290E-02
 -26.466 -0.302E-02 -0.302E-02
 -26.456 -0.313E-02 -0.313E-02
 -26.446 -0.325E-02 -0.325E-02
 -26.436 -0.337E-02 -0.337E-02
 -26.426 -0.349E-02 -0.349E-02
 -26.416 -0.362E-02 -0.362E-02
 -26.406 -0.374E-02 -0.374E-02
 -26.396 -0.386E-02 -0.386E-02
 -26.386 -0.399E-02 -0.399E-02
 -26.376 -0.412E-02 -0.412E-02
 -26.366 -0.424E-02 -0.424E-02
 -26.356 -0.437E-02 -0.437E-02
 -26.346 -0.449E-02 -0.449E-02
 -26.336 -0.462E-02 -0.462E-02
 -26.326 -0.474E-02 -0.474E-02
 -26.316 -0.486E-02 -0.486E-02
 -26.306 -0.498E-02 -0.498E-02
 -26.296 -0.510E-02 -0.510E-02
 -26.286 -0.521E-02 -0.521E-02
 -26.276 -0.533E-02 -0.533E-02
 -26.266 -0.543E-02 -0.543E-02
 -26.256 -0.553E-02 -0.553E-02
 -26.246 -0.563E-02 -0.563E-02
 -26.236 -0.572E-02 -0.572E-02
 -26.226 -0.581E-02 -0.581E-02
 -26.216 -0.588E-02 -0.588E-02
 -26.206 -0.595E-02 -0.595E-02
 -26.196 -0.602E-02 -0.602E-02
 -26.186 -0.607E-02 -0.607E-02
 -26.176 -0.611E-02 -0.611E-02
 -26.166 -0.614E-02 -0.614E-02
 -26.156 -0.616E-02 -0.616E-02
 -26.146 -0.617E-02 -0.617E-02
 -26.136 -0.616E-02 -0.616E-02
 -26.126 -0.614E-02 -0.614E-02
 -26.116 -0.611E-02 -0.611E-02
 -26.106 -0.605E-02 -0.605E-02
 -26.096 -0.599E-02 -0.599E-02
 -26.086 -0.590E-02 -0.590E-02
 -26.076 -0.580E-02 -0.580E-02
 -26.066 -0.567E-02 -0.567E-02
 -26.056 -0.553E-02 -0.553E-02
 -26.046 -0.536E-02 -0.536E-02
 -26.036 -0.517E-02 -0.517E-02
 -26.026 -0.496E-02 -0.496E-02
 -26.016 -0.472E-02 -0.472E-02
 -26.006 -0.445E-02 -0.445E-02
 -25.996 -0.416E-02 -0.416E-02
 -25.986 -0.384E-02 -0.384E-02
 -25.976 -0.350E-02 -0.350E-02
 -25.966 -0.312E-02 -0.312E-02
 -25.956 -0.271E-02 -0.271E-02
 -25.946 -0.227E-02 -0.227E-02
 -25.936 -0.180E-02 -0.180E-02
 -25.926 -0.129E-02 -0.129E-02
 -25.916 -0.755E-03 -0.755E-03
 -25.906 -0.180E-03 -0.180E-03
 -25.896  0.431E-03  0.431E-03
 -25.886  0.108E-02  0.108E-02
 -25.876  0.176E-02  0.176E-02
 -25.866  0.249E-02  0.249E-02
 -25.856  0.325E-02  0.325E-02
 -25.846  0.405E-02  0.405E-02
 -25.836  0.489E-02  0.489E-02
 -25.826  0.577E-02  0.577E-02
 -25.816  0.670E-02  0.670E-02
 -25.806  0.766E-02  0.766E-02
 -25.796  0.867E-02  0.867E-02
 -25.786  0.971E-02  0.971E-02
 -25.776  0.108E-01  0.108E-01
 -25.766  0.119E-01  0.119E-01
 -25.756  0.131E-01  0.131E-01
 -25.746  0.143E-01  0.143E-01
 -25.736  0.156E-01  0.156E-01
 -25.726  0.169E-01  0.169E-01
 -25.716  0.182E-01  0.182E-01
 -25.706  0.196E-01  0.196E-01
 -25.696  0.210E-01  0.210E-01
 -25.686  0.225E-01  0.225E-01
 -25.676  0.240E-01  0.240E-01
 -25.666  0.255E-01  0.255E-01
 -25.656  0.271E-01  0.271E-01
 -25.646  0.287E-01  0.287E-01
 -25.636  0.303E-01  0.303E-01
 -25.626  0.320E-01  0.320E-01
 -25.616  0.337E-01  0.337E-01
 -25.606  0.355E-01  0.355E-01
 -25.596  0.372E-01  0.372E-01
 -25.586  0.390E-01  0.390E-01
 -25.576  0.409E-01  0.409E-01
 -25.566  0.427E-01  0.427E-01
 -25.556  0.446E-01  0.446E-01
 -25.546  0.465E-01  0.465E-01
 -25.536  0.484E-01  0.484E-01
 -25.526  0.503E-01  0.503E-01
 -25.516  0.523E-01  0.523E-01
 -25.506  0.542E-01  0.542E-01
 -25.496  0.562E-01  0.562E-01
 -25.486  0.582E-01  0.582E-01
 -25.476  0.602E-01  0.602E-01
 -25.466  0.621E-01  0.621E-01
 -25.456  0.641E-01  0.641E-01
 -25.446  0.661E-01  0.661E-01
 -25.436  0.681E-01  0.681E-01
 -25.426  0.700E-01  0.700E-01
 -25.416  0.720E-01  0.720E-01
 -25.406  0.739E-01  0.739E-01
 -25.396  0.758E-01  0.758E-01
 -25.386  0.777E-01  0.777E-01
 -25.376  0.796E-01  0.796E-01
 -25.366  0.815E-01  0.815E-01
 -25.356  0.833E-01  0.833E-01
 -25.346  0.851E-01  0.851E-01
 -25.336  0.868E-01  0.868E-01
 -25.326  0.886E-01  0.886E-01
 -25.316  0.902E-01  0.902E-01
 -25.306  0.919E-01  0.919E-01
 -25.296  0.935E-01  0.935E-01
 -25.286  0.950E-01  0.950E-01
 -25.276  0.965E-01  0.965E-01
 -25.266  0.980E-01  0.980E-01
 -25.256  0.993E-01  0.993E-01
 -25.246  0.101E+00  0.101E+00
 -25.236  0.102E+00  0.102E+00
 -25.226  0.103E+00  0.103E+00
 -25.216  0.104E+00  0.104E+00
 -25.206  0.105E+00  0.105E+00
 -25.196  0.106E+00  0.106E+00
 -25.186  0.107E+00  0.107E+00
 -25.176  0.108E+00  0.108E+00
 -25.166  0.109E+00  0.109E+00
 -25.156  0.110E+00  0.110E+00
 -25.146  0.110E+00  0.110E+00
 -25.136  0.111E+00  0.111E+00
 -25.126  0.111E+00  0.111E+00
 -25.116  0.112E+00  0.112E+00
 -25.106  0.112E+00  0.112E+00
 -25.096  0.112E+00  0.112E+00
 -25.086  0.113E+00  0.113E+00
 -25.076  0.113E+00  0.113E+00
 -25.066  0.113E+00  0.113E+00
 -25.056  0.113E+00  0.113E+00
 -25.046  0.112E+00  0.112E+00
 -25.036  0.112E+00  0.112E+00
 -25.026  0.112E+00  0.112E+00
 -25.016  0.112E+00  0.112E+00
 -25.006  0.111E+00  0.111E+00
 -24.996  0.111E+00  0.111E+00
 -24.986  0.110E+00  0.110E+00
 -24.976  0.109E+00  0.109E+00
 -24.966  0.108E+00  0.108E+00
 -24.956  0.108E+00  0.108E+00
 -24.946  0.107E+00  0.107E+00
 -24.936  0.106E+00  0.106E+00
 -24.926  0.105E+00  0.105E+00
 -24.916  0.103E+00  0.103E+00
 -24.906  0.102E+00  0.102E+00
 -24.896  0.101E+00  0.101E+00
 -24.886  0.997E-01  0.997E-01
 -24.876  0.983E-01  0.983E-01
 -24.866  0.969E-01  0.969E-01
 -24.856  0.954E-01  0.954E-01
 -24.846  0.938E-01  0.938E-01
 -24.836  0.923E-01  0.923E-01
 -24.826  0.906E-01  0.906E-01
 -24.816  0.890E-01  0.890E-01
 -24.806  0.872E-01  0.872E-01
 -24.796  0.855E-01  0.855E-01
 -24.786  0.837E-01  0.837E-01
 -24.776  0.819E-01  0.819E-01
 -24.766  0.800E-01  0.800E-01
 -24.756  0.782E-01  0.782E-01
 -24.746  0.763E-01  0.763E-01
 -24.736  0.744E-01  0.744E-01
 -24.726  0.724E-01  0.724E-01
 -24.716  0.705E-01  0.705E-01
 -24.706  0.685E-01  0.685E-01
 -24.696  0.666E-01  0.666E-01
 -24.686  0.646E-01  0.646E-01
 -24.676  0.626E-01  0.626E-01
 -24.666  0.606E-01  0.606E-01
 -24.656  0.586E-01  0.586E-01
 -24.646  0.567E-01  0.567E-01
 -24.636  0.547E-01  0.547E-01
 -24.626  0.527E-01  0.527E-01
 -24.616  0.508E-01  0.508E-01
 -24.606  0.489E-01  0.489E-01
 -24.596  0.469E-01  0.469E-01
 -24.586  0.450E-01  0.450E-01
 -24.576  0.432E-01  0.432E-01
 -24.566  0.413E-01  0.413E-01
 -24.556  0.395E-01  0.395E-01
 -24.546  0.377E-01  0.377E-01
 -24.536  0.359E-01  0.359E-01
 -24.526  0.341E-01  0.341E-01
 -24.516  0.324E-01  0.324E-01
 -24.506  0.307E-01  0.307E-01
 -24.496  0.291E-01  0.291E-01
 -24.486  0.275E-01  0.275E-01
 -24.476  0.259E-01  0.259E-01
 -24.466  0.243E-01  0.243E-01
 -24.456  0.228E-01  0.228E-01
 -24.446  0.214E-01  0.214E-01
 -24.436  0.199E-01  0.199E-01
 -24.426  0.185E-01  0.185E-01
 -24.416  0.172E-01  0.172E-01
 -24.406  0.159E-01  0.159E-01
 -24.396  0.146E-01  0.146E-01
 -24.386  0.134E-01  0.134E-01
 -24.376  0.122E-01  0.122E-01
 -24.366  0.111E-01  0.111E-01
 -24.356  0.997E-02  0.997E-02
 -24.346  0.891E-02  0.891E-02
 -24.336  0.790E-02  0.790E-02
 -24.326  0.692E-02  0.692E-02
 -24.316  0.599E-02  0.599E-02
 -24.306  0.510E-02  0.510E-02
 -24.296  0.425E-02  0.425E-02
 -24.286  0.344E-02  0.344E-02
 -24.276  0.266E-02  0.266E-02
 -24.266  0.193E-02  0.193E-02
 -24.256  0.124E-02  0.124E-02
 -24.246  0.581E-03  0.581E-03
 -24.236 -0.386E-04 -0.386E-04
 -24.226 -0.622E-03 -0.622E-03
 -24.216 -0.117E-02 -0.117E-02
 -24.206 -0.168E-02 -0.168E-02
 -24.196 -0.216E-02 -0.216E-02
 -24.186 -0.261E-02 -0.261E-02
 -24.176 -0.303E-02 -0.303E-02
 -24.166 -0.341E-02 -0.341E-02
 -24.156 -0.376E-02 -0.376E-02
 -24.146 -0.409E-02 -0.409E-02
 -24.136 -0.439E-02 -0.439E-02
 -24.126 -0.466E-02 -0.466E-02
 -24.116 -0.490E-02 -0.490E-02
 -24.106 -0.512E-02 -0.512E-02
 -24.096 -0.532E-02 -0.532E-02
 -24.086 -0.549E-02 -0.549E-02
 -24.076 -0.564E-02 -0.564E-02
 -24.066 -0.577E-02 -0.577E-02
 -24.056 -0.588E-02 -0.588E-02
 -24.046 -0.597E-02 -0.597E-02
 -24.036 -0.604E-02 -0.604E-02
 -24.026 -0.610E-02 -0.610E-02
 -24.016 -0.613E-02 -0.613E-02
 -24.006 -0.616E-02 -0.616E-02
 -23.996 -0.617E-02 -0.617E-02
 -23.986 -0.616E-02 -0.616E-02
 -23.976 -0.615E-02 -0.615E-02
 -23.966 -0.612E-02 -0.612E-02
 -23.956 -0.608E-02 -0.608E-02
 -23.946 -0.603E-02 -0.603E-02
 -23.936 -0.597E-02 -0.597E-02
 -23.926 -0.590E-02 -0.590E-02
 -23.916 -0.583E-02 -0.583E-02
 -23.906 -0.574E-02 -0.574E-02
 -23.896 -0.565E-02 -0.565E-02
 -23.886 -0.556E-02 -0.556E-02
 -23.876 -0.546E-02 -0.546E-02
 -23.866 -0.535E-02 -0.535E-02
 -23.856 -0.524E-02 -0.524E-02
 -23.846 -0.513E-02 -0.513E-02
 -23.836 -0.501E-02 -0.501E-02
 -23.826 -0.489E-02 -0.489E-02
 -23.816 -0.477E-02 -0.477E-02
 -23.806 -0.465E-02 -0.465E-02
 -23.796 -0.452E-02 -0.452E-02
 -23.786 -0.440E-02 -0.440E-02
 -23.776 -0.427E-02 -0.427E-02
 -23.766 -0.415E-02 -0.415E-02
 -23.756 -0.402E-02 -0.402E-02
 -23.746 -0.389E-02 -0.389E-02
 -23.736 -0.377E-02 -0.377E-02
 -23.726 -0.365E-02 -0.365E-02
 -23.716 -0.352E-02 -0.352E-02
 -23.706 -0.340E-02 -0.340E-02
 -23.696 -0.328E-02 -0.328E-02
 -23.686 -0.316E-02 -0.316E-02
 -23.676 -0.305E-02 -0.305E-02
 -23.666 -0.293E-02 -0.293E-02
 -23.656 -0.282E-02 -0.282E-02
 -23.646 -0.271E-02 -0.271E-02
 -23.636 -0.260E-02 -0.260E-02
 -23.626 -0.250E-02 -0.250E-02
 -23.616 -0.239E-02 -0.239E-02
 -23.606 -0.229E-02 -0.229E-02
 -23.596 -0.220E-02 -0.220E-02
 -23.586 -0.210E-02 -0.210E-02
 -23.576 -0.201E-02 -0.201E-02
 -23.566 -0.192E-02 -0.192E-02
 -23.556 -0.183E-02 -0.183E-02
 -23.546 -0.175E-02 -0.175E-02
 -23.536 -0.167E-02 -0.167E-02
 -23.526 -0.159E-02 -0.159E-02
 -23.516 -0.151E-02 -0.151E-02
 -23.506 -0.144E-02 -0.144E-02
 -23.496 -0.137E-02 -0.137E-02
 -23.486 -0.130E-02 -0.130E-02
 -23.476 -0.124E-02 -0.124E-02
 -23.466 -0.118E-02 -0.118E-02
 -23.456 -0.112E-02 -0.112E-02
 -23.446 -0.106E-02 -0.106E-02
 -23.436 -0.100E-02 -0.100E-02
 -23.426 -0.949E-03 -0.949E-03
 -23.416 -0.899E-03 -0.899E-03
 -23.406 -0.850E-03 -0.850E-03
 -23.396 -0.804E-03 -0.804E-03
 -23.386 -0.759E-03 -0.759E-03
 -23.376 -0.717E-03 -0.717E-03
 -23.366 -0.677E-03 -0.677E-03
 -23.356 -0.638E-03 -0.638E-03
 -23.346 -0.602E-03 -0.602E-03
 -23.336 -0.567E-03 -0.567E-03
 -23.326 -0.534E-03 -0.534E-03
 -23.316 -0.502E-03 -0.502E-03
 -23.306 -0.472E-03 -0.472E-03
 -23.296 -0.444E-03 -0.444E-03
 -23.286 -0.417E-03 -0.417E-03
 -23.276 -0.392E-03 -0.392E-03
 -23.266 -0.367E-03 -0.367E-03
 -23.256 -0.345E-03 -0.345E-03
 -23.246 -0.323E-03 -0.323E-03
 -23.236 -0.303E-03 -0.303E-03
 -23.226 -0.283E-03 -0.283E-03
 -23.216 -0.265E-03 -0.265E-03
 -23.206 -0.248E-03 -0.248E-03
 -23.196 -0.232E-03 -0.232E-03
 -23.186 -0.217E-03 -0.217E-03
 -23.176 -0.202E-03 -0.202E-03
 -23.166 -0.189E-03 -0.189E-03
 -23.156 -0.176E-03 -0.176E-03
 -23.146 -0.164E-03 -0.164E-03
 -23.136 -0.153E-03 -0.153E-03
 -23.126 -0.143E-03 -0.143E-03
 -23.116 -0.133E-03 -0.133E-03
 -23.106 -0.123E-03 -0.123E-03
 -23.096 -0.115E-03 -0.115E-03
 -23.086 -0.107E-03 -0.107E-03
 -23.076 -0.991E-04 -0.991E-04
 -23.066 -0.920E-04 -0.920E-04
 -23.056 -0.854E-04 -0.854E-04
 -23.046 -0.792E-04 -0.792E-04
 -23.036 -0.735E-04 -0.735E-04
 -23.026 -0.681E-04 -0.681E-04
 -23.016 -0.631E-04 -0.631E-04
 -23.006 -0.584E-04 -0.584E-04
 -22.996 -0.541E-04 -0.541E-04
 -22.986 -0.500E-04 -0.500E-04
 -22.976 -0.463E-04 -0.463E-04
 -22.966 -0.428E-04 -0.428E-04
 -22.956 -0.395E-04 -0.395E-04
 -22.946 -0.365E-04 -0.365E-04
 -22.936 -0.337E-04 -0.337E-04
 -22.926 -0.312E-04 -0.312E-04
 -22.916 -0.288E-04 -0.288E-04
 -22.906 -0.266E-04 -0.266E-04
 -22.896 -0.245E-04 -0.245E-04
 -22.886 -0.227E-04 -0.227E-04
 -22.876 -0.209E-04 -0.209E-04
 -22.866 -0.194E-04 -0.194E-04
 -22.856 -0.179E-04 -0.179E-04
 -22.846 -0.166E-04 -0.166E-04
 -22.836 -0.154E-04 -0.154E-04
 -22.826 -0.143E-04 -0.143E-04
 -22.816 -0.133E-04 -0.133E-04
 -22.806 -0.123E-04 -0.123E-04
 -22.796 -0.115E-04 -0.115E-04
 -22.786 -0.108E-04 -0.108E-04
 -22.776 -0.102E-04 -0.102E-04
 -22.766 -0.960E-05 -0.960E-05
 -22.756 -0.911E-05 -0.911E-05
 -22.746 -0.869E-05 -0.869E-05
 -22.736 -0.834E-05 -0.834E-05
 -22.726 -0.806E-05 -0.806E-05
 -22.716 -0.785E-05 -0.785E-05
 -22.706 -0.770E-05 -0.770E-05
 -22.696 -0.761E-05 -0.761E-05
 -22.686 -0.759E-05 -0.759E-05
 -22.676 -0.763E-05 -0.763E-05
 -22.666 -0.773E-05 -0.773E-05
 -22.656 -0.790E-05 -0.790E-05
 -22.646 -0.814E-05 -0.814E-05
 -22.636 -0.844E-05 -0.844E-05
 -22.626 -0.881E-05 -0.881E-05
 -22.616 -0.925E-05 -0.925E-05
 -22.606 -0.976E-05 -0.976E-05
 -22.596 -0.104E-04 -0.104E-04
 -22.586 -0.110E-04 -0.110E-04
 -22.576 -0.118E-04 -0.118E-04
 -22.566 -0.126E-04 -0.126E-04
 -22.556 -0.136E-04 -0.136E-04
 -22.546 -0.146E-04 -0.146E-04
 -22.536 -0.158E-04 -0.158E-04
 -22.526 -0.170E-04 -0.170E-04
 -22.516 -0.184E-04 -0.184E-04
 -22.506 -0.199E-04 -0.199E-04
 -22.496 -0.216E-04 -0.216E-04
 -22.486 -0.234E-04 -0.234E-04
 -22.476 -0.254E-04 -0.254E-04
 -22.466 -0.275E-04 -0.275E-04
 -22.456 -0.298E-04 -0.298E-04
 -22.446 -0.323E-04 -0.323E-04
 -22.436 -0.350E-04 -0.350E-04
 -22.426 -0.379E-04 -0.379E-04
 -22.416 -0.411E-04 -0.411E-04
 -22.406 -0.445E-04 -0.445E-04
 -22.396 -0.482E-04 -0.482E-04
 -22.386 -0.521E-04 -0.521E-04
 -22.376 -0.564E-04 -0.564E-04
 -22.366 -0.610E-04 -0.610E-04
 -22.356 -0.659E-04 -0.659E-04
 -22.346 -0.712E-04 -0.712E-04
 -22.336 -0.769E-04 -0.769E-04
 -22.326 -0.830E-04 -0.830E-04
 -22.316 -0.896E-04 -0.896E-04
 -22.306 -0.966E-04 -0.966E-04
 -22.296 -0.104E-03 -0.104E-03
 -22.286 -0.112E-03 -0.112E-03
 -22.276 -0.121E-03 -0.121E-03
 -22.266 -0.130E-03 -0.130E-03
 -22.256 -0.140E-03 -0.140E-03
 -22.246 -0.150E-03 -0.150E-03
 -22.236 -0.162E-03 -0.162E-03
 -22.226 -0.174E-03 -0.174E-03
 -22.216 -0.186E-03 -0.186E-03
 -22.206 -0.200E-03 -0.200E-03
 -22.196 -0.214E-03 -0.214E-03
 -22.186 -0.230E-03 -0.230E-03
 -22.176 -0.246E-03 -0.246E-03
 -22.166 -0.264E-03 -0.264E-03
 -22.156 -0.282E-03 -0.282E-03
 -22.146 -0.302E-03 -0.302E-03
 -22.136 -0.322E-03 -0.322E-03
 -22.126 -0.345E-03 -0.345E-03
 -22.116 -0.368E-03 -0.368E-03
 -22.106 -0.393E-03 -0.393E-03
 -22.096 -0.419E-03 -0.419E-03
 -22.086 -0.446E-03 -0.446E-03
 -22.076 -0.476E-03 -0.476E-03
 -22.066 -0.507E-03 -0.507E-03
 -22.056 -0.539E-03 -0.539E-03
 -22.046 -0.573E-03 -0.573E-03
 -22.036 -0.610E-03 -0.610E-03
 -22.026 -0.648E-03 -0.648E-03
 -22.016 -0.688E-03 -0.688E-03
 -22.006 -0.730E-03 -0.730E-03
 -21.996 -0.774E-03 -0.774E-03
 -21.986 -0.821E-03 -0.821E-03
 -21.976 -0.870E-03 -0.870E-03
 -21.966 -0.921E-03 -0.921E-03
 -21.956 -0.974E-03 -0.974E-03
 -21.946 -0.103E-02 -0.103E-02
 -21.936 -0.109E-02 -0.109E-02
 -21.926 -0.115E-02 -0.115E-02
 -21.916 -0.121E-02 -0.121E-02
 -21.906 -0.128E-02 -0.128E-02
 -21.896 -0.135E-02 -0.135E-02
 -21.886 -0.142E-02 -0.142E-02
 -21.876 -0.150E-02 -0.150E-02
 -21.866 -0.158E-02 -0.158E-02
 -21.856 -0.166E-02 -0.166E-02
 -21.846 -0.174E-02 -0.174E-02
 -21.836 -0.183E-02 -0.183E-02
 -21.826 -0.192E-02 -0.192E-02
 -21.816 -0.202E-02 -0.202E-02
 -21.806 -0.212E-02 -0.212E-02
 -21.796 -0.222E-02 -0.222E-02
 -21.786 -0.232E-02 -0.232E-02
 -21.776 -0.243E-02 -0.243E-02
 -21.766 -0.254E-02 -0.254E-02
 -21.756 -0.265E-02 -0.265E-02
 -21.746 -0.277E-02 -0.277E-02
 -21.736 -0.289E-02 -0.289E-02
 -21.726 -0.301E-02 -0.301E-02
 -21.716 -0.314E-02 -0.314E-02
 -21.706 -0.327E-02 -0.327E-02
 -21.696 -0.340E-02 -0.340E-02
 -21.686 -0.354E-02 -0.354E-02
 -21.676 -0.367E-02 -0.367E-02
 -21.666 -0.381E-02 -0.381E-02
 -21.656 -0.395E-02 -0.395E-02
 -21.646 -0.410E-02 -0.410E-02
 -21.636 -0.424E-02 -0.424E-02
 -21.626 -0.439E-02 -0.439E-02
 -21.616 -0.454E-02 -0.454E-02
 -21.606 -0.469E-02 -0.469E-02
 -21.596 -0.484E-02 -0.484E-02
 -21.586 -0.499E-02 -0.499E-02
 -21.576 -0.514E-02 -0.514E-02
 -21.566 -0.529E-02 -0.529E-02
 -21.556 -0.544E-02 -0.544E-02
 -21.546 -0.559E-02 -0.559E-02
 -21.536 -0.573E-02 -0.573E-02
 -21.526 -0.588E-02 -0.588E-02
 -21.516 -0.602E-02 -0.602E-02
 -21.506 -0.616E-02 -0.616E-02
 -21.496 -0.629E-02 -0.629E-02
 -21.486 -0.642E-02 -0.642E-02
 -21.476 -0.655E-02 -0.655E-02
 -21.466 -0.667E-02 -0.667E-02
 -21.456 -0.678E-02 -0.678E-02
 -21.446 -0.688E-02 -0.688E-02
 -21.436 -0.698E-02 -0.698E-02
 -21.426 -0.707E-02 -0.707E-02
 -21.416 -0.715E-02 -0.715E-02
 -21.406 -0.721E-02 -0.721E-02
 -21.396 -0.727E-02 -0.727E-02
 -21.386 -0.732E-02 -0.732E-02
 -21.376 -0.735E-02 -0.735E-02
 -21.366 -0.736E-02 -0.736E-02
 -21.356 -0.737E-02 -0.737E-02
 -21.346 -0.735E-02 -0.735E-02
 -21.336 -0.732E-02 -0.732E-02
 -21.326 -0.727E-02 -0.727E-02
 -21.316 -0.720E-02 -0.720E-02
 -21.306 -0.711E-02 -0.711E-02
 -21.296 -0.699E-02 -0.699E-02
 -21.286 -0.686E-02 -0.686E-02
 -21.276 -0.670E-02 -0.670E-02
 -21.266 -0.652E-02 -0.652E-02
 -21.256 -0.631E-02 -0.631E-02
 -21.246 -0.607E-02 -0.607E-02
 -21.236 -0.580E-02 -0.580E-02
 -21.226 -0.550E-02 -0.550E-02
 -21.216 -0.518E-02 -0.518E-02
 -21.206 -0.482E-02 -0.482E-02
 -21.196 -0.442E-02 -0.442E-02
 -21.186 -0.399E-02 -0.399E-02
 -21.176 -0.353E-02 -0.353E-02
 -21.166 -0.303E-02 -0.303E-02
 -21.156 -0.249E-02 -0.249E-02
 -21.146 -0.191E-02 -0.191E-02
 -21.136 -0.130E-02 -0.130E-02
 -21.126 -0.638E-03 -0.638E-03
 -21.116  0.621E-04  0.621E-04
 -21.106  0.805E-03  0.805E-03
 -21.096  0.159E-02  0.159E-02
 -21.086  0.242E-02  0.242E-02
 -21.076  0.330E-02  0.330E-02
 -21.066  0.422E-02  0.422E-02
 -21.056  0.519E-02  0.519E-02
 -21.046  0.620E-02  0.620E-02
 -21.036  0.727E-02  0.727E-02
 -21.026  0.838E-02  0.838E-02
 -21.016  0.954E-02  0.954E-02
 -21.006  0.107E-01  0.107E-01
 -20.996  0.120E-01  0.120E-01
 -20.986  0.133E-01  0.133E-01
 -20.976  0.147E-01  0.147E-01
 -20.966  0.161E-01  0.161E-01
 -20.956  0.175E-01  0.175E-01
 -20.946  0.190E-01  0.190E-01
 -20.936  0.206E-01  0.206E-01
 -20.926  0.222E-01  0.222E-01
 -20.916  0.238E-01  0.238E-01
 -20.906  0.255E-01  0.255E-01
 -20.896  0.272E-01  0.272E-01
 -20.886  0.290E-01  0.290E-01
 -20.876  0.308E-01  0.308E-01
 -20.866  0.326E-01  0.326E-01
 -20.856  0.345E-01  0.345E-01
 -20.846  0.365E-01  0.365E-01
 -20.836  0.384E-01  0.384E-01
 -20.826  0.405E-01  0.405E-01
 -20.816  0.425E-01  0.425E-01
 -20.806  0.446E-01  0.446E-01
 -20.796  0.467E-01  0.467E-01
 -20.786  0.488E-01  0.488E-01
 -20.776  0.509E-01  0.509E-01
 -20.766  0.531E-01  0.531E-01
 -20.756  0.553E-01  0.553E-01
 -20.746  0.575E-01  0.575E-01
 -20.736  0.597E-01  0.597E-01
 -20.726  0.620E-01  0.620E-01
 -20.716  0.642E-01  0.642E-01
 -20.706  0.664E-01  0.664E-01
 -20.696  0.687E-01  0.687E-01
 -20.686  0.709E-01  0.709E-01
 -20.676  0.732E-01  0.732E-01
 -20.666  0.754E-01  0.754E-01
 -20.656  0.776E-01  0.776E-01
 -20.646  0.798E-01  0.798E-01
 -20.636  0.820E-01  0.820E-01
 -20.626  0.842E-01  0.842E-01
 -20.616  0.863E-01  0.863E-01
 -20.606  0.885E-01  0.885E-01
 -20.596  0.905E-01  0.905E-01
 -20.586  0.926E-01  0.926E-01
 -20.576  0.946E-01  0.946E-01
 -20.566  0.966E-01  0.966E-01
 -20.556  0.985E-01  0.985E-01
 -20.546  0.100E+00  0.100E+00
 -20.536  0.102E+00  0.102E+00
 -20.526  0.104E+00  0.104E+00
 -20.516  0.106E+00  0.106E+00
 -20.506  0.107E+00  0.107E+00
 -20.496  0.109E+00  0.109E+00
 -20.486  0.110E+00  0.110E+00
 -20.476  0.112E+00  0.112E+00
 -20.466  0.113E+00  0.113E+00
 -20.456  0.114E+00  0.114E+00
 -20.446  0.116E+00  0.116E+00
 -20.436  0.117E+00  0.117E+00
 -20.426  0.118E+00  0.118E+00
 -20.416  0.119E+00  0.119E+00
 -20.406  0.120E+00  0.120E+00
 -20.396  0.120E+00  0.120E+00
 -20.386  0.121E+00  0.121E+00
 -20.376  0.122E+00  0.122E+00
 -20.366  0.122E+00  0.122E+00
 -20.356  0.123E+00  0.123E+00
 -20.346  0.123E+00  0.123E+00
 -20.336  0.123E+00  0.123E+00
 -20.326  0.123E+00  0.123E+00
 -20.316  0.123E+00  0.123E+00
 -20.306  0.123E+00  0.123E+00
 -20.296  0.123E+00  0.123E+00
 -20.286  0.123E+00  0.123E+00
 -20.276  0.122E+00  0.122E+00
 -20.266  0.122E+00  0.122E+00
 -20.256  0.121E+00  0.121E+00
 -20.246  0.120E+00  0.120E+00
 -20.236  0.120E+00  0.120E+00
 -20.226  0.119E+00  0.119E+00
 -20.216  0.118E+00  0.118E+00
 -20.206  0.117E+00  0.117E+00
 -20.196  0.116E+00  0.116E+00
 -20.186  0.115E+00  0.115E+00
 -20.176  0.114E+00  0.114E+00
 -20.166  0.112E+00  0.112E+00
 -20.156  0.111E+00  0.111E+00
 -20.146  0.109E+00  0.109E+00
 -20.136  0.108E+00  0.108E+00
 -20.126  0.106E+00  0.106E+00
 -20.116  0.105E+00  0.105E+00
 -20.106  0.103E+00  0.103E+00
 -20.096  0.101E+00  0.101E+00
 -20.086  0.997E-01  0.997E-01
 -20.076  0.980E-01  0.980E-01
 -20.066  0.962E-01  0.962E-01
 -20.056  0.944E-01  0.944E-01
 -20.046  0.926E-01  0.926E-01
 -20.036  0.908E-01  0.908E-01
 -20.026  0.889E-01  0.889E-01
 -20.016  0.871E-01  0.871E-01
 -20.006  0.853E-01  0.853E-01
 -19.996  0.835E-01  0.835E-01
 -19.986  0.817E-01  0.817E-01
 -19.976  0.799E-01  0.799E-01
 -19.966  0.782E-01  0.782E-01
 -19.956  0.765E-01  0.765E-01
 -19.946  0.749E-01  0.749E-01
 -19.936  0.733E-01  0.733E-01
 -19.926  0.718E-01  0.718E-01
 -19.916  0.703E-01  0.703E-01
 -19.906  0.689E-01  0.689E-01
 -19.896  0.676E-01  0.676E-01
 -19.886  0.663E-01  0.663E-01
 -19.876  0.652E-01  0.652E-01
 -19.866  0.641E-01  0.641E-01
 -19.856  0.631E-01  0.631E-01
 -19.846  0.622E-01  0.622E-01
 -19.836  0.615E-01  0.615E-01
 -19.826  0.608E-01  0.608E-01
 -19.816  0.603E-01  0.603E-01
 -19.806  0.599E-01  0.599E-01
 -19.796  0.596E-01  0.596E-01
 -19.786  0.594E-01  0.594E-01
 -19.776  0.594E-01  0.594E-01
 -19.766  0.595E-01  0.595E-01
 -19.756  0.598E-01  0.598E-01
 -19.746  0.602E-01  0.602E-01
 -19.736  0.607E-01  0.607E-01
 -19.726  0.614E-01  0.614E-01
 -19.716  0.623E-01  0.623E-01
 -19.706  0.633E-01  0.633E-01
 -19.696  0.645E-01  0.645E-01
 -19.686  0.658E-01  0.658E-01
 -19.676  0.672E-01  0.672E-01
 -19.666  0.689E-01  0.689E-01
 -19.656  0.707E-01  0.707E-01
 -19.646  0.726E-01  0.726E-01
 -19.636  0.747E-01  0.747E-01
 -19.626  0.770E-01  0.770E-01
 -19.616  0.794E-01  0.794E-01
 -19.606  0.819E-01  0.819E-01
 -19.596  0.847E-01  0.847E-01
 -19.586  0.875E-01  0.875E-01
 -19.576  0.905E-01  0.905E-01
 -19.566  0.937E-01  0.937E-01
 -19.556  0.970E-01  0.970E-01
 -19.546  0.100E+00  0.100E+00
 -19.536  0.104E+00  0.104E+00
 -19.526  0.108E+00  0.108E+00
 -19.516  0.112E+00  0.112E+00
 -19.506  0.115E+00  0.115E+00
 -19.496  0.119E+00  0.119E+00
 -19.486  0.124E+00  0.124E+00
 -19.476  0.128E+00  0.128E+00
 -19.466  0.132E+00  0.132E+00
 -19.456  0.137E+00  0.137E+00
 -19.446  0.141E+00  0.141E+00
 -19.436  0.146E+00  0.146E+00
 -19.426  0.150E+00  0.150E+00
 -19.416  0.155E+00  0.155E+00
 -19.406  0.160E+00  0.160E+00
 -19.396  0.165E+00  0.165E+00
 -19.386  0.170E+00  0.170E+00
 -19.376  0.174E+00  0.174E+00
 -19.366  0.179E+00  0.179E+00
 -19.356  0.184E+00  0.184E+00
 -19.346  0.189E+00  0.189E+00
 -19.336  0.194E+00  0.194E+00
 -19.326  0.199E+00  0.199E+00
 -19.316  0.204E+00  0.204E+00
 -19.306  0.209E+00  0.209E+00
 -19.296  0.213E+00  0.213E+00
 -19.286  0.218E+00  0.218E+00
 -19.276  0.223E+00  0.223E+00
 -19.266  0.227E+00  0.227E+00
 -19.256  0.232E+00  0.232E+00
 -19.246  0.236E+00  0.236E+00
 -19.236  0.241E+00  0.241E+00
 -19.226  0.245E+00  0.245E+00
 -19.216  0.249E+00  0.249E+00
 -19.206  0.253E+00  0.253E+00
 -19.196  0.257E+00  0.257E+00
 -19.186  0.261E+00  0.261E+00
 -19.176  0.264E+00  0.264E+00
 -19.166  0.268E+00  0.268E+00
 -19.156  0.271E+00  0.271E+00
 -19.146  0.274E+00  0.274E+00
 -19.136  0.277E+00  0.277E+00
 -19.126  0.280E+00  0.280E+00
 -19.116  0.282E+00  0.282E+00
 -19.106  0.285E+00  0.285E+00
 -19.096  0.287E+00  0.287E+00
 -19.086  0.289E+00  0.289E+00
 -19.076  0.291E+00  0.291E+00
 -19.066  0.292E+00  0.292E+00
 -19.056  0.294E+00  0.294E+00
 -19.046  0.295E+00  0.295E+00
 -19.036  0.296E+00  0.296E+00
 -19.026  0.297E+00  0.297E+00
 -19.016  0.297E+00  0.297E+00
 -19.006  0.298E+00  0.298E+00
 -18.996  0.298E+00  0.298E+00
 -18.986  0.298E+00  0.298E+00
 -18.976  0.297E+00  0.297E+00
 -18.966  0.297E+00  0.297E+00
 -18.956  0.296E+00  0.296E+00
 -18.946  0.295E+00  0.295E+00
 -18.936  0.294E+00  0.294E+00
 -18.926  0.293E+00  0.293E+00
 -18.916  0.291E+00  0.291E+00
 -18.906  0.289E+00  0.289E+00
 -18.896  0.287E+00  0.287E+00
 -18.886  0.285E+00  0.285E+00
 -18.876  0.283E+00  0.283E+00
 -18.866  0.280E+00  0.280E+00
 -18.856  0.277E+00  0.277E+00
 -18.846  0.274E+00  0.274E+00
 -18.836  0.271E+00  0.271E+00
 -18.826  0.268E+00  0.268E+00
 -18.816  0.264E+00  0.264E+00
 -18.806  0.261E+00  0.261E+00
 -18.796  0.257E+00  0.257E+00
 -18.786  0.253E+00  0.253E+00
 -18.776  0.249E+00  0.249E+00
 -18.766  0.245E+00  0.245E+00
 -18.756  0.241E+00  0.241E+00
 -18.746  0.236E+00  0.236E+00
 -18.736  0.232E+00  0.232E+00
 -18.726  0.227E+00  0.227E+00
 -18.716  0.222E+00  0.222E+00
 -18.706  0.217E+00  0.217E+00
 -18.696  0.212E+00  0.212E+00
 -18.686  0.207E+00  0.207E+00
 -18.676  0.202E+00  0.202E+00
 -18.666  0.197E+00  0.197E+00
 -18.656  0.192E+00  0.192E+00
 -18.646  0.187E+00  0.187E+00
 -18.636  0.182E+00  0.182E+00
 -18.626  0.176E+00  0.176E+00
 -18.616  0.171E+00  0.171E+00
 -18.606  0.166E+00  0.166E+00
 -18.596  0.160E+00  0.160E+00
 -18.586  0.155E+00  0.155E+00
 -18.576  0.150E+00  0.150E+00
 -18.566  0.144E+00  0.144E+00
 -18.556  0.139E+00  0.139E+00
 -18.546  0.134E+00  0.134E+00
 -18.536  0.129E+00  0.129E+00
 -18.526  0.124E+00  0.124E+00
 -18.516  0.119E+00  0.119E+00
 -18.506  0.113E+00  0.113E+00
 -18.496  0.108E+00  0.108E+00
 -18.486  0.103E+00  0.103E+00
 -18.476  0.986E-01  0.986E-01
 -18.466  0.938E-01  0.938E-01
 -18.456  0.891E-01  0.891E-01
 -18.446  0.844E-01  0.844E-01
 -18.436  0.798E-01  0.798E-01
 -18.426  0.753E-01  0.753E-01
 -18.416  0.709E-01  0.709E-01
 -18.406  0.666E-01  0.666E-01
 -18.396  0.624E-01  0.624E-01
 -18.386  0.583E-01  0.583E-01
 -18.376  0.543E-01  0.543E-01
 -18.366  0.504E-01  0.504E-01
 -18.356  0.466E-01  0.466E-01
 -18.346  0.429E-01  0.429E-01
 -18.336  0.393E-01  0.393E-01
 -18.326  0.358E-01  0.358E-01
 -18.316  0.324E-01  0.324E-01
 -18.306  0.292E-01  0.292E-01
 -18.296  0.260E-01  0.260E-01
 -18.286  0.230E-01  0.230E-01
 -18.276  0.200E-01  0.200E-01
 -18.266  0.172E-01  0.172E-01
 -18.256  0.145E-01  0.145E-01
 -18.246  0.119E-01  0.119E-01
 -18.236  0.937E-02  0.937E-02
 -18.226  0.698E-02  0.698E-02
 -18.216  0.468E-02  0.468E-02
 -18.206  0.249E-02  0.249E-02
 -18.196  0.409E-03  0.409E-03
 -18.186 -0.157E-02 -0.157E-02
 -18.176 -0.346E-02 -0.346E-02
 -18.166 -0.524E-02 -0.524E-02
 -18.156 -0.693E-02 -0.693E-02
 -18.146 -0.853E-02 -0.853E-02
 -18.136 -0.100E-01 -0.100E-01
 -18.126 -0.114E-01 -0.114E-01
 -18.116 -0.128E-01 -0.128E-01
 -18.106 -0.140E-01 -0.140E-01
 -18.096 -0.151E-01 -0.151E-01
 -18.086 -0.162E-01 -0.162E-01
 -18.076 -0.172E-01 -0.172E-01
 -18.066 -0.181E-01 -0.181E-01
 -18.056 -0.189E-01 -0.189E-01
 -18.046 -0.197E-01 -0.197E-01
 -18.036 -0.204E-01 -0.204E-01
 -18.026 -0.210E-01 -0.210E-01
 -18.016 -0.215E-01 -0.215E-01
 -18.006 -0.220E-01 -0.220E-01
 -17.996 -0.224E-01 -0.224E-01
 -17.986 -0.228E-01 -0.228E-01
 -17.976 -0.231E-01 -0.231E-01
 -17.966 -0.233E-01 -0.233E-01
 -17.956 -0.235E-01 -0.235E-01
 -17.946 -0.236E-01 -0.236E-01
 -17.936 -0.237E-01 -0.237E-01
 -17.926 -0.237E-01 -0.237E-01
 -17.916 -0.236E-01 -0.236E-01
 -17.906 -0.235E-01 -0.235E-01
 -17.896 -0.234E-01 -0.234E-01
 -17.886 -0.232E-01 -0.232E-01
 -17.876 -0.230E-01 -0.230E-01
 -17.866 -0.227E-01 -0.227E-01
 -17.856 -0.224E-01 -0.224E-01
 -17.846 -0.220E-01 -0.220E-01
 -17.836 -0.216E-01 -0.216E-01
 -17.826 -0.211E-01 -0.211E-01
 -17.816 -0.206E-01 -0.206E-01
 -17.806 -0.201E-01 -0.201E-01
 -17.796 -0.195E-01 -0.195E-01
 -17.786 -0.189E-01 -0.189E-01
 -17.776 -0.182E-01 -0.182E-01
 -17.766 -0.175E-01 -0.175E-01
 -17.756 -0.168E-01 -0.168E-01
 -17.746 -0.160E-01 -0.160E-01
 -17.736 -0.152E-01 -0.152E-01
 -17.726 -0.144E-01 -0.144E-01
 -17.716 -0.135E-01 -0.135E-01
 -17.706 -0.126E-01 -0.126E-01
 -17.696 -0.116E-01 -0.116E-01
 -17.686 -0.106E-01 -0.106E-01
 -17.676 -0.954E-02 -0.954E-02
 -17.666 -0.846E-02 -0.846E-02
 -17.656 -0.734E-02 -0.734E-02
 -17.646 -0.618E-02 -0.618E-02
 -17.636 -0.498E-02 -0.498E-02
 -17.626 -0.375E-02 -0.375E-02
 -17.616 -0.248E-02 -0.248E-02
 -17.606 -0.117E-02 -0.117E-02
 -17.596  0.178E-03  0.178E-03
 -17.586  0.156E-02  0.156E-02
 -17.576  0.299E-02  0.299E-02
 -17.566  0.445E-02  0.445E-02
 -17.556  0.595E-02  0.595E-02
 -17.546  0.748E-02  0.748E-02
 -17.536  0.905E-02  0.905E-02
 -17.526  0.107E-01  0.107E-01
 -17.516  0.123E-01  0.123E-01
 -17.506  0.140E-01  0.140E-01
 -17.496  0.157E-01  0.157E-01
 -17.486  0.175E-01  0.175E-01
 -17.476  0.192E-01  0.192E-01
 -17.466  0.211E-01  0.211E-01
 -17.456  0.229E-01  0.229E-01
 -17.446  0.248E-01  0.248E-01
 -17.436  0.267E-01  0.267E-01
 -17.426  0.286E-01  0.286E-01
 -17.416  0.306E-01  0.306E-01
 -17.406  0.326E-01  0.326E-01
 -17.396  0.346E-01  0.346E-01
 -17.386  0.367E-01  0.367E-01
 -17.376  0.387E-01  0.387E-01
 -17.366  0.408E-01  0.408E-01
 -17.356  0.429E-01  0.429E-01
 -17.346  0.450E-01  0.450E-01
 -17.336  0.472E-01  0.472E-01
 -17.326  0.493E-01  0.493E-01
 -17.316  0.515E-01  0.515E-01
 -17.306  0.537E-01  0.537E-01
 -17.296  0.559E-01  0.559E-01
 -17.286  0.581E-01  0.581E-01
 -17.276  0.603E-01  0.603E-01
 -17.266  0.625E-01  0.625E-01
 -17.256  0.647E-01  0.647E-01
 -17.246  0.669E-01  0.669E-01
 -17.236  0.691E-01  0.691E-01
 -17.226  0.713E-01  0.713E-01
 -17.216  0.734E-01  0.734E-01
 -17.206  0.756E-01  0.756E-01
 -17.196  0.778E-01  0.778E-01
 -17.186  0.799E-01  0.799E-01
 -17.176  0.820E-01  0.820E-01
 -17.166  0.841E-01  0.841E-01
 -17.156  0.862E-01  0.862E-01
 -17.146  0.883E-01  0.883E-01
 -17.136  0.903E-01  0.903E-01
 -17.126  0.923E-01  0.923E-01
 -17.116  0.943E-01  0.943E-01
 -17.106  0.962E-01  0.962E-01
 -17.096  0.981E-01  0.981E-01
 -17.086  0.100E+00  0.100E+00
 -17.076  0.102E+00  0.102E+00
 -17.066  0.104E+00  0.104E+00
 -17.056  0.105E+00  0.105E+00
 -17.046  0.107E+00  0.107E+00
 -17.036  0.109E+00  0.109E+00
 -17.026  0.110E+00  0.110E+00
 -17.016  0.112E+00  0.112E+00
 -17.006  0.113E+00  0.113E+00
 -16.996  0.115E+00  0.115E+00
 -16.986  0.116E+00  0.116E+00
 -16.976  0.118E+00  0.118E+00
 -16.966  0.119E+00  0.119E+00
 -16.956  0.120E+00  0.120E+00
 -16.946  0.121E+00  0.121E+00
 -16.936  0.123E+00  0.123E+00
 -16.926  0.124E+00  0.124E+00
 -16.916  0.125E+00  0.125E+00
 -16.906  0.126E+00  0.126E+00
 -16.896  0.127E+00  0.127E+00
 -16.886  0.128E+00  0.128E+00
 -16.876  0.128E+00  0.128E+00
 -16.866  0.129E+00  0.129E+00
 -16.856  0.130E+00  0.130E+00
 -16.846  0.130E+00  0.130E+00
 -16.836  0.131E+00  0.131E+00
 -16.826  0.132E+00  0.132E+00
 -16.816  0.132E+00  0.132E+00
 -16.806  0.133E+00  0.133E+00
 -16.796  0.133E+00  0.133E+00
 -16.786  0.133E+00  0.133E+00
 -16.776  0.134E+00  0.134E+00
 -16.766  0.134E+00  0.134E+00
 -16.756  0.134E+00  0.134E+00
 -16.746  0.134E+00  0.134E+00
 -16.736  0.134E+00  0.134E+00
 -16.726  0.135E+00  0.135E+00
 -16.716  0.135E+00  0.135E+00
 -16.706  0.135E+00  0.135E+00
 -16.696  0.135E+00  0.135E+00
 -16.686  0.135E+00  0.135E+00
 -16.676  0.135E+00  0.135E+00
 -16.666  0.134E+00  0.134E+00
 -16.656  0.134E+00  0.134E+00
 -16.646  0.134E+00  0.134E+00
 -16.636  0.134E+00  0.134E+00
 -16.626  0.134E+00  0.134E+00
 -16.616  0.134E+00  0.134E+00
 -16.606  0.133E+00  0.133E+00
 -16.596  0.133E+00  0.133E+00
 -16.586  0.133E+00  0.133E+00
 -16.576  0.132E+00  0.132E+00
 -16.566  0.132E+00  0.132E+00
 -16.556  0.132E+00  0.132E+00
 -16.546  0.131E+00  0.131E+00
 -16.536  0.131E+00  0.131E+00
 -16.526  0.131E+00  0.131E+00
 -16.516  0.130E+00  0.130E+00
 -16.506  0.130E+00  0.130E+00
 -16.496  0.130E+00  0.130E+00
 -16.486  0.129E+00  0.129E+00
 -16.476  0.129E+00  0.129E+00
 -16.466  0.128E+00  0.128E+00
 -16.456  0.128E+00  0.128E+00
 -16.446  0.127E+00  0.127E+00
 -16.436  0.127E+00  0.127E+00
 -16.426  0.127E+00  0.127E+00
 -16.416  0.126E+00  0.126E+00
 -16.406  0.126E+00  0.126E+00
 -16.396  0.125E+00  0.125E+00
 -16.386  0.125E+00  0.125E+00
 -16.376  0.124E+00  0.124E+00
 -16.366  0.124E+00  0.124E+00
 -16.356  0.123E+00  0.123E+00
 -16.346  0.123E+00  0.123E+00
 -16.336  0.122E+00  0.122E+00
 -16.326  0.122E+00  0.122E+00
 -16.316  0.121E+00  0.121E+00
 -16.306  0.121E+00  0.121E+00
 -16.296  0.120E+00  0.120E+00
 -16.286  0.120E+00  0.120E+00
 -16.276  0.119E+00  0.119E+00
 -16.266  0.119E+00  0.119E+00
 -16.256  0.118E+00  0.118E+00
 -16.246  0.118E+00  0.118E+00
 -16.236  0.117E+00  0.117E+00
 -16.226  0.116E+00  0.116E+00
 -16.216  0.116E+00  0.116E+00
 -16.206  0.115E+00  0.115E+00
 -16.196  0.114E+00  0.114E+00
 -16.186  0.114E+00  0.114E+00
 -16.176  0.113E+00  0.113E+00
 -16.166  0.112E+00  0.112E+00
 -16.156  0.111E+00  0.111E+00
 -16.146  0.111E+00  0.111E+00
 -16.136  0.110E+00  0.110E+00
 -16.126  0.109E+00  0.109E+00
 -16.116  0.108E+00  0.108E+00
 -16.106  0.107E+00  0.107E+00
 -16.096  0.106E+00  0.106E+00
 -16.086  0.105E+00  0.105E+00
 -16.076  0.104E+00  0.104E+00
 -16.066  0.103E+00  0.103E+00
 -16.056  0.102E+00  0.102E+00
 -16.046  0.101E+00  0.101E+00
 -16.036  0.100E+00  0.100E+00
 -16.026  0.988E-01  0.988E-01
 -16.016  0.976E-01  0.976E-01
 -16.006  0.964E-01  0.964E-01
 -15.996  0.952E-01  0.952E-01
 -15.986  0.939E-01  0.939E-01
 -15.976  0.926E-01  0.926E-01
 -15.966  0.913E-01  0.913E-01
 -15.956  0.899E-01  0.899E-01
 -15.946  0.886E-01  0.886E-01
 -15.936  0.872E-01  0.872E-01
 -15.926  0.857E-01  0.857E-01
 -15.916  0.843E-01  0.843E-01
 -15.906  0.828E-01  0.828E-01
 -15.896  0.813E-01  0.813E-01
 -15.886  0.797E-01  0.797E-01
 -15.876  0.782E-01  0.782E-01
 -15.866  0.766E-01  0.766E-01
 -15.856  0.750E-01  0.750E-01
 -15.846  0.734E-01  0.734E-01
 -15.836  0.717E-01  0.717E-01
 -15.826  0.701E-01  0.701E-01
 -15.816  0.684E-01  0.684E-01
 -15.806  0.668E-01  0.668E-01
 -15.796  0.651E-01  0.651E-01
 -15.786  0.634E-01  0.634E-01
 -15.776  0.617E-01  0.617E-01
 -15.766  0.600E-01  0.600E-01
 -15.756  0.583E-01  0.583E-01
 -15.746  0.566E-01  0.566E-01
 -15.736  0.549E-01  0.549E-01
 -15.726  0.532E-01  0.532E-01
 -15.716  0.515E-01  0.515E-01
 -15.706  0.498E-01  0.498E-01
 -15.696  0.481E-01  0.481E-01
 -15.686  0.464E-01  0.464E-01
 -15.676  0.447E-01  0.447E-01
 -15.666  0.431E-01  0.431E-01
 -15.656  0.414E-01  0.414E-01
 -15.646  0.398E-01  0.398E-01
 -15.636  0.381E-01  0.381E-01
 -15.626  0.365E-01  0.365E-01
 -15.616  0.349E-01  0.349E-01
 -15.606  0.334E-01  0.334E-01
 -15.596  0.318E-01  0.318E-01
 -15.586  0.303E-01  0.303E-01
 -15.576  0.288E-01  0.288E-01
 -15.566  0.273E-01  0.273E-01
 -15.556  0.259E-01  0.259E-01
 -15.546  0.244E-01  0.244E-01
 -15.536  0.230E-01  0.230E-01
 -15.526  0.217E-01  0.217E-01
 -15.516  0.203E-01  0.203E-01
 -15.506  0.190E-01  0.190E-01
 -15.496  0.177E-01  0.177E-01
 -15.486  0.165E-01  0.165E-01
 -15.476  0.153E-01  0.153E-01
 -15.466  0.141E-01  0.141E-01
 -15.456  0.129E-01  0.129E-01
 -15.446  0.118E-01  0.118E-01
 -15.436  0.107E-01  0.107E-01
 -15.426  0.967E-02  0.967E-02
 -15.416  0.865E-02  0.865E-02
 -15.406  0.766E-02  0.766E-02
 -15.396  0.671E-02  0.671E-02
 -15.386  0.578E-02  0.578E-02
 -15.376  0.490E-02  0.490E-02
 -15.366  0.404E-02  0.404E-02
 -15.356  0.322E-02  0.322E-02
 -15.346  0.243E-02  0.243E-02
 -15.336  0.167E-02  0.167E-02
 -15.326  0.941E-03  0.941E-03
 -15.316  0.246E-03  0.246E-03
 -15.306 -0.419E-03 -0.419E-03
 -15.296 -0.105E-02 -0.105E-02
 -15.286 -0.166E-02 -0.166E-02
 -15.276 -0.224E-02 -0.224E-02
 -15.266 -0.278E-02 -0.278E-02
 -15.256 -0.330E-02 -0.330E-02
 -15.246 -0.380E-02 -0.380E-02
 -15.236 -0.426E-02 -0.426E-02
 -15.226 -0.470E-02 -0.470E-02
 -15.216 -0.512E-02 -0.512E-02
 -15.206 -0.551E-02 -0.551E-02
 -15.196 -0.588E-02 -0.588E-02
 -15.186 -0.622E-02 -0.622E-02
 -15.176 -0.655E-02 -0.655E-02
 -15.166 -0.685E-02 -0.685E-02
 -15.156 -0.713E-02 -0.713E-02
 -15.146 -0.739E-02 -0.739E-02
 -15.136 -0.764E-02 -0.764E-02
 -15.126 -0.786E-02 -0.786E-02
 -15.116 -0.807E-02 -0.807E-02
 -15.106 -0.826E-02 -0.826E-02
 -15.096 -0.844E-02 -0.844E-02
 -15.086 -0.860E-02 -0.860E-02
 -15.076 -0.874E-02 -0.874E-02
 -15.066 -0.888E-02 -0.888E-02
 -15.056 -0.899E-02 -0.899E-02
 -15.046 -0.910E-02 -0.910E-02
 -15.036 -0.919E-02 -0.919E-02
 -15.026 -0.928E-02 -0.928E-02
 -15.016 -0.935E-02 -0.935E-02
 -15.006 -0.941E-02 -0.941E-02
 -14.996 -0.946E-02 -0.946E-02
 -14.986 -0.950E-02 -0.950E-02
 -14.976 -0.953E-02 -0.953E-02
 -14.966 -0.955E-02 -0.955E-02
 -14.956 -0.956E-02 -0.956E-02
 -14.946 -0.956E-02 -0.956E-02
 -14.936 -0.956E-02 -0.956E-02
 -14.926 -0.955E-02 -0.955E-02
 -14.916 -0.953E-02 -0.953E-02
 -14.906 -0.950E-02 -0.950E-02
 -14.896 -0.946E-02 -0.946E-02
 -14.886 -0.942E-02 -0.942E-02
 -14.876 -0.937E-02 -0.937E-02
 -14.866 -0.931E-02 -0.931E-02
 -14.856 -0.924E-02 -0.924E-02
 -14.846 -0.916E-02 -0.916E-02
 -14.836 -0.908E-02 -0.908E-02
 -14.826 -0.898E-02 -0.898E-02
 -14.816 -0.888E-02 -0.888E-02
 -14.806 -0.877E-02 -0.877E-02
 -14.796 -0.865E-02 -0.865E-02
 -14.786 -0.852E-02 -0.852E-02
 -14.776 -0.838E-02 -0.838E-02
 -14.766 -0.823E-02 -0.823E-02
 -14.756 -0.807E-02 -0.807E-02
 -14.746 -0.789E-02 -0.789E-02
 -14.736 -0.771E-02 -0.771E-02
 -14.726 -0.751E-02 -0.751E-02
 -14.716 -0.730E-02 -0.730E-02
 -14.706 -0.708E-02 -0.708E-02
 -14.696 -0.684E-02 -0.684E-02
 -14.686 -0.659E-02 -0.659E-02
 -14.676 -0.632E-02 -0.632E-02
 -14.666 -0.604E-02 -0.604E-02
 -14.656 -0.574E-02 -0.574E-02
 -14.646 -0.542E-02 -0.542E-02
 -14.636 -0.508E-02 -0.508E-02
 -14.626 -0.473E-02 -0.473E-02
 -14.616 -0.436E-02 -0.436E-02
 -14.606 -0.397E-02 -0.397E-02
 -14.596 -0.355E-02 -0.355E-02
 -14.586 -0.312E-02 -0.312E-02
 -14.576 -0.266E-02 -0.266E-02
 -14.566 -0.219E-02 -0.219E-02
 -14.556 -0.169E-02 -0.169E-02
 -14.546 -0.116E-02 -0.116E-02
 -14.536 -0.614E-03 -0.614E-03
 -14.526 -0.419E-04 -0.419E-04
 -14.516  0.556E-03  0.556E-03
 -14.506  0.118E-02  0.118E-02
 -14.496  0.183E-02  0.183E-02
 -14.486  0.250E-02  0.250E-02
 -14.476  0.321E-02  0.321E-02
 -14.466  0.394E-02  0.394E-02
 -14.456  0.470E-02  0.470E-02
 -14.446  0.548E-02  0.548E-02
 -14.436  0.630E-02  0.630E-02
 -14.426  0.714E-02  0.714E-02
 -14.416  0.801E-02  0.801E-02
 -14.406  0.891E-02  0.891E-02
 -14.396  0.984E-02  0.984E-02
 -14.386  0.108E-01  0.108E-01
 -14.376  0.118E-01  0.118E-01
 -14.366  0.128E-01  0.128E-01
 -14.356  0.139E-01  0.139E-01
 -14.346  0.149E-01  0.149E-01
 -14.336  0.160E-01  0.160E-01
 -14.326  0.172E-01  0.172E-01
 -14.316  0.183E-01  0.183E-01
 -14.306  0.195E-01  0.195E-01
 -14.296  0.207E-01  0.207E-01
 -14.286  0.220E-01  0.220E-01
 -14.276  0.233E-01  0.233E-01
 -14.266  0.245E-01  0.245E-01
 -14.256  0.259E-01  0.259E-01
 -14.246  0.272E-01  0.272E-01
 -14.236  0.286E-01  0.286E-01
 -14.226  0.300E-01  0.300E-01
 -14.216  0.314E-01  0.314E-01
 -14.206  0.328E-01  0.328E-01
 -14.196  0.343E-01  0.343E-01
 -14.186  0.358E-01  0.358E-01
 -14.176  0.373E-01  0.373E-01
 -14.166  0.388E-01  0.388E-01
 -14.156  0.403E-01  0.403E-01
 -14.146  0.418E-01  0.418E-01
 -14.136  0.434E-01  0.434E-01
 -14.126  0.450E-01  0.450E-01
 -14.116  0.466E-01  0.466E-01
 -14.106  0.482E-01  0.482E-01
 -14.096  0.498E-01  0.498E-01
 -14.086  0.514E-01  0.514E-01
 -14.076  0.530E-01  0.530E-01
 -14.066  0.546E-01  0.546E-01
 -14.056  0.562E-01  0.562E-01
 -14.046  0.578E-01  0.578E-01
 -14.036  0.594E-01  0.594E-01
 -14.026  0.611E-01  0.611E-01
 -14.016  0.627E-01  0.627E-01
 -14.006  0.643E-01  0.643E-01
 -13.996  0.659E-01  0.659E-01
 -13.986  0.675E-01  0.675E-01
 -13.976  0.691E-01  0.691E-01
 -13.966  0.707E-01  0.707E-01
 -13.956  0.722E-01  0.722E-01
 -13.946  0.738E-01  0.738E-01
 -13.936  0.753E-01  0.753E-01
 -13.926  0.768E-01  0.768E-01
 -13.916  0.783E-01  0.783E-01
 -13.906  0.798E-01  0.798E-01
 -13.896  0.812E-01  0.812E-01
 -13.886  0.827E-01  0.827E-01
 -13.876  0.841E-01  0.841E-01
 -13.866  0.855E-01  0.855E-01
 -13.856  0.868E-01  0.868E-01
 -13.846  0.881E-01  0.881E-01
 -13.836  0.894E-01  0.894E-01
 -13.826  0.907E-01  0.907E-01
 -13.816  0.919E-01  0.919E-01
 -13.806  0.931E-01  0.931E-01
 -13.796  0.943E-01  0.943E-01
 -13.786  0.954E-01  0.954E-01
 -13.776  0.965E-01  0.965E-01
 -13.766  0.976E-01  0.976E-01
 -13.756  0.986E-01  0.986E-01
 -13.746  0.996E-01  0.996E-01
 -13.736  0.100E+00  0.100E+00
 -13.726  0.101E+00  0.101E+00
 -13.716  0.102E+00  0.102E+00
 -13.706  0.103E+00  0.103E+00
 -13.696  0.104E+00  0.104E+00
 -13.686  0.105E+00  0.105E+00
 -13.676  0.105E+00  0.105E+00
 -13.666  0.106E+00  0.106E+00
 -13.656  0.106E+00  0.106E+00
 -13.646  0.107E+00  0.107E+00
 -13.636  0.108E+00  0.108E+00
 -13.626  0.108E+00  0.108E+00
 -13.616  0.108E+00  0.108E+00
 -13.606  0.109E+00  0.109E+00
 -13.596  0.109E+00  0.109E+00
 -13.586  0.109E+00  0.109E+00
 -13.576  0.110E+00  0.110E+00
 -13.566  0.110E+00  0.110E+00
 -13.556  0.110E+00  0.110E+00
 -13.546  0.110E+00  0.110E+00
 -13.536  0.110E+00  0.110E+00
 -13.526  0.110E+00  0.110E+00
 -13.516  0.110E+00  0.110E+00
 -13.506  0.110E+00  0.110E+00
 -13.496  0.110E+00  0.110E+00
 -13.486  0.110E+00  0.110E+00
 -13.476  0.110E+00  0.110E+00
 -13.466  0.109E+00  0.109E+00
 -13.456  0.109E+00  0.109E+00
 -13.446  0.109E+00  0.109E+00
 -13.436  0.108E+00  0.108E+00
 -13.426  0.108E+00  0.108E+00
 -13.416  0.108E+00  0.108E+00
 -13.406  0.107E+00  0.107E+00
 -13.396  0.107E+00  0.107E+00
 -13.386  0.106E+00  0.106E+00
 -13.376  0.106E+00  0.106E+00
 -13.366  0.105E+00  0.105E+00
 -13.356  0.104E+00  0.104E+00
 -13.346  0.104E+00  0.104E+00
 -13.336  0.103E+00  0.103E+00
 -13.326  0.102E+00  0.102E+00
 -13.316  0.101E+00  0.101E+00
 -13.306  0.101E+00  0.101E+00
 -13.296  0.999E-01  0.999E-01
 -13.286  0.990E-01  0.990E-01
 -13.276  0.982E-01  0.982E-01
 -13.266  0.973E-01  0.973E-01
 -13.256  0.964E-01  0.964E-01
 -13.246  0.955E-01  0.955E-01
 -13.236  0.945E-01  0.945E-01
 -13.226  0.935E-01  0.935E-01
 -13.216  0.925E-01  0.925E-01
 -13.206  0.915E-01  0.915E-01
 -13.196  0.905E-01  0.905E-01
 -13.186  0.894E-01  0.894E-01
 -13.176  0.884E-01  0.884E-01
 -13.166  0.873E-01  0.873E-01
 -13.156  0.862E-01  0.862E-01
 -13.146  0.851E-01  0.851E-01
 -13.136  0.840E-01  0.840E-01
 -13.126  0.828E-01  0.828E-01
 -13.116  0.817E-01  0.817E-01
 -13.106  0.805E-01  0.805E-01
 -13.096  0.793E-01  0.793E-01
 -13.086  0.782E-01  0.782E-01
 -13.076  0.770E-01  0.770E-01
 -13.066  0.758E-01  0.758E-01
 -13.056  0.746E-01  0.746E-01
 -13.046  0.733E-01  0.733E-01
 -13.036  0.721E-01  0.721E-01
 -13.026  0.709E-01  0.709E-01
 -13.016  0.697E-01  0.697E-01
 -13.006  0.684E-01  0.684E-01
 -12.996  0.672E-01  0.672E-01
 -12.986  0.660E-01  0.660E-01
 -12.976  0.647E-01  0.647E-01
 -12.966  0.635E-01  0.635E-01
 -12.956  0.622E-01  0.622E-01
 -12.946  0.610E-01  0.610E-01
 -12.936  0.597E-01  0.597E-01
 -12.926  0.585E-01  0.585E-01
 -12.916  0.572E-01  0.572E-01
 -12.906  0.560E-01  0.560E-01
 -12.896  0.547E-01  0.547E-01
 -12.886  0.535E-01  0.535E-01
 -12.876  0.523E-01  0.523E-01
 -12.866  0.510E-01  0.510E-01
 -12.856  0.498E-01  0.498E-01
 -12.846  0.486E-01  0.486E-01
 -12.836  0.474E-01  0.474E-01
 -12.826  0.462E-01  0.462E-01
 -12.816  0.450E-01  0.450E-01
 -12.806  0.438E-01  0.438E-01
 -12.796  0.426E-01  0.426E-01
 -12.786  0.414E-01  0.414E-01
 -12.776  0.402E-01  0.402E-01
 -12.766  0.390E-01  0.390E-01
 -12.756  0.379E-01  0.379E-01
 -12.746  0.367E-01  0.367E-01
 -12.736  0.356E-01  0.356E-01
 -12.726  0.345E-01  0.345E-01
 -12.716  0.334E-01  0.334E-01
 -12.706  0.323E-01  0.323E-01
 -12.696  0.312E-01  0.312E-01
 -12.686  0.301E-01  0.301E-01
 -12.676  0.290E-01  0.290E-01
 -12.666  0.280E-01  0.280E-01
 -12.656  0.269E-01  0.269E-01
 -12.646  0.259E-01  0.259E-01
 -12.636  0.249E-01  0.249E-01
 -12.626  0.239E-01  0.239E-01
 -12.616  0.229E-01  0.229E-01
 -12.606  0.220E-01  0.220E-01
 -12.596  0.210E-01  0.210E-01
 -12.586  0.201E-01  0.201E-01
 -12.576  0.191E-01  0.191E-01
 -12.566  0.182E-01  0.182E-01
 -12.556  0.174E-01  0.174E-01
 -12.546  0.165E-01  0.165E-01
 -12.536  0.156E-01  0.156E-01
 -12.526  0.148E-01  0.148E-01
 -12.516  0.140E-01  0.140E-01
 -12.506  0.132E-01  0.132E-01
 -12.496  0.124E-01  0.124E-01
 -12.486  0.116E-01  0.116E-01
 -12.476  0.109E-01  0.109E-01
 -12.466  0.102E-01  0.102E-01
 -12.456  0.944E-02  0.944E-02
 -12.446  0.875E-02  0.875E-02
 -12.436  0.807E-02  0.807E-02
 -12.426  0.742E-02  0.742E-02
 -12.416  0.678E-02  0.678E-02
 -12.406  0.617E-02  0.617E-02
 -12.396  0.557E-02  0.557E-02
 -12.386  0.499E-02  0.499E-02
 -12.376  0.443E-02  0.443E-02
 -12.366  0.389E-02  0.389E-02
 -12.356  0.337E-02  0.337E-02
 -12.346  0.287E-02  0.287E-02
 -12.336  0.238E-02  0.238E-02
 -12.326  0.192E-02  0.192E-02
 -12.316  0.148E-02  0.148E-02
 -12.306  0.105E-02  0.105E-02
 -12.296  0.643E-03  0.643E-03
 -12.286  0.255E-03  0.255E-03
 -12.276 -0.114E-03 -0.114E-03
 -12.266 -0.464E-03 -0.464E-03
 -12.256 -0.796E-03 -0.796E-03
 -12.246 -0.111E-02 -0.111E-02
 -12.236 -0.140E-02 -0.140E-02
 -12.226 -0.168E-02 -0.168E-02
 -12.216 -0.194E-02 -0.194E-02
 -12.206 -0.218E-02 -0.218E-02
 -12.196 -0.240E-02 -0.240E-02
 -12.186 -0.260E-02 -0.260E-02
 -12.176 -0.279E-02 -0.279E-02
 -12.166 -0.295E-02 -0.295E-02
 -12.156 -0.310E-02 -0.310E-02
 -12.146 -0.323E-02 -0.323E-02
 -12.136 -0.335E-02 -0.335E-02
 -12.126 -0.345E-02 -0.345E-02
 -12.116 -0.353E-02 -0.353E-02
 -12.106 -0.359E-02 -0.359E-02
 -12.096 -0.364E-02 -0.364E-02
 -12.086 -0.366E-02 -0.366E-02
 -12.076 -0.368E-02 -0.368E-02
 -12.066 -0.367E-02 -0.367E-02
 -12.056 -0.365E-02 -0.365E-02
 -12.046 -0.362E-02 -0.362E-02
 -12.036 -0.356E-02 -0.356E-02
 -12.026 -0.350E-02 -0.350E-02
 -12.016 -0.341E-02 -0.341E-02
 -12.006 -0.331E-02 -0.331E-02
 -11.996 -0.320E-02 -0.320E-02
 -11.986 -0.307E-02 -0.307E-02
 -11.976 -0.292E-02 -0.292E-02
 -11.966 -0.276E-02 -0.276E-02
 -11.956 -0.258E-02 -0.258E-02
 -11.946 -0.239E-02 -0.239E-02
 -11.936 -0.219E-02 -0.219E-02
 -11.926 -0.197E-02 -0.197E-02
 -11.916 -0.174E-02 -0.174E-02
 -11.906 -0.149E-02 -0.149E-02
 -11.896 -0.123E-02 -0.123E-02
 -11.886 -0.958E-03 -0.958E-03
 -11.876 -0.671E-03 -0.671E-03
 -11.866 -0.371E-03 -0.371E-03
 -11.856 -0.586E-04 -0.586E-04
 -11.846  0.267E-03  0.267E-03
 -11.836  0.604E-03  0.604E-03
 -11.826  0.953E-03  0.953E-03
 -11.816  0.131E-02  0.131E-02
 -11.806  0.169E-02  0.169E-02
 -11.796  0.207E-02  0.207E-02
 -11.786  0.247E-02  0.247E-02
 -11.776  0.287E-02  0.287E-02
 -11.766  0.328E-02  0.328E-02
 -11.756  0.371E-02  0.371E-02
 -11.746  0.414E-02  0.414E-02
 -11.736  0.459E-02  0.459E-02
 -11.726  0.504E-02  0.504E-02
 -11.716  0.550E-02  0.550E-02
 -11.706  0.596E-02  0.596E-02
 -11.696  0.644E-02  0.644E-02
 -11.686  0.692E-02  0.692E-02
 -11.676  0.741E-02  0.741E-02
 -11.666  0.790E-02  0.790E-02
 -11.656  0.840E-02  0.840E-02
 -11.646  0.890E-02  0.890E-02
 -11.636  0.941E-02  0.941E-02
 -11.626  0.992E-02  0.992E-02
 -11.616  0.104E-01  0.104E-01
 -11.606  0.110E-01  0.110E-01
 -11.596  0.115E-01  0.115E-01
 -11.586  0.120E-01  0.120E-01
 -11.576  0.125E-01  0.125E-01
 -11.566  0.130E-01  0.130E-01
 -11.556  0.136E-01  0.136E-01
 -11.546  0.141E-01  0.141E-01
 -11.536  0.146E-01  0.146E-01
 -11.526  0.151E-01  0.151E-01
 -11.516  0.156E-01  0.156E-01
 -11.506  0.161E-01  0.161E-01
 -11.496  0.166E-01  0.166E-01
 -11.486  0.171E-01  0.171E-01
 -11.476  0.176E-01  0.176E-01
 -11.466  0.181E-01  0.181E-01
 -11.456  0.186E-01  0.186E-01
 -11.446  0.191E-01  0.191E-01
 -11.436  0.195E-01  0.195E-01
 -11.426  0.200E-01  0.200E-01
 -11.416  0.204E-01  0.204E-01
 -11.406  0.209E-01  0.209E-01
 -11.396  0.213E-01  0.213E-01
 -11.386  0.217E-01  0.217E-01
 -11.376  0.221E-01  0.221E-01
 -11.366  0.225E-01  0.225E-01
 -11.356  0.229E-01  0.229E-01
 -11.346  0.232E-01  0.232E-01
 -11.336  0.236E-01  0.236E-01
 -11.326  0.239E-01  0.239E-01
 -11.316  0.242E-01  0.242E-01
 -11.306  0.245E-01  0.245E-01
 -11.296  0.248E-01  0.248E-01
 -11.286  0.251E-01  0.251E-01
 -11.276  0.253E-01  0.253E-01
 -11.266  0.255E-01  0.255E-01
 -11.256  0.258E-01  0.258E-01
 -11.246  0.259E-01  0.259E-01
 -11.236  0.261E-01  0.261E-01
 -11.226  0.263E-01  0.263E-01
 -11.216  0.264E-01  0.264E-01
 -11.206  0.265E-01  0.265E-01
 -11.196  0.266E-01  0.266E-01
 -11.186  0.267E-01  0.267E-01
 -11.176  0.268E-01  0.268E-01
 -11.166  0.268E-01  0.268E-01
 -11.156  0.268E-01  0.268E-01
 -11.146  0.268E-01  0.268E-01
 -11.136  0.268E-01  0.268E-01
 -11.126  0.268E-01  0.268E-01
 -11.116  0.267E-01  0.267E-01
 -11.106  0.266E-01  0.266E-01
 -11.096  0.265E-01  0.265E-01
 -11.086  0.264E-01  0.264E-01
 -11.076  0.263E-01  0.263E-01
 -11.066  0.261E-01  0.261E-01
 -11.056  0.260E-01  0.260E-01
 -11.046  0.258E-01  0.258E-01
 -11.036  0.256E-01  0.256E-01
 -11.026  0.253E-01  0.253E-01
 -11.016  0.251E-01  0.251E-01
 -11.006  0.248E-01  0.248E-01
 -10.996  0.246E-01  0.246E-01
 -10.986  0.243E-01  0.243E-01
 -10.976  0.240E-01  0.240E-01
 -10.966  0.236E-01  0.236E-01
 -10.956  0.233E-01  0.233E-01
 -10.946  0.230E-01  0.230E-01
 -10.936  0.226E-01  0.226E-01
 -10.926  0.222E-01  0.222E-01
 -10.916  0.218E-01  0.218E-01
 -10.906  0.214E-01  0.214E-01
 -10.896  0.210E-01  0.210E-01
 -10.886  0.206E-01  0.206E-01
 -10.876  0.202E-01  0.202E-01
 -10.866  0.198E-01  0.198E-01
 -10.856  0.193E-01  0.193E-01
 -10.846  0.189E-01  0.189E-01
 -10.836  0.184E-01  0.184E-01
 -10.826  0.179E-01  0.179E-01
 -10.816  0.175E-01  0.175E-01
 -10.806  0.170E-01  0.170E-01
 -10.796  0.165E-01  0.165E-01
 -10.786  0.160E-01  0.160E-01
 -10.776  0.155E-01  0.155E-01
 -10.766  0.151E-01  0.151E-01
 -10.756  0.146E-01  0.146E-01
 -10.746  0.141E-01  0.141E-01
 -10.736  0.136E-01  0.136E-01
 -10.726  0.131E-01  0.131E-01
 -10.716  0.126E-01  0.126E-01
 -10.706  0.121E-01  0.121E-01
 -10.696  0.116E-01  0.116E-01
 -10.686  0.111E-01  0.111E-01
 -10.676  0.106E-01  0.106E-01
 -10.666  0.101E-01  0.101E-01
 -10.656  0.966E-02  0.966E-02
 -10.646  0.918E-02  0.918E-02
 -10.636  0.871E-02  0.871E-02
 -10.626  0.824E-02  0.824E-02
 -10.616  0.778E-02  0.778E-02
 -10.606  0.732E-02  0.732E-02
 -10.596  0.687E-02  0.687E-02
 -10.586  0.643E-02  0.643E-02
 -10.576  0.599E-02  0.599E-02
 -10.566  0.556E-02  0.556E-02
 -10.556  0.514E-02  0.514E-02
 -10.546  0.473E-02  0.473E-02
 -10.536  0.432E-02  0.432E-02
 -10.526  0.393E-02  0.393E-02
 -10.516  0.354E-02  0.354E-02
 -10.506  0.316E-02  0.316E-02
 -10.496  0.279E-02  0.279E-02
 -10.486  0.243E-02  0.243E-02
 -10.476  0.208E-02  0.208E-02
 -10.466  0.174E-02  0.174E-02
 -10.456  0.141E-02  0.141E-02
 -10.446  0.110E-02  0.110E-02
 -10.436  0.792E-03  0.792E-03
 -10.426  0.498E-03  0.498E-03
 -10.416  0.215E-03  0.215E-03
 -10.406 -0.550E-04 -0.550E-04
 -10.396 -0.313E-03 -0.313E-03
 -10.386 -0.558E-03 -0.558E-03
 -10.376 -0.790E-03 -0.790E-03
 -10.366 -0.101E-02 -0.101E-02
 -10.356 -0.122E-02 -0.122E-02
 -10.346 -0.141E-02 -0.141E-02
 -10.336 -0.159E-02 -0.159E-02
 -10.326 -0.175E-02 -0.175E-02
 -10.316 -0.190E-02 -0.190E-02
 -10.306 -0.203E-02 -0.203E-02
 -10.296 -0.215E-02 -0.215E-02
 -10.286 -0.226E-02 -0.226E-02
 -10.276 -0.235E-02 -0.235E-02
 -10.266 -0.242E-02 -0.242E-02
 -10.256 -0.248E-02 -0.248E-02
 -10.246 -0.252E-02 -0.252E-02
 -10.236 -0.254E-02 -0.254E-02
 -10.226 -0.254E-02 -0.254E-02
 -10.216 -0.253E-02 -0.253E-02
 -10.206 -0.250E-02 -0.250E-02
 -10.196 -0.246E-02 -0.246E-02
 -10.186 -0.239E-02 -0.239E-02
 -10.176 -0.231E-02 -0.231E-02
 -10.166 -0.220E-02 -0.220E-02
 -10.156 -0.208E-02 -0.208E-02
 -10.146 -0.194E-02 -0.194E-02
 -10.136 -0.177E-02 -0.177E-02
 -10.126 -0.159E-02 -0.159E-02
 -10.116 -0.139E-02 -0.139E-02
 -10.106 -0.117E-02 -0.117E-02
 -10.096 -0.920E-03 -0.920E-03
 -10.086 -0.654E-03 -0.654E-03
 -10.076 -0.367E-03 -0.367E-03
 -10.066 -0.574E-04 -0.574E-04
 -10.056  0.274E-03  0.274E-03
 -10.046  0.627E-03  0.627E-03
 -10.036  0.100E-02  0.100E-02
 -10.026  0.140E-02  0.140E-02
 -10.016  0.182E-02  0.182E-02
 -10.006  0.227E-02  0.227E-02
  -9.996  0.273E-02  0.273E-02
  -9.986  0.322E-02  0.322E-02
  -9.976  0.373E-02  0.373E-02
  -9.966  0.427E-02  0.427E-02
  -9.956  0.483E-02  0.483E-02
  -9.946  0.541E-02  0.541E-02
  -9.936  0.601E-02  0.601E-02
  -9.926  0.663E-02  0.663E-02
  -9.916  0.728E-02  0.728E-02
  -9.906  0.795E-02  0.795E-02
  -9.896  0.864E-02  0.864E-02
  -9.886  0.936E-02  0.936E-02
  -9.876  0.101E-01  0.101E-01
  -9.866  0.108E-01  0.108E-01
  -9.856  0.116E-01  0.116E-01
  -9.846  0.124E-01  0.124E-01
  -9.836  0.132E-01  0.132E-01
  -9.826  0.141E-01  0.141E-01
  -9.816  0.149E-01  0.149E-01
  -9.806  0.158E-01  0.158E-01
  -9.796  0.167E-01  0.167E-01
  -9.786  0.176E-01  0.176E-01
  -9.776  0.185E-01  0.185E-01
  -9.766  0.194E-01  0.194E-01
  -9.756  0.204E-01  0.204E-01
  -9.746  0.213E-01  0.213E-01
  -9.736  0.223E-01  0.223E-01
  -9.726  0.233E-01  0.233E-01
  -9.716  0.243E-01  0.243E-01
  -9.706  0.253E-01  0.253E-01
  -9.696  0.263E-01  0.263E-01
  -9.686  0.273E-01  0.273E-01
  -9.676  0.283E-01  0.283E-01
  -9.666  0.293E-01  0.293E-01
  -9.656  0.304E-01  0.304E-01
  -9.646  0.314E-01  0.314E-01
  -9.636  0.324E-01  0.324E-01
  -9.626  0.334E-01  0.334E-01
  -9.616  0.345E-01  0.345E-01
  -9.606  0.355E-01  0.355E-01
  -9.596  0.365E-01  0.365E-01
  -9.586  0.375E-01  0.375E-01
  -9.576  0.385E-01  0.385E-01
  -9.566  0.395E-01  0.395E-01
  -9.556  0.405E-01  0.405E-01
  -9.546  0.414E-01  0.414E-01
  -9.536  0.424E-01  0.424E-01
  -9.526  0.433E-01  0.433E-01
  -9.516  0.442E-01  0.442E-01
  -9.506  0.451E-01  0.451E-01
  -9.496  0.460E-01  0.460E-01
  -9.486  0.469E-01  0.469E-01
  -9.476  0.477E-01  0.477E-01
  -9.466  0.485E-01  0.485E-01
  -9.456  0.493E-01  0.493E-01
  -9.446  0.501E-01  0.501E-01
  -9.436  0.509E-01  0.509E-01
  -9.426  0.516E-01  0.516E-01
  -9.416  0.523E-01  0.523E-01
  -9.406  0.529E-01  0.529E-01
  -9.396  0.536E-01  0.536E-01
  -9.386  0.542E-01  0.542E-01
  -9.376  0.547E-01  0.547E-01
  -9.366  0.553E-01  0.553E-01
  -9.356  0.558E-01  0.558E-01
  -9.346  0.563E-01  0.563E-01
  -9.336  0.567E-01  0.567E-01
  -9.326  0.571E-01  0.571E-01
  -9.316  0.575E-01  0.575E-01
  -9.306  0.578E-01  0.578E-01
  -9.296  0.581E-01  0.581E-01
  -9.286  0.584E-01  0.584E-01
  -9.276  0.586E-01  0.586E-01
  -9.266  0.588E-01  0.588E-01
  -9.256  0.590E-01  0.590E-01
  -9.246  0.591E-01  0.591E-01
  -9.236  0.592E-01  0.592E-01
  -9.226  0.593E-01  0.593E-01
  -9.216  0.593E-01  0.593E-01
  -9.206  0.593E-01  0.593E-01
  -9.196  0.592E-01  0.592E-01
  -9.186  0.592E-01  0.592E-01
  -9.176  0.591E-01  0.591E-01
  -9.166  0.589E-01  0.589E-01
  -9.156  0.588E-01  0.588E-01
  -9.146  0.586E-01  0.586E-01
  -9.136  0.584E-01  0.584E-01
  -9.126  0.581E-01  0.581E-01
  -9.116  0.579E-01  0.579E-01
  -9.106  0.576E-01  0.576E-01
  -9.096  0.572E-01  0.572E-01
  -9.086  0.569E-01  0.569E-01
  -9.076  0.566E-01  0.566E-01
  -9.066  0.562E-01  0.562E-01
  -9.056  0.558E-01  0.558E-01
  -9.046  0.554E-01  0.554E-01
  -9.036  0.550E-01  0.550E-01
  -9.026  0.545E-01  0.545E-01
  -9.016  0.541E-01  0.541E-01
  -9.006  0.536E-01  0.536E-01
  -8.996  0.531E-01  0.531E-01
  -8.986  0.527E-01  0.527E-01
  -8.976  0.522E-01  0.522E-01
  -8.966  0.517E-01  0.517E-01
  -8.956  0.512E-01  0.512E-01
  -8.946  0.507E-01  0.507E-01
  -8.936  0.502E-01  0.502E-01
  -8.926  0.498E-01  0.498E-01
  -8.916  0.493E-01  0.493E-01
  -8.906  0.488E-01  0.488E-01
  -8.896  0.483E-01  0.483E-01
  -8.886  0.479E-01  0.479E-01
  -8.876  0.474E-01  0.474E-01
  -8.866  0.469E-01  0.469E-01
  -8.856  0.465E-01  0.465E-01
  -8.846  0.461E-01  0.461E-01
  -8.836  0.457E-01  0.457E-01
  -8.826  0.453E-01  0.453E-01
  -8.816  0.449E-01  0.449E-01
  -8.806  0.445E-01  0.445E-01
  -8.796  0.441E-01  0.441E-01
  -8.786  0.438E-01  0.438E-01
  -8.776  0.435E-01  0.435E-01
  -8.766  0.432E-01  0.432E-01
  -8.756  0.429E-01  0.429E-01
  -8.746  0.426E-01  0.426E-01
  -8.736  0.424E-01  0.424E-01
  -8.726  0.421E-01  0.421E-01
  -8.716  0.419E-01  0.419E-01
  -8.706  0.417E-01  0.417E-01
  -8.696  0.415E-01  0.415E-01
  -8.686  0.414E-01  0.414E-01
  -8.676  0.413E-01  0.413E-01
  -8.666  0.411E-01  0.411E-01
  -8.656  0.410E-01  0.410E-01
  -8.646  0.410E-01  0.410E-01
  -8.636  0.409E-01  0.409E-01
  -8.626  0.409E-01  0.409E-01
  -8.616  0.408E-01  0.408E-01
  -8.606  0.408E-01  0.408E-01
  -8.596  0.408E-01  0.408E-01
  -8.586  0.408E-01  0.408E-01
  -8.576  0.409E-01  0.409E-01
  -8.566  0.409E-01  0.409E-01
  -8.556  0.410E-01  0.410E-01
  -8.546  0.410E-01  0.410E-01
  -8.536  0.411E-01  0.411E-01
  -8.526  0.412E-01  0.412E-01
  -8.516  0.413E-01  0.413E-01
  -8.506  0.414E-01  0.414E-01
  -8.496  0.415E-01  0.415E-01
  -8.486  0.416E-01  0.416E-01
  -8.476  0.417E-01  0.417E-01
  -8.466  0.418E-01  0.418E-01
  -8.456  0.419E-01  0.419E-01
  -8.446  0.420E-01  0.420E-01
  -8.436  0.421E-01  0.421E-01
  -8.426  0.422E-01  0.422E-01
  -8.416  0.423E-01  0.423E-01
  -8.406  0.424E-01  0.424E-01
  -8.396  0.425E-01  0.425E-01
  -8.386  0.426E-01  0.426E-01
  -8.376  0.427E-01  0.427E-01
  -8.366  0.427E-01  0.427E-01
  -8.356  0.428E-01  0.428E-01
  -8.346  0.428E-01  0.428E-01
  -8.336  0.429E-01  0.429E-01
  -8.326  0.429E-01  0.429E-01
  -8.316  0.429E-01  0.429E-01
  -8.306  0.429E-01  0.429E-01
  -8.296  0.428E-01  0.428E-01
  -8.286  0.428E-01  0.428E-01
  -8.276  0.427E-01  0.427E-01
  -8.266  0.426E-01  0.426E-01
  -8.256  0.425E-01  0.425E-01
  -8.246  0.424E-01  0.424E-01
  -8.236  0.422E-01  0.422E-01
  -8.226  0.421E-01  0.421E-01
  -8.216  0.419E-01  0.419E-01
  -8.206  0.417E-01  0.417E-01
  -8.196  0.414E-01  0.414E-01
  -8.186  0.412E-01  0.412E-01
  -8.176  0.409E-01  0.409E-01
  -8.166  0.406E-01  0.406E-01
  -8.156  0.403E-01  0.403E-01
  -8.146  0.400E-01  0.400E-01
  -8.136  0.396E-01  0.396E-01
  -8.126  0.392E-01  0.392E-01
  -8.116  0.388E-01  0.388E-01
  -8.106  0.384E-01  0.384E-01
  -8.096  0.379E-01  0.379E-01
  -8.086  0.375E-01  0.375E-01
  -8.076  0.370E-01  0.370E-01
  -8.066  0.365E-01  0.365E-01
  -8.056  0.359E-01  0.359E-01
  -8.046  0.354E-01  0.354E-01
  -8.036  0.348E-01  0.348E-01
  -8.026  0.342E-01  0.342E-01
  -8.016  0.336E-01  0.336E-01
  -8.006  0.330E-01  0.330E-01
  -7.996  0.324E-01  0.324E-01
  -7.986  0.317E-01  0.317E-01
  -7.976  0.311E-01  0.311E-01
  -7.966  0.304E-01  0.304E-01
  -7.956  0.297E-01  0.297E-01
  -7.946  0.291E-01  0.291E-01
  -7.936  0.284E-01  0.284E-01
  -7.926  0.276E-01  0.276E-01
  -7.916  0.269E-01  0.269E-01
  -7.906  0.262E-01  0.262E-01
  -7.896  0.255E-01  0.255E-01
  -7.886  0.248E-01  0.248E-01
  -7.876  0.240E-01  0.240E-01
  -7.866  0.233E-01  0.233E-01
  -7.856  0.225E-01  0.225E-01
  -7.846  0.218E-01  0.218E-01
  -7.836  0.211E-01  0.211E-01
  -7.826  0.203E-01  0.203E-01
  -7.816  0.196E-01  0.196E-01
  -7.806  0.188E-01  0.188E-01
  -7.796  0.181E-01  0.181E-01
  -7.786  0.174E-01  0.174E-01
  -7.776  0.167E-01  0.167E-01
  -7.766  0.160E-01  0.160E-01
  -7.756  0.153E-01  0.153E-01
  -7.746  0.146E-01  0.146E-01
  -7.736  0.139E-01  0.139E-01
  -7.726  0.132E-01  0.132E-01
  -7.716  0.125E-01  0.125E-01
  -7.706  0.119E-01  0.119E-01
  -7.696  0.112E-01  0.112E-01
  -7.686  0.106E-01  0.106E-01
  -7.676  0.998E-02  0.998E-02
  -7.666  0.938E-02  0.938E-02
  -7.656  0.879E-02  0.879E-02
  -7.646  0.822E-02  0.822E-02
  -7.636  0.766E-02  0.766E-02
  -7.626  0.711E-02  0.711E-02
  -7.616  0.658E-02  0.658E-02
  -7.606  0.607E-02  0.607E-02
  -7.596  0.558E-02  0.558E-02
  -7.586  0.510E-02  0.510E-02
  -7.576  0.464E-02  0.464E-02
  -7.566  0.420E-02  0.420E-02
  -7.556  0.378E-02  0.378E-02
  -7.546  0.337E-02  0.337E-02
  -7.536  0.299E-02  0.299E-02
  -7.526  0.262E-02  0.262E-02
  -7.516  0.227E-02  0.227E-02
  -7.506  0.194E-02  0.194E-02
  -7.496  0.162E-02  0.162E-02
  -7.486  0.133E-02  0.133E-02
  -7.476  0.105E-02  0.105E-02
  -7.466  0.798E-03  0.798E-03
  -7.456  0.560E-03  0.560E-03
  -7.446  0.342E-03  0.342E-03
  -7.436  0.141E-03  0.141E-03
  -7.426 -0.402E-04 -0.402E-04
  -7.416 -0.203E-03 -0.203E-03
  -7.406 -0.348E-03 -0.348E-03
  -7.396 -0.475E-03 -0.475E-03
  -7.386 -0.584E-03 -0.584E-03
  -7.376 -0.675E-03 -0.675E-03
  -7.366 -0.749E-03 -0.749E-03
  -7.356 -0.805E-03 -0.805E-03
  -7.346 -0.844E-03 -0.844E-03
  -7.336 -0.866E-03 -0.866E-03
  -7.326 -0.871E-03 -0.871E-03
  -7.316 -0.860E-03 -0.860E-03
  -7.306 -0.833E-03 -0.833E-03
  -7.296 -0.790E-03 -0.790E-03
  -7.286 -0.731E-03 -0.731E-03
  -7.276 -0.657E-03 -0.657E-03
  -7.266 -0.568E-03 -0.568E-03
  -7.256 -0.464E-03 -0.464E-03
  -7.246 -0.346E-03 -0.346E-03
  -7.236 -0.214E-03 -0.214E-03
  -7.226 -0.676E-04 -0.676E-04
  -7.216  0.918E-04  0.918E-04
  -7.206  0.264E-03  0.264E-03
  -7.196  0.449E-03  0.449E-03
  -7.186  0.647E-03  0.647E-03
  -7.176  0.856E-03  0.856E-03
  -7.166  0.108E-02  0.108E-02
  -7.156  0.131E-02  0.131E-02
  -7.146  0.155E-02  0.155E-02
  -7.136  0.181E-02  0.181E-02
  -7.126  0.207E-02  0.207E-02
  -7.116  0.234E-02  0.234E-02
  -7.106  0.263E-02  0.263E-02
  -7.096  0.292E-02  0.292E-02
  -7.086  0.322E-02  0.322E-02
  -7.076  0.353E-02  0.353E-02
  -7.066  0.384E-02  0.384E-02
  -7.056  0.417E-02  0.417E-02
  -7.046  0.450E-02  0.450E-02
  -7.036  0.483E-02  0.483E-02
  -7.026  0.518E-02  0.518E-02
  -7.016  0.552E-02  0.552E-02
  -7.006  0.588E-02  0.588E-02
  -6.996  0.623E-02  0.623E-02
  -6.986  0.660E-02  0.660E-02
  -6.976  0.696E-02  0.696E-02
  -6.966  0.733E-02  0.733E-02
  -6.956  0.770E-02  0.770E-02
  -6.946  0.807E-02  0.807E-02
  -6.936  0.845E-02  0.845E-02
  -6.926  0.882E-02  0.882E-02
  -6.916  0.920E-02  0.920E-02
  -6.906  0.958E-02  0.958E-02
  -6.896  0.995E-02  0.995E-02
  -6.886  0.103E-01  0.103E-01
  -6.876  0.107E-01  0.107E-01
  -6.866  0.111E-01  0.111E-01
  -6.856  0.114E-01  0.114E-01
  -6.846  0.118E-01  0.118E-01
  -6.836  0.122E-01  0.122E-01
  -6.826  0.125E-01  0.125E-01
  -6.816  0.129E-01  0.129E-01
  -6.806  0.132E-01  0.132E-01
  -6.796  0.136E-01  0.136E-01
  -6.786  0.139E-01  0.139E-01
  -6.776  0.143E-01  0.143E-01
  -6.766  0.146E-01  0.146E-01
  -6.756  0.149E-01  0.149E-01
  -6.746  0.152E-01  0.152E-01
  -6.736  0.155E-01  0.155E-01
  -6.726  0.158E-01  0.158E-01
  -6.716  0.161E-01  0.161E-01
  -6.706  0.164E-01  0.164E-01
  -6.696  0.167E-01  0.167E-01
  -6.686  0.169E-01  0.169E-01
  -6.676  0.172E-01  0.172E-01
  -6.666  0.174E-01  0.174E-01
  -6.656  0.176E-01  0.176E-01
  -6.646  0.178E-01  0.178E-01
  -6.636  0.180E-01  0.180E-01
  -6.626  0.182E-01  0.182E-01
  -6.616  0.184E-01  0.184E-01
  -6.606  0.186E-01  0.186E-01
  -6.596  0.187E-01  0.187E-01
  -6.586  0.189E-01  0.189E-01
  -6.576  0.190E-01  0.190E-01
  -6.566  0.191E-01  0.191E-01
  -6.556  0.192E-01  0.192E-01
  -6.546  0.193E-01  0.193E-01
  -6.536  0.194E-01  0.194E-01
  -6.526  0.194E-01  0.194E-01
  -6.516  0.194E-01  0.194E-01
  -6.506  0.195E-01  0.195E-01
  -6.496  0.195E-01  0.195E-01
  -6.486  0.195E-01  0.195E-01
  -6.476  0.195E-01  0.195E-01
  -6.466  0.194E-01  0.194E-01
  -6.456  0.194E-01  0.194E-01
  -6.446  0.193E-01  0.193E-01
  -6.436  0.193E-01  0.193E-01
  -6.426  0.192E-01  0.192E-01
  -6.416  0.191E-01  0.191E-01
  -6.406  0.190E-01  0.190E-01
  -6.396  0.188E-01  0.188E-01
  -6.386  0.187E-01  0.187E-01
  -6.376  0.186E-01  0.186E-01
  -6.366  0.184E-01  0.184E-01
  -6.356  0.182E-01  0.182E-01
  -6.346  0.180E-01  0.180E-01
  -6.336  0.178E-01  0.178E-01
  -6.326  0.176E-01  0.176E-01
  -6.316  0.174E-01  0.174E-01
  -6.306  0.172E-01  0.172E-01
  -6.296  0.169E-01  0.169E-01
  -6.286  0.167E-01  0.167E-01
  -6.276  0.164E-01  0.164E-01
  -6.266  0.162E-01  0.162E-01
  -6.256  0.159E-01  0.159E-01
  -6.246  0.156E-01  0.156E-01
  -6.236  0.153E-01  0.153E-01
  -6.226  0.150E-01  0.150E-01
  -6.216  0.147E-01  0.147E-01
  -6.206  0.144E-01  0.144E-01
  -6.196  0.141E-01  0.141E-01
  -6.186  0.138E-01  0.138E-01
  -6.176  0.135E-01  0.135E-01
  -6.166  0.131E-01  0.131E-01
  -6.156  0.128E-01  0.128E-01
  -6.146  0.125E-01  0.125E-01
  -6.136  0.121E-01  0.121E-01
  -6.126  0.118E-01  0.118E-01
  -6.116  0.115E-01  0.115E-01
  -6.106  0.111E-01  0.111E-01
  -6.096  0.108E-01  0.108E-01
  -6.086  0.105E-01  0.105E-01
  -6.076  0.101E-01  0.101E-01
  -6.066  0.978E-02  0.978E-02
  -6.056  0.944E-02  0.944E-02
  -6.046  0.911E-02  0.911E-02
  -6.036  0.877E-02  0.877E-02
  -6.026  0.844E-02  0.844E-02
  -6.016  0.812E-02  0.812E-02
  -6.006  0.779E-02  0.779E-02
  -5.996  0.747E-02  0.747E-02
  -5.986  0.715E-02  0.715E-02
  -5.976  0.684E-02  0.684E-02
  -5.966  0.654E-02  0.654E-02
  -5.956  0.623E-02  0.623E-02
  -5.946  0.593E-02  0.593E-02
  -5.936  0.564E-02  0.564E-02
  -5.926  0.536E-02  0.536E-02
  -5.916  0.508E-02  0.508E-02
  -5.906  0.480E-02  0.480E-02
  -5.896  0.453E-02  0.453E-02
  -5.886  0.427E-02  0.427E-02
  -5.876  0.402E-02  0.402E-02
  -5.866  0.377E-02  0.377E-02
  -5.856  0.353E-02  0.353E-02
  -5.846  0.329E-02  0.329E-02
  -5.836  0.306E-02  0.306E-02
  -5.826  0.284E-02  0.284E-02
  -5.816  0.263E-02  0.263E-02
  -5.806  0.243E-02  0.243E-02
  -5.796  0.223E-02  0.223E-02
  -5.786  0.204E-02  0.204E-02
  -5.776  0.185E-02  0.185E-02
  -5.766  0.168E-02  0.168E-02
  -5.756  0.151E-02  0.151E-02
  -5.746  0.135E-02  0.135E-02
  -5.736  0.119E-02  0.119E-02
  -5.726  0.104E-02  0.104E-02
  -5.716  0.904E-03  0.904E-03
  -5.706  0.771E-03  0.771E-03
  -5.696  0.645E-03  0.645E-03
  -5.686  0.527E-03  0.527E-03
  -5.676  0.415E-03  0.415E-03
  -5.666  0.310E-03  0.310E-03
  -5.656  0.211E-03  0.211E-03
  -5.646  0.120E-03  0.120E-03
  -5.636  0.343E-04  0.343E-04
  -5.626 -0.446E-04 -0.446E-04
  -5.616 -0.117E-03 -0.117E-03
  -5.606 -0.183E-03 -0.183E-03
  -5.596 -0.244E-03 -0.244E-03
  -5.586 -0.298E-03 -0.298E-03
  -5.576 -0.347E-03 -0.347E-03
  -5.566 -0.389E-03 -0.389E-03
  -5.556 -0.426E-03 -0.426E-03
  -5.546 -0.458E-03 -0.458E-03
  -5.536 -0.484E-03 -0.484E-03
  -5.526 -0.505E-03 -0.505E-03
  -5.516 -0.521E-03 -0.521E-03
  -5.506 -0.531E-03 -0.531E-03
  -5.496 -0.537E-03 -0.537E-03
  -5.486 -0.537E-03 -0.537E-03
  -5.476 -0.533E-03 -0.533E-03
  -5.466 -0.524E-03 -0.524E-03
  -5.456 -0.510E-03 -0.510E-03
  -5.446 -0.492E-03 -0.492E-03
  -5.436 -0.469E-03 -0.469E-03
  -5.426 -0.442E-03 -0.442E-03
  -5.416 -0.410E-03 -0.410E-03
  -5.406 -0.373E-03 -0.373E-03
  -5.396 -0.333E-03 -0.333E-03
  -5.386 -0.288E-03 -0.288E-03
  -5.376 -0.238E-03 -0.238E-03
  -5.366 -0.184E-03 -0.184E-03
  -5.356 -0.126E-03 -0.126E-03
  -5.346 -0.640E-04 -0.640E-04
  -5.336  0.267E-05  0.267E-05
  -5.326  0.736E-04  0.736E-04
  -5.316  0.149E-03  0.149E-03
  -5.306  0.228E-03  0.228E-03
  -5.296  0.312E-03  0.312E-03
  -5.286  0.401E-03  0.401E-03
  -5.276  0.493E-03  0.493E-03
  -5.266  0.590E-03  0.590E-03
  -5.256  0.692E-03  0.692E-03
  -5.246  0.798E-03  0.798E-03
  -5.236  0.908E-03  0.908E-03
  -5.226  0.102E-02  0.102E-02
  -5.216  0.114E-02  0.114E-02
  -5.206  0.127E-02  0.127E-02
  -5.196  0.140E-02  0.140E-02
  -5.186  0.153E-02  0.153E-02
  -5.176  0.167E-02  0.167E-02
  -5.166  0.181E-02  0.181E-02
  -5.156  0.196E-02  0.196E-02
  -5.146  0.211E-02  0.211E-02
  -5.136  0.227E-02  0.227E-02
  -5.126  0.243E-02  0.243E-02
  -5.116  0.260E-02  0.260E-02
  -5.106  0.277E-02  0.277E-02
  -5.096  0.295E-02  0.295E-02
  -5.086  0.313E-02  0.313E-02
  -5.076  0.332E-02  0.332E-02
  -5.066  0.351E-02  0.351E-02
  -5.056  0.371E-02  0.371E-02
  -5.046  0.391E-02  0.391E-02
  -5.036  0.411E-02  0.411E-02
  -5.026  0.432E-02  0.432E-02
  -5.016  0.454E-02  0.454E-02
  -5.006  0.476E-02  0.476E-02
  -4.996  0.498E-02  0.498E-02
  -4.986  0.521E-02  0.521E-02
  -4.976  0.544E-02  0.544E-02
  -4.966  0.568E-02  0.568E-02
  -4.956  0.592E-02  0.592E-02
  -4.946  0.617E-02  0.617E-02
  -4.936  0.641E-02  0.641E-02
  -4.926  0.667E-02  0.667E-02
  -4.916  0.692E-02  0.692E-02
  -4.906  0.718E-02  0.718E-02
  -4.896  0.744E-02  0.744E-02
  -4.886  0.770E-02  0.770E-02
  -4.876  0.797E-02  0.797E-02
  -4.866  0.824E-02  0.824E-02
  -4.856  0.851E-02  0.851E-02
  -4.846  0.878E-02  0.878E-02
  -4.836  0.905E-02  0.905E-02
  -4.826  0.933E-02  0.933E-02
  -4.816  0.960E-02  0.960E-02
  -4.806  0.988E-02  0.988E-02
  -4.796  0.102E-01  0.102E-01
  -4.786  0.104E-01  0.104E-01
  -4.776  0.107E-01  0.107E-01
  -4.766  0.110E-01  0.110E-01
  -4.756  0.112E-01  0.112E-01
  -4.746  0.115E-01  0.115E-01
  -4.736  0.118E-01  0.118E-01
  -4.726  0.121E-01  0.121E-01
  -4.716  0.123E-01  0.123E-01
  -4.706  0.126E-01  0.126E-01
  -4.696  0.128E-01  0.128E-01
  -4.686  0.131E-01  0.131E-01
  -4.676  0.133E-01  0.133E-01
  -4.666  0.136E-01  0.136E-01
  -4.656  0.138E-01  0.138E-01
  -4.646  0.140E-01  0.140E-01
  -4.636  0.143E-01  0.143E-01
  -4.626  0.145E-01  0.145E-01
  -4.616  0.147E-01  0.147E-01
  -4.606  0.149E-01  0.149E-01
  -4.596  0.151E-01  0.151E-01
  -4.586  0.153E-01  0.153E-01
  -4.576  0.155E-01  0.155E-01
  -4.566  0.157E-01  0.157E-01
  -4.556  0.158E-01  0.158E-01
  -4.546  0.160E-01  0.160E-01
  -4.536  0.161E-01  0.161E-01
  -4.526  0.163E-01  0.163E-01
  -4.516  0.164E-01  0.164E-01
  -4.506  0.165E-01  0.165E-01
  -4.496  0.166E-01  0.166E-01
  -4.486  0.167E-01  0.167E-01
  -4.476  0.168E-01  0.168E-01
  -4.466  0.169E-01  0.169E-01
  -4.456  0.170E-01  0.170E-01
  -4.446  0.170E-01  0.170E-01
  -4.436  0.171E-01  0.171E-01
  -4.426  0.171E-01  0.171E-01
  -4.416  0.171E-01  0.171E-01
  -4.406  0.172E-01  0.172E-01
  -4.396  0.172E-01  0.172E-01
  -4.386  0.171E-01  0.171E-01
  -4.376  0.171E-01  0.171E-01
  -4.366  0.171E-01  0.171E-01
  -4.356  0.170E-01  0.170E-01
  -4.346  0.170E-01  0.170E-01
  -4.336  0.169E-01  0.169E-01
  -4.326  0.168E-01  0.168E-01
  -4.316  0.167E-01  0.167E-01
  -4.306  0.166E-01  0.166E-01
  -4.296  0.165E-01  0.165E-01
  -4.286  0.164E-01  0.164E-01
  -4.276  0.163E-01  0.163E-01
  -4.266  0.161E-01  0.161E-01
  -4.256  0.160E-01  0.160E-01
  -4.246  0.158E-01  0.158E-01
  -4.236  0.157E-01  0.157E-01
  -4.226  0.155E-01  0.155E-01
  -4.216  0.153E-01  0.153E-01
  -4.206  0.151E-01  0.151E-01
  -4.196  0.149E-01  0.149E-01
  -4.186  0.147E-01  0.147E-01
  -4.176  0.144E-01  0.144E-01
  -4.166  0.142E-01  0.142E-01
  -4.156  0.140E-01  0.140E-01
  -4.146  0.137E-01  0.137E-01
  -4.136  0.135E-01  0.135E-01
  -4.126  0.132E-01  0.132E-01
  -4.116  0.130E-01  0.130E-01
  -4.106  0.127E-01  0.127E-01
  -4.096  0.125E-01  0.125E-01
  -4.086  0.122E-01  0.122E-01
  -4.076  0.119E-01  0.119E-01
  -4.066  0.116E-01  0.116E-01
  -4.056  0.114E-01  0.114E-01
  -4.046  0.111E-01  0.111E-01
  -4.036  0.108E-01  0.108E-01
  -4.026  0.105E-01  0.105E-01
  -4.016  0.102E-01  0.102E-01
  -4.006  0.992E-02  0.992E-02
  -3.996  0.963E-02  0.963E-02
  -3.986  0.935E-02  0.935E-02
  -3.976  0.906E-02  0.906E-02
  -3.966  0.877E-02  0.877E-02
  -3.956  0.848E-02  0.848E-02
  -3.946  0.820E-02  0.820E-02
  -3.936  0.792E-02  0.792E-02
  -3.926  0.763E-02  0.763E-02
  -3.916  0.735E-02  0.735E-02
  -3.906  0.708E-02  0.708E-02
  -3.896  0.680E-02  0.680E-02
  -3.886  0.653E-02  0.653E-02
  -3.876  0.627E-02  0.627E-02
  -3.866  0.601E-02  0.601E-02
  -3.856  0.575E-02  0.575E-02
  -3.846  0.549E-02  0.549E-02
  -3.836  0.524E-02  0.524E-02
  -3.826  0.500E-02  0.500E-02
  -3.816  0.475E-02  0.475E-02
  -3.806  0.452E-02  0.452E-02
  -3.796  0.429E-02  0.429E-02
  -3.786  0.406E-02  0.406E-02
  -3.776  0.384E-02  0.384E-02
  -3.766  0.363E-02  0.363E-02
  -3.756  0.342E-02  0.342E-02
  -3.746  0.322E-02  0.322E-02
  -3.736  0.302E-02  0.302E-02
  -3.726  0.283E-02  0.283E-02
  -3.716  0.264E-02  0.264E-02
  -3.706  0.246E-02  0.246E-02
  -3.696  0.229E-02  0.229E-02
  -3.686  0.212E-02  0.212E-02
  -3.676  0.196E-02  0.196E-02
  -3.666  0.180E-02  0.180E-02
  -3.656  0.166E-02  0.166E-02
  -3.646  0.151E-02  0.151E-02
  -3.636  0.137E-02  0.137E-02
  -3.626  0.124E-02  0.124E-02
  -3.616  0.112E-02  0.112E-02
  -3.606  0.995E-03  0.995E-03
  -3.596  0.880E-03  0.880E-03
  -3.586  0.771E-03  0.771E-03
  -3.576  0.667E-03  0.667E-03
  -3.566  0.569E-03  0.569E-03
  -3.556  0.476E-03  0.476E-03
  -3.546  0.388E-03  0.388E-03
  -3.536  0.305E-03  0.305E-03
  -3.526  0.227E-03  0.227E-03
  -3.516  0.154E-03  0.154E-03
  -3.506  0.853E-04  0.853E-04
  -3.496  0.214E-04  0.214E-04
  -3.486 -0.381E-04 -0.381E-04
  -3.476 -0.933E-04 -0.933E-04
  -3.466 -0.144E-03 -0.144E-03
  -3.456 -0.191E-03 -0.191E-03
  -3.446 -0.235E-03 -0.235E-03
  -3.436 -0.274E-03 -0.274E-03
  -3.426 -0.310E-03 -0.310E-03
  -3.416 -0.342E-03 -0.342E-03
  -3.406 -0.372E-03 -0.372E-03
  -3.396 -0.398E-03 -0.398E-03
  -3.386 -0.420E-03 -0.420E-03
  -3.376 -0.440E-03 -0.440E-03
  -3.366 -0.458E-03 -0.458E-03
  -3.356 -0.472E-03 -0.472E-03
  -3.346 -0.485E-03 -0.485E-03
  -3.336 -0.494E-03 -0.494E-03
  -3.326 -0.502E-03 -0.502E-03
  -3.316 -0.508E-03 -0.508E-03
  -3.306 -0.511E-03 -0.511E-03
  -3.296 -0.513E-03 -0.513E-03
  -3.286 -0.513E-03 -0.513E-03
  -3.276 -0.511E-03 -0.511E-03
  -3.266 -0.508E-03 -0.508E-03
  -3.256 -0.504E-03 -0.504E-03
  -3.246 -0.498E-03 -0.498E-03
  -3.236 -0.491E-03 -0.491E-03
  -3.226 -0.483E-03 -0.483E-03
  -3.216 -0.474E-03 -0.474E-03
  -3.206 -0.464E-03 -0.464E-03
  -3.196 -0.453E-03 -0.453E-03
  -3.186 -0.441E-03 -0.441E-03
  -3.176 -0.429E-03 -0.429E-03
  -3.166 -0.416E-03 -0.416E-03
  -3.156 -0.403E-03 -0.403E-03
  -3.146 -0.389E-03 -0.389E-03
  -3.136 -0.375E-03 -0.375E-03
  -3.126 -0.361E-03 -0.361E-03
  -3.116 -0.346E-03 -0.346E-03
  -3.106 -0.332E-03 -0.332E-03
  -3.096 -0.317E-03 -0.317E-03
  -3.086 -0.302E-03 -0.302E-03
  -3.076 -0.287E-03 -0.287E-03
  -3.066 -0.271E-03 -0.271E-03
  -3.056 -0.256E-03 -0.256E-03
  -3.046 -0.241E-03 -0.241E-03
  -3.036 -0.227E-03 -0.227E-03
  -3.026 -0.212E-03 -0.212E-03
  -3.016 -0.197E-03 -0.197E-03
  -3.006 -0.183E-03 -0.183E-03
  -2.996 -0.169E-03 -0.169E-03
  -2.986 -0.155E-03 -0.155E-03
  -2.976 -0.141E-03 -0.141E-03
  -2.966 -0.128E-03 -0.128E-03
  -2.956 -0.115E-03 -0.115E-03
  -2.946 -0.102E-03 -0.102E-03
  -2.936 -0.894E-04 -0.894E-04
  -2.926 -0.773E-04 -0.773E-04
  -2.916 -0.655E-04 -0.655E-04
  -2.906 -0.540E-04 -0.540E-04
  -2.896 -0.428E-04 -0.428E-04
  -2.886 -0.320E-04 -0.320E-04
  -2.876 -0.216E-04 -0.216E-04
  -2.866 -0.114E-04 -0.114E-04
  -2.856 -0.166E-05 -0.166E-05
  -2.846  0.777E-05  0.777E-05
  -2.836  0.169E-04  0.169E-04
  -2.826  0.256E-04  0.256E-04
  -2.816  0.341E-04  0.341E-04
  -2.806  0.422E-04  0.422E-04
  -2.796  0.500E-04  0.500E-04
  -2.786  0.575E-04  0.575E-04
  -2.776  0.647E-04  0.647E-04
  -2.766  0.716E-04  0.716E-04
  -2.756  0.782E-04  0.782E-04
  -2.746  0.845E-04  0.845E-04
  -2.736  0.906E-04  0.906E-04
  -2.726  0.965E-04  0.965E-04
  -2.716  0.102E-03  0.102E-03
  -2.706  0.107E-03  0.107E-03
  -2.696  0.113E-03  0.113E-03
  -2.686  0.118E-03  0.118E-03
  -2.676  0.122E-03  0.122E-03
  -2.666  0.127E-03  0.127E-03
  -2.656  0.131E-03  0.131E-03
  -2.646  0.136E-03  0.136E-03
  -2.636  0.140E-03  0.140E-03
  -2.626  0.144E-03  0.144E-03
  -2.616  0.147E-03  0.147E-03
  -2.606  0.151E-03  0.151E-03
  -2.596  0.155E-03  0.155E-03
  -2.586  0.158E-03  0.158E-03
  -2.576  0.162E-03  0.162E-03
  -2.566  0.165E-03  0.165E-03
  -2.556  0.169E-03  0.169E-03
  -2.546  0.172E-03  0.172E-03
  -2.536  0.175E-03  0.175E-03
  -2.526  0.179E-03  0.179E-03
  -2.516  0.182E-03  0.182E-03
  -2.506  0.185E-03  0.185E-03
  -2.496  0.189E-03  0.189E-03
  -2.486  0.192E-03  0.192E-03
  -2.476  0.195E-03  0.195E-03
  -2.466  0.199E-03  0.199E-03
  -2.456  0.202E-03  0.202E-03
  -2.446  0.206E-03  0.206E-03
  -2.436  0.210E-03  0.210E-03
  -2.426  0.213E-03  0.213E-03
  -2.416  0.217E-03  0.217E-03
  -2.406  0.221E-03  0.221E-03
  -2.396  0.225E-03  0.225E-03
  -2.386  0.229E-03  0.229E-03
  -2.376  0.233E-03  0.233E-03
  -2.366  0.238E-03  0.238E-03
  -2.356  0.242E-03  0.242E-03
  -2.346  0.247E-03  0.247E-03
  -2.336  0.251E-03  0.251E-03
  -2.326  0.256E-03  0.256E-03
  -2.316  0.261E-03  0.261E-03
  -2.306  0.266E-03  0.266E-03
  -2.296  0.272E-03  0.272E-03
  -2.286  0.277E-03  0.277E-03
  -2.276  0.282E-03  0.282E-03
  -2.266  0.288E-03  0.288E-03
  -2.256  0.294E-03  0.294E-03
  -2.246  0.300E-03  0.300E-03
  -2.236  0.306E-03  0.306E-03
  -2.226  0.312E-03  0.312E-03
  -2.216  0.318E-03  0.318E-03
  -2.206  0.325E-03  0.325E-03
  -2.196  0.331E-03  0.331E-03
  -2.186  0.338E-03  0.338E-03
  -2.176  0.345E-03  0.345E-03
  -2.166  0.352E-03  0.352E-03
  -2.156  0.359E-03  0.359E-03
  -2.146  0.366E-03  0.366E-03
  -2.136  0.373E-03  0.373E-03
  -2.126  0.380E-03  0.380E-03
  -2.116  0.387E-03  0.387E-03
  -2.106  0.395E-03  0.395E-03
  -2.096  0.402E-03  0.402E-03
  -2.086  0.410E-03  0.410E-03
  -2.076  0.418E-03  0.418E-03
  -2.066  0.425E-03  0.425E-03
  -2.056  0.433E-03  0.433E-03
  -2.046  0.441E-03  0.441E-03
  -2.036  0.448E-03  0.448E-03
  -2.026  0.456E-03  0.456E-03
  -2.016  0.464E-03  0.464E-03
  -2.006  0.471E-03  0.471E-03
  -1.996  0.479E-03  0.479E-03
  -1.986  0.487E-03  0.487E-03
  -1.976  0.494E-03  0.494E-03
  -1.966  0.502E-03  0.502E-03
  -1.956  0.509E-03  0.509E-03
  -1.946  0.517E-03  0.517E-03
  -1.936  0.524E-03  0.524E-03
  -1.926  0.531E-03  0.531E-03
  -1.916  0.538E-03  0.538E-03
  -1.906  0.545E-03  0.545E-03
  -1.896  0.552E-03  0.552E-03
  -1.886  0.559E-03  0.559E-03
  -1.876  0.566E-03  0.566E-03
  -1.866  0.572E-03  0.572E-03
  -1.856  0.579E-03  0.579E-03
  -1.846  0.585E-03  0.585E-03
  -1.836  0.591E-03  0.591E-03
  -1.826  0.597E-03  0.597E-03
  -1.816  0.603E-03  0.603E-03
  -1.806  0.608E-03  0.608E-03
  -1.796  0.613E-03  0.613E-03
  -1.786  0.618E-03  0.618E-03
  -1.776  0.623E-03  0.623E-03
  -1.766  0.628E-03  0.628E-03
  -1.756  0.633E-03  0.633E-03
  -1.746  0.637E-03  0.637E-03
  -1.736  0.641E-03  0.641E-03
  -1.726  0.645E-03  0.645E-03
  -1.716  0.648E-03  0.648E-03
  -1.706  0.652E-03  0.652E-03
  -1.696  0.655E-03  0.655E-03
  -1.686  0.658E-03  0.658E-03
  -1.676  0.660E-03  0.660E-03
  -1.666  0.663E-03  0.663E-03
  -1.656  0.665E-03  0.665E-03
  -1.646  0.667E-03  0.667E-03
  -1.636  0.668E-03  0.668E-03
  -1.626  0.670E-03  0.670E-03
  -1.616  0.671E-03  0.671E-03
  -1.606  0.672E-03  0.672E-03
  -1.596  0.673E-03  0.673E-03
  -1.586  0.673E-03  0.673E-03
  -1.576  0.673E-03  0.673E-03
  -1.566  0.674E-03  0.674E-03
  -1.556  0.673E-03  0.673E-03
  -1.546  0.673E-03  0.673E-03
  -1.536  0.672E-03  0.672E-03
  -1.526  0.672E-03  0.672E-03
  -1.516  0.671E-03  0.671E-03
  -1.506  0.669E-03  0.669E-03
  -1.496  0.668E-03  0.668E-03
  -1.486  0.666E-03  0.666E-03
  -1.476  0.664E-03  0.664E-03
  -1.466  0.662E-03  0.662E-03
  -1.456  0.660E-03  0.660E-03
  -1.446  0.658E-03  0.658E-03
  -1.436  0.656E-03  0.656E-03
  -1.426  0.653E-03  0.653E-03
  -1.416  0.650E-03  0.650E-03
  -1.406  0.647E-03  0.647E-03
  -1.396  0.644E-03  0.644E-03
  -1.386  0.641E-03  0.641E-03
  -1.376  0.638E-03  0.638E-03
  -1.366  0.634E-03  0.634E-03
  -1.356  0.631E-03  0.631E-03
  -1.346  0.627E-03  0.627E-03
  -1.336  0.623E-03  0.623E-03
  -1.326  0.620E-03  0.620E-03
  -1.316  0.616E-03  0.616E-03
  -1.306  0.612E-03  0.612E-03
  -1.296  0.608E-03  0.608E-03
  -1.286  0.603E-03  0.603E-03
  -1.276  0.599E-03  0.599E-03
  -1.266  0.595E-03  0.595E-03
  -1.256  0.591E-03  0.591E-03
  -1.246  0.586E-03  0.586E-03
  -1.236  0.582E-03  0.582E-03
  -1.226  0.578E-03  0.578E-03
  -1.216  0.573E-03  0.573E-03
  -1.206  0.569E-03  0.569E-03
  -1.196  0.564E-03  0.564E-03
  -1.186  0.559E-03  0.559E-03
  -1.176  0.555E-03  0.555E-03
  -1.166  0.550E-03  0.550E-03
  -1.156  0.546E-03  0.546E-03
  -1.146  0.541E-03  0.541E-03
  -1.136  0.536E-03  0.536E-03
  -1.126  0.532E-03  0.532E-03
  -1.116  0.527E-03  0.527E-03
  -1.106  0.522E-03  0.522E-03
  -1.096  0.518E-03  0.518E-03
  -1.086  0.513E-03  0.513E-03
  -1.076  0.508E-03  0.508E-03
  -1.066  0.504E-03  0.504E-03
  -1.056  0.499E-03  0.499E-03
  -1.046  0.494E-03  0.494E-03
  -1.036  0.490E-03  0.490E-03
  -1.026  0.485E-03  0.485E-03
  -1.016  0.480E-03  0.480E-03
  -1.006  0.476E-03  0.476E-03
  -0.996  0.471E-03  0.471E-03
  -0.986  0.466E-03  0.466E-03
  -0.976  0.462E-03  0.462E-03
  -0.966  0.457E-03  0.457E-03
  -0.956  0.452E-03  0.452E-03
  -0.946  0.447E-03  0.447E-03
  -0.936  0.443E-03  0.443E-03
  -0.926  0.438E-03  0.438E-03
  -0.916  0.433E-03  0.433E-03
  -0.906  0.428E-03  0.428E-03
  -0.896  0.424E-03  0.424E-03
  -0.886  0.419E-03  0.419E-03
  -0.876  0.414E-03  0.414E-03
  -0.866  0.409E-03  0.409E-03
  -0.856  0.404E-03  0.404E-03
  -0.846  0.399E-03  0.399E-03
  -0.836  0.394E-03  0.394E-03
  -0.826  0.390E-03  0.390E-03
  -0.816  0.385E-03  0.385E-03
  -0.806  0.380E-03  0.380E-03
  -0.796  0.375E-03  0.375E-03
  -0.786  0.370E-03  0.370E-03
  -0.776  0.365E-03  0.365E-03
  -0.766  0.360E-03  0.360E-03
  -0.756  0.355E-03  0.355E-03
  -0.746  0.350E-03  0.350E-03
  -0.736  0.345E-03  0.345E-03
  -0.726  0.340E-03  0.340E-03
  -0.716  0.335E-03  0.335E-03
  -0.706  0.330E-03  0.330E-03
  -0.696  0.325E-03  0.325E-03
  -0.686  0.320E-03  0.320E-03
  -0.676  0.315E-03  0.315E-03
  -0.666  0.310E-03  0.310E-03
  -0.656  0.305E-03  0.305E-03
  -0.646  0.300E-03  0.300E-03
  -0.636  0.295E-03  0.295E-03
  -0.626  0.290E-03  0.290E-03
  -0.616  0.285E-03  0.285E-03
  -0.606  0.280E-03  0.280E-03
  -0.596  0.275E-03  0.275E-03
  -0.586  0.271E-03  0.271E-03
  -0.576  0.266E-03  0.266E-03
  -0.566  0.261E-03  0.261E-03
  -0.556  0.256E-03  0.256E-03
  -0.546  0.252E-03  0.252E-03
  -0.536  0.247E-03  0.247E-03
  -0.526  0.243E-03  0.243E-03
  -0.516  0.238E-03  0.238E-03
  -0.506  0.234E-03  0.234E-03
  -0.496  0.230E-03  0.230E-03
  -0.486  0.226E-03  0.226E-03
  -0.476  0.221E-03  0.221E-03
  -0.466  0.217E-03  0.217E-03
  -0.456  0.213E-03  0.213E-03
  -0.446  0.210E-03  0.210E-03
  -0.436  0.206E-03  0.206E-03
  -0.426  0.202E-03  0.202E-03
  -0.416  0.199E-03  0.199E-03
  -0.406  0.195E-03  0.195E-03
  -0.396  0.192E-03  0.192E-03
  -0.386  0.189E-03  0.189E-03
  -0.376  0.186E-03  0.186E-03
  -0.366  0.183E-03  0.183E-03
  -0.356  0.180E-03  0.180E-03
  -0.346  0.178E-03  0.178E-03
  -0.336  0.175E-03  0.175E-03
  -0.326  0.173E-03  0.173E-03
  -0.316  0.171E-03  0.171E-03
  -0.306  0.169E-03  0.169E-03
  -0.296  0.167E-03  0.167E-03
  -0.286  0.165E-03  0.165E-03
  -0.276  0.163E-03  0.163E-03
  -0.266  0.162E-03  0.162E-03
  -0.256  0.160E-03  0.160E-03
  -0.246  0.159E-03  0.159E-03
  -0.236  0.158E-03  0.158E-03
  -0.226  0.157E-03  0.157E-03
  -0.216  0.156E-03  0.156E-03
  -0.206  0.156E-03  0.156E-03
  -0.196  0.155E-03  0.155E-03
  -0.186  0.155E-03  0.155E-03
  -0.176  0.154E-03  0.154E-03
  -0.166  0.154E-03  0.154E-03
  -0.156  0.154E-03  0.154E-03
  -0.146  0.154E-03  0.154E-03
  -0.136  0.155E-03  0.155E-03
  -0.126  0.155E-03  0.155E-03
  -0.116  0.155E-03  0.155E-03
  -0.106  0.156E-03  0.156E-03
  -0.096  0.157E-03  0.157E-03
  -0.086  0.157E-03  0.157E-03
  -0.076  0.158E-03  0.158E-03
  -0.066  0.159E-03  0.159E-03
  -0.056  0.160E-03  0.160E-03
  -0.046  0.162E-03  0.162E-03
  -0.036  0.163E-03  0.163E-03
  -0.026  0.164E-03  0.164E-03
  -0.016  0.165E-03  0.165E-03
  -0.006  0.167E-03  0.167E-03
   0.004  0.168E-03  0.168E-03
   0.014  0.170E-03  0.170E-03
   0.024  0.171E-03  0.171E-03
   0.034  0.173E-03  0.173E-03
   0.044  0.175E-03  0.175E-03
   0.054  0.176E-03  0.176E-03
   0.064  0.178E-03  0.178E-03
   0.074  0.180E-03  0.180E-03
   0.084  0.181E-03  0.181E-03
   0.094  0.183E-03  0.183E-03
   0.104  0.185E-03  0.185E-03
   0.114  0.187E-03  0.187E-03
   0.124  0.189E-03  0.189E-03
   0.134  0.190E-03  0.190E-03
   0.144  0.192E-03  0.192E-03
   0.154  0.194E-03  0.194E-03
   0.164  0.196E-03  0.196E-03
   0.174  0.197E-03  0.197E-03
   0.184  0.199E-03  0.199E-03
   0.194  0.201E-03  0.201E-03
   0.204  0.202E-03  0.202E-03
   0.214  0.204E-03  0.204E-03
   0.224  0.206E-03  0.206E-03
   0.234  0.207E-03  0.207E-03
   0.244  0.209E-03  0.209E-03
   0.254  0.210E-03  0.210E-03
   0.264  0.212E-03  0.212E-03
   0.274  0.213E-03  0.213E-03
   0.284  0.215E-03  0.215E-03
   0.294  0.216E-03  0.216E-03
   0.304  0.217E-03  0.217E-03
   0.314  0.219E-03  0.219E-03
   0.324  0.220E-03  0.220E-03
   0.334  0.222E-03  0.222E-03
   0.344  0.223E-03  0.223E-03
   0.354  0.224E-03  0.224E-03
   0.364  0.225E-03  0.225E-03
   0.374  0.227E-03  0.227E-03
   0.384  0.228E-03  0.228E-03
   0.394  0.229E-03  0.229E-03
   0.404  0.231E-03  0.231E-03
   0.414  0.232E-03  0.232E-03
   0.424  0.233E-03  0.233E-03
   0.434  0.235E-03  0.235E-03
   0.444  0.236E-03  0.236E-03
   0.454  0.238E-03  0.238E-03
   0.464  0.239E-03  0.239E-03
   0.474  0.241E-03  0.241E-03
   0.484  0.242E-03  0.242E-03
   0.494  0.244E-03  0.244E-03
   0.504  0.246E-03  0.246E-03
   0.514  0.248E-03  0.248E-03
   0.524  0.249E-03  0.249E-03
   0.534  0.251E-03  0.251E-03
   0.544  0.254E-03  0.254E-03
   0.554  0.256E-03  0.256E-03
   0.564  0.258E-03  0.258E-03
   0.574  0.260E-03  0.260E-03
   0.584  0.263E-03  0.263E-03
   0.594  0.266E-03  0.266E-03
   0.604  0.269E-03  0.269E-03
   0.614  0.272E-03  0.272E-03
   0.624  0.275E-03  0.275E-03
   0.634  0.278E-03  0.278E-03
   0.644  0.281E-03  0.281E-03
   0.654  0.285E-03  0.285E-03
   0.664  0.289E-03  0.289E-03
   0.674  0.293E-03  0.293E-03
   0.684  0.297E-03  0.297E-03
   0.694  0.301E-03  0.301E-03
   0.704  0.306E-03  0.306E-03
   0.714  0.311E-03  0.311E-03
   0.724  0.316E-03  0.316E-03
   0.734  0.321E-03  0.321E-03
   0.744  0.326E-03  0.326E-03
   0.754  0.332E-03  0.332E-03
   0.764  0.338E-03  0.338E-03
   0.774  0.344E-03  0.344E-03
   0.784  0.350E-03  0.350E-03
   0.794  0.357E-03  0.357E-03
   0.804  0.363E-03  0.363E-03
   0.814  0.370E-03  0.370E-03
   0.824  0.377E-03  0.377E-03
   0.834  0.385E-03  0.385E-03
   0.844  0.392E-03  0.392E-03
   0.854  0.400E-03  0.400E-03
   0.864  0.408E-03  0.408E-03
   0.874  0.416E-03  0.416E-03
   0.884  0.425E-03  0.425E-03
   0.894  0.433E-03  0.433E-03
   0.904  0.442E-03  0.442E-03
   0.914  0.451E-03  0.451E-03
   0.924  0.460E-03  0.460E-03
   0.934  0.469E-03  0.469E-03
   0.944  0.479E-03  0.479E-03
   0.954  0.489E-03  0.489E-03
   0.964  0.498E-03  0.498E-03
   0.974  0.508E-03  0.508E-03
   0.984  0.518E-03  0.518E-03
   0.994  0.528E-03  0.528E-03
   1.004  0.539E-03  0.539E-03
   1.014  0.549E-03  0.549E-03
   1.024  0.560E-03  0.560E-03
   1.034  0.570E-03  0.570E-03
   1.044  0.581E-03  0.581E-03
   1.054  0.591E-03  0.591E-03
   1.064  0.602E-03  0.602E-03
   1.074  0.613E-03  0.613E-03
   1.084  0.624E-03  0.624E-03
   1.094  0.635E-03  0.635E-03
   1.104  0.645E-03  0.645E-03
   1.114  0.656E-03  0.656E-03
   1.124  0.667E-03  0.667E-03
   1.134  0.678E-03  0.678E-03
   1.144  0.689E-03  0.689E-03
   1.154  0.699E-03  0.699E-03
   1.164  0.710E-03  0.710E-03
   1.174  0.721E-03  0.721E-03
   1.184  0.731E-03  0.731E-03
   1.194  0.742E-03  0.742E-03
   1.204  0.752E-03  0.752E-03
   1.214  0.763E-03  0.763E-03
   1.224  0.773E-03  0.773E-03
   1.234  0.783E-03  0.783E-03
   1.244  0.794E-03  0.794E-03
   1.254  0.804E-03  0.804E-03
   1.264  0.814E-03  0.814E-03
   1.274  0.823E-03  0.823E-03
   1.284  0.833E-03  0.833E-03
   1.294  0.843E-03  0.843E-03
   1.304  0.853E-03  0.853E-03
   1.314  0.862E-03  0.862E-03
   1.324  0.872E-03  0.872E-03
   1.334  0.881E-03  0.881E-03
   1.344  0.891E-03  0.891E-03
   1.354  0.900E-03  0.900E-03
   1.364  0.909E-03  0.909E-03
   1.374  0.919E-03  0.919E-03
   1.384  0.928E-03  0.928E-03
   1.394  0.937E-03  0.937E-03
   1.404  0.947E-03  0.947E-03
   1.414  0.956E-03  0.956E-03
   1.424  0.966E-03  0.966E-03
   1.434  0.975E-03  0.975E-03
   1.444  0.985E-03  0.985E-03
   1.454  0.995E-03  0.995E-03
   1.464  0.100E-02  0.100E-02
   1.474  0.101E-02  0.101E-02
   1.484  0.103E-02  0.103E-02
   1.494  0.104E-02  0.104E-02
   1.504  0.105E-02  0.105E-02
   1.514  0.106E-02  0.106E-02
   1.524  0.107E-02  0.107E-02
   1.534  0.108E-02  0.108E-02
   1.544  0.109E-02  0.109E-02
   1.554  0.111E-02  0.111E-02
   1.564  0.112E-02  0.112E-02
   1.574  0.113E-02  0.113E-02
   1.584  0.115E-02  0.115E-02
   1.594  0.116E-02  0.116E-02
   1.604  0.118E-02  0.118E-02
   1.614  0.120E-02  0.120E-02
   1.624  0.121E-02  0.121E-02
   1.634  0.123E-02  0.123E-02
   1.644  0.125E-02  0.125E-02
   1.654  0.127E-02  0.127E-02
   1.664  0.129E-02  0.129E-02
   1.674  0.131E-02  0.131E-02
   1.684  0.133E-02  0.133E-02
   1.694  0.135E-02  0.135E-02
   1.704  0.138E-02  0.138E-02
   1.714  0.140E-02  0.140E-02
   1.724  0.143E-02  0.143E-02
   1.734  0.146E-02  0.146E-02
   1.744  0.149E-02  0.149E-02
   1.754  0.152E-02  0.152E-02
   1.764  0.155E-02  0.155E-02
   1.774  0.158E-02  0.158E-02
   1.784  0.161E-02  0.161E-02
   1.794  0.165E-02  0.165E-02
   1.804  0.168E-02  0.168E-02
   1.814  0.172E-02  0.172E-02
   1.824  0.176E-02  0.176E-02
   1.834  0.180E-02  0.180E-02
   1.844  0.184E-02  0.184E-02
   1.854  0.188E-02  0.188E-02
   1.864  0.193E-02  0.193E-02
   1.874  0.197E-02  0.197E-02
   1.884  0.202E-02  0.202E-02
   1.894  0.207E-02  0.207E-02
   1.904  0.212E-02  0.212E-02
   1.914  0.217E-02  0.217E-02
   1.924  0.222E-02  0.222E-02
   1.934  0.228E-02  0.228E-02
   1.944  0.233E-02  0.233E-02
   1.954  0.239E-02  0.239E-02
   1.964  0.245E-02  0.245E-02
   1.974  0.251E-02  0.251E-02
   1.984  0.257E-02  0.257E-02
   1.994  0.263E-02  0.263E-02
   2.004  0.269E-02  0.269E-02
   2.014  0.276E-02  0.276E-02
   2.024  0.283E-02  0.283E-02
   2.034  0.289E-02  0.289E-02
   2.044  0.296E-02  0.296E-02
   2.054  0.303E-02  0.303E-02
   2.064  0.310E-02  0.310E-02
   2.074  0.317E-02  0.317E-02
   2.084  0.324E-02  0.324E-02
   2.094  0.332E-02  0.332E-02
   2.104  0.339E-02  0.339E-02
   2.114  0.346E-02  0.346E-02
   2.124  0.354E-02  0.354E-02
   2.134  0.362E-02  0.362E-02
   2.144  0.369E-02  0.369E-02
   2.154  0.377E-02  0.377E-02
   2.164  0.384E-02  0.384E-02
   2.174  0.392E-02  0.392E-02
   2.184  0.400E-02  0.400E-02
   2.194  0.408E-02  0.408E-02
   2.204  0.415E-02  0.415E-02
   2.214  0.423E-02  0.423E-02
   2.224  0.431E-02  0.431E-02
   2.234  0.439E-02  0.439E-02
   2.244  0.447E-02  0.447E-02
   2.254  0.454E-02  0.454E-02
   2.264  0.462E-02  0.462E-02
   2.274  0.469E-02  0.469E-02
   2.284  0.477E-02  0.477E-02
   2.294  0.484E-02  0.484E-02
   2.304  0.492E-02  0.492E-02
   2.314  0.499E-02  0.499E-02
   2.324  0.506E-02  0.506E-02
   2.334  0.514E-02  0.514E-02
   2.344  0.521E-02  0.521E-02
   2.354  0.528E-02  0.528E-02
   2.364  0.534E-02  0.534E-02
   2.374  0.541E-02  0.541E-02
   2.384  0.548E-02  0.548E-02
   2.394  0.554E-02  0.554E-02
   2.404  0.560E-02  0.560E-02
   2.414  0.567E-02  0.567E-02
   2.424  0.573E-02  0.573E-02
   2.434  0.578E-02  0.578E-02
   2.444  0.584E-02  0.584E-02
   2.454  0.589E-02  0.589E-02
   2.464  0.595E-02  0.595E-02
   2.474  0.600E-02  0.600E-02
   2.484  0.605E-02  0.605E-02
   2.494  0.609E-02  0.609E-02
   2.504  0.614E-02  0.614E-02
   2.514  0.618E-02  0.618E-02
   2.524  0.622E-02  0.622E-02
   2.534  0.626E-02  0.626E-02
   2.544  0.630E-02  0.630E-02
   2.554  0.634E-02  0.634E-02
   2.564  0.637E-02  0.637E-02
   2.574  0.640E-02  0.640E-02
   2.584  0.643E-02  0.643E-02
   2.594  0.645E-02  0.645E-02
   2.604  0.648E-02  0.648E-02
   2.614  0.650E-02  0.650E-02
   2.624  0.652E-02  0.652E-02
   2.634  0.653E-02  0.653E-02
   2.644  0.655E-02  0.655E-02
   2.654  0.656E-02  0.656E-02
   2.664  0.657E-02  0.657E-02
   2.674  0.658E-02  0.658E-02
   2.684  0.658E-02  0.658E-02
   2.694  0.658E-02  0.658E-02
   2.704  0.658E-02  0.658E-02
   2.714  0.658E-02  0.658E-02
   2.724  0.658E-02  0.658E-02
   2.734  0.657E-02  0.657E-02
   2.744  0.656E-02  0.656E-02
   2.754  0.655E-02  0.655E-02
   2.764  0.654E-02  0.654E-02
   2.774  0.653E-02  0.653E-02
   2.784  0.651E-02  0.651E-02
   2.794  0.649E-02  0.649E-02
   2.804  0.647E-02  0.647E-02
   2.814  0.644E-02  0.644E-02
   2.824  0.642E-02  0.642E-02
   2.834  0.639E-02  0.639E-02
   2.844  0.636E-02  0.636E-02
   2.854  0.633E-02  0.633E-02
   2.864  0.629E-02  0.629E-02
   2.874  0.626E-02  0.626E-02
   2.884  0.622E-02  0.622E-02
   2.894  0.618E-02  0.618E-02
   2.904  0.614E-02  0.614E-02
   2.914  0.609E-02  0.609E-02
   2.924  0.605E-02  0.605E-02
   2.934  0.600E-02  0.600E-02
   2.944  0.595E-02  0.595E-02
   2.954  0.590E-02  0.590E-02
   2.964  0.585E-02  0.585E-02
   2.974  0.580E-02  0.580E-02
   2.984  0.574E-02  0.574E-02
   2.994  0.569E-02  0.569E-02
   3.004  0.563E-02  0.563E-02
   3.014  0.557E-02  0.557E-02
   3.024  0.551E-02  0.551E-02
   3.034  0.545E-02  0.545E-02
   3.044  0.538E-02  0.538E-02
   3.054  0.532E-02  0.532E-02
   3.064  0.525E-02  0.525E-02
   3.074  0.518E-02  0.518E-02
   3.084  0.511E-02  0.511E-02
   3.094  0.505E-02  0.505E-02
   3.104  0.497E-02  0.497E-02
   3.114  0.490E-02  0.490E-02
   3.124  0.483E-02  0.483E-02
   3.134  0.476E-02  0.476E-02
   3.144  0.468E-02  0.468E-02
   3.154  0.461E-02  0.461E-02
   3.164  0.453E-02  0.453E-02
   3.174  0.445E-02  0.445E-02
   3.184  0.438E-02  0.438E-02
   3.194  0.430E-02  0.430E-02
   3.204  0.422E-02  0.422E-02
   3.214  0.414E-02  0.414E-02
   3.224  0.406E-02  0.406E-02
   3.234  0.398E-02  0.398E-02
   3.244  0.390E-02  0.390E-02
   3.254  0.382E-02  0.382E-02
   3.264  0.374E-02  0.374E-02
   3.274  0.366E-02  0.366E-02
   3.284  0.358E-02  0.358E-02
   3.294  0.349E-02  0.349E-02
   3.304  0.341E-02  0.341E-02
   3.314  0.333E-02  0.333E-02
   3.324  0.325E-02  0.325E-02
   3.334  0.317E-02  0.317E-02
   3.344  0.309E-02  0.309E-02
   3.354  0.300E-02  0.300E-02
   3.364  0.292E-02  0.292E-02
   3.374  0.284E-02  0.284E-02
   3.384  0.276E-02  0.276E-02
   3.394  0.268E-02  0.268E-02
   3.404  0.260E-02  0.260E-02
   3.414  0.252E-02  0.252E-02
   3.424  0.245E-02  0.245E-02
   3.434  0.237E-02  0.237E-02
   3.444  0.229E-02  0.229E-02
   3.454  0.221E-02  0.221E-02
   3.464  0.214E-02  0.214E-02
   3.474  0.206E-02  0.206E-02
   3.484  0.199E-02  0.199E-02
   3.494  0.192E-02  0.192E-02
   3.504  0.184E-02  0.184E-02
   3.514  0.177E-02  0.177E-02
   3.524  0.170E-02  0.170E-02
   3.534  0.163E-02  0.163E-02
   3.544  0.157E-02  0.157E-02
   3.554  0.150E-02  0.150E-02
   3.564  0.143E-02  0.143E-02
   3.574  0.137E-02  0.137E-02
   3.584  0.130E-02  0.130E-02
   3.594  0.124E-02  0.124E-02
   3.604  0.118E-02  0.118E-02
   3.614  0.112E-02  0.112E-02
   3.624  0.106E-02  0.106E-02
   3.634  0.100E-02  0.100E-02
   3.644  0.948E-03  0.948E-03
   3.654  0.894E-03  0.894E-03
   3.664  0.840E-03  0.840E-03
   3.674  0.789E-03  0.789E-03
   3.684  0.738E-03  0.738E-03
   3.694  0.689E-03  0.689E-03
   3.704  0.641E-03  0.641E-03
   3.714  0.595E-03  0.595E-03
   3.724  0.550E-03  0.550E-03
   3.734  0.507E-03  0.507E-03
   3.744  0.465E-03  0.465E-03
   3.754  0.424E-03  0.424E-03
   3.764  0.385E-03  0.385E-03
   3.774  0.347E-03  0.347E-03
   3.784  0.311E-03  0.311E-03
   3.794  0.276E-03  0.276E-03
   3.804  0.242E-03  0.242E-03
   3.814  0.210E-03  0.210E-03
   3.824  0.179E-03  0.179E-03
   3.834  0.149E-03  0.149E-03
   3.844  0.121E-03  0.121E-03
   3.854  0.939E-04  0.939E-04
   3.864  0.682E-04  0.682E-04
   3.874  0.438E-04  0.438E-04
   3.884  0.206E-04  0.206E-04
   3.894 -0.135E-05 -0.135E-05
   3.904 -0.221E-04 -0.221E-04
   3.914 -0.417E-04 -0.417E-04
   3.924 -0.602E-04 -0.602E-04
   3.934 -0.775E-04 -0.775E-04
   3.944 -0.938E-04 -0.938E-04
   3.954 -0.109E-03 -0.109E-03
   3.964 -0.123E-03 -0.123E-03
   3.974 -0.136E-03 -0.136E-03
   3.984 -0.148E-03 -0.148E-03
   3.994 -0.160E-03 -0.160E-03
   4.004 -0.170E-03 -0.170E-03
   4.014 -0.179E-03 -0.179E-03
   4.024 -0.188E-03 -0.188E-03
   4.034 -0.196E-03 -0.196E-03
   4.044 -0.202E-03 -0.202E-03
   4.054 -0.209E-03 -0.209E-03
   4.064 -0.214E-03 -0.214E-03
   4.074 -0.219E-03 -0.219E-03
   4.084 -0.223E-03 -0.223E-03
   4.094 -0.226E-03 -0.226E-03
   4.104 -0.229E-03 -0.229E-03
   4.114 -0.231E-03 -0.231E-03
   4.124 -0.233E-03 -0.233E-03
   4.134 -0.234E-03 -0.234E-03
   4.144 -0.235E-03 -0.235E-03
   4.154 -0.235E-03 -0.235E-03
   4.164 -0.234E-03 -0.234E-03
   4.174 -0.234E-03 -0.234E-03
   4.184 -0.233E-03 -0.233E-03
   4.194 -0.231E-03 -0.231E-03
   4.204 -0.229E-03 -0.229E-03
   4.214 -0.227E-03 -0.227E-03
   4.224 -0.225E-03 -0.225E-03
   4.234 -0.222E-03 -0.222E-03
   4.244 -0.219E-03 -0.219E-03
   4.254 -0.216E-03 -0.216E-03
   4.264 -0.212E-03 -0.212E-03
   4.274 -0.209E-03 -0.209E-03
   4.284 -0.205E-03 -0.205E-03
   4.294 -0.201E-03 -0.201E-03
   4.304 -0.197E-03 -0.197E-03
   4.314 -0.193E-03 -0.193E-03
   4.324 -0.189E-03 -0.189E-03
   4.334 -0.184E-03 -0.184E-03
   4.344 -0.180E-03 -0.180E-03
   4.354 -0.176E-03 -0.176E-03
   4.364 -0.171E-03 -0.171E-03
   4.374 -0.166E-03 -0.166E-03
   4.384 -0.162E-03 -0.162E-03
   4.394 -0.157E-03 -0.157E-03
   4.404 -0.153E-03 -0.153E-03
   4.414 -0.148E-03 -0.148E-03
   4.424 -0.144E-03 -0.144E-03
   4.434 -0.139E-03 -0.139E-03
   4.444 -0.135E-03 -0.135E-03
   4.454 -0.130E-03 -0.130E-03
   4.464 -0.126E-03 -0.126E-03
   4.474 -0.122E-03 -0.122E-03
   4.484 -0.117E-03 -0.117E-03
   4.494 -0.113E-03 -0.113E-03
   4.504 -0.109E-03 -0.109E-03
   4.514 -0.105E-03 -0.105E-03
   4.524 -0.101E-03 -0.101E-03
   4.534 -0.971E-04 -0.971E-04
   4.544 -0.933E-04 -0.933E-04
   4.554 -0.896E-04 -0.896E-04
   4.564 -0.860E-04 -0.860E-04
   4.574 -0.825E-04 -0.825E-04
   4.584 -0.791E-04 -0.791E-04
   4.594 -0.757E-04 -0.757E-04
   4.604 -0.725E-04 -0.725E-04
   4.614 -0.694E-04 -0.694E-04
   4.624 -0.663E-04 -0.663E-04
   4.634 -0.633E-04 -0.633E-04
   4.644 -0.605E-04 -0.605E-04
   4.654 -0.577E-04 -0.577E-04
   4.664 -0.550E-04 -0.550E-04
   4.674 -0.525E-04 -0.525E-04
   4.684 -0.500E-04 -0.500E-04
   4.694 -0.476E-04 -0.476E-04
   4.704 -0.452E-04 -0.452E-04
   4.714 -0.430E-04 -0.430E-04
   4.724 -0.409E-04 -0.409E-04
   4.734 -0.388E-04 -0.388E-04
   4.744 -0.369E-04 -0.369E-04
   4.754 -0.350E-04 -0.350E-04
   4.764 -0.331E-04 -0.331E-04
   4.774 -0.314E-04 -0.314E-04
   4.784 -0.297E-04 -0.297E-04
   4.794 -0.281E-04 -0.281E-04
   4.804 -0.266E-04 -0.266E-04
   4.814 -0.252E-04 -0.252E-04
   4.824 -0.238E-04 -0.238E-04
   4.834 -0.225E-04 -0.225E-04
   4.844 -0.212E-04 -0.212E-04
   4.854 -0.200E-04 -0.200E-04
   4.864 -0.189E-04 -0.189E-04
   4.874 -0.178E-04 -0.178E-04
   4.884 -0.167E-04 -0.167E-04
   4.894 -0.158E-04 -0.158E-04
   4.904 -0.148E-04 -0.148E-04
   4.914 -0.139E-04 -0.139E-04
   4.924 -0.131E-04 -0.131E-04
   4.934 -0.123E-04 -0.123E-04
   4.944 -0.115E-04 -0.115E-04
   4.954 -0.108E-04 -0.108E-04
   4.964 -0.102E-04 -0.102E-04
   4.974 -0.953E-05 -0.953E-05
   4.984 -0.892E-05 -0.892E-05
   4.994 -0.836E-05 -0.836E-05
   5.004 -0.782E-05 -0.782E-05
   5.014 -0.732E-05 -0.732E-05
   5.024 -0.684E-05 -0.684E-05
   5.034 -0.639E-05 -0.639E-05
   5.044 -0.597E-05 -0.597E-05
   5.054 -0.557E-05 -0.557E-05
   5.064 -0.520E-05 -0.520E-05
   5.074 -0.485E-05 -0.485E-05
   5.084 -0.452E-05 -0.452E-05
   5.094 -0.421E-05 -0.421E-05
   5.104 -0.392E-05 -0.392E-05
   5.114 -0.365E-05 -0.365E-05
   5.124 -0.339E-05 -0.339E-05
   5.134 -0.315E-05 -0.315E-05
   5.144 -0.293E-05 -0.293E-05
   5.154 -0.272E-05 -0.272E-05
   5.164 -0.253E-05 -0.253E-05
   5.174 -0.234E-05 -0.234E-05
   5.184 -0.217E-05 -0.217E-05
   5.194 -0.202E-05 -0.202E-05
   5.204 -0.187E-05 -0.187E-05
   5.214 -0.173E-05 -0.173E-05
   5.224 -0.160E-05 -0.160E-05
   5.234 -0.148E-05 -0.148E-05
   5.244 -0.137E-05 -0.137E-05
   5.254 -0.127E-05 -0.127E-05
   5.264 -0.117E-05 -0.117E-05
   5.274 -0.108E-05 -0.108E-05
   5.284 -0.996E-06 -0.996E-06
   5.294 -0.918E-06 -0.918E-06
