# E (eV)   ldos(E)   pdos(E)   
 -27.116 -0.371E-09 -0.371E-09
 -27.106 -0.400E-09 -0.400E-09
 -27.096 -0.432E-09 -0.432E-09
 -27.086 -0.466E-09 -0.466E-09
 -27.076 -0.502E-09 -0.502E-09
 -27.066 -0.541E-09 -0.541E-09
 -27.056 -0.582E-09 -0.582E-09
 -27.046 -0.626E-09 -0.626E-09
 -27.036 -0.674E-09 -0.674E-09
 -27.026 -0.724E-09 -0.724E-09
 -27.016 -0.778E-09 -0.778E-09
 -27.006 -0.836E-09 -0.836E-09
 -26.996 -0.897E-09 -0.897E-09
 -26.986 -0.962E-09 -0.962E-09
 -26.976 -0.103E-08 -0.103E-08
 -26.966 -0.111E-08 -0.111E-08
 -26.956 -0.118E-08 -0.118E-08
 -26.946 -0.127E-08 -0.127E-08
 -26.936 -0.136E-08 -0.136E-08
 -26.926 -0.145E-08 -0.145E-08
 -26.916 -0.155E-08 -0.155E-08
 -26.906 -0.165E-08 -0.165E-08
 -26.896 -0.177E-08 -0.177E-08
 -26.886 -0.188E-08 -0.188E-08
 -26.876 -0.201E-08 -0.201E-08
 -26.866 -0.214E-08 -0.214E-08
 -26.856 -0.228E-08 -0.228E-08
 -26.846 -0.243E-08 -0.243E-08
 -26.836 -0.258E-08 -0.258E-08
 -26.826 -0.275E-08 -0.275E-08
 -26.816 -0.292E-08 -0.292E-08
 -26.806 -0.310E-08 -0.310E-08
 -26.796 -0.329E-08 -0.329E-08
 -26.786 -0.349E-08 -0.349E-08
 -26.776 -0.371E-08 -0.371E-08
 -26.766 -0.393E-08 -0.393E-08
 -26.756 -0.416E-08 -0.416E-08
 -26.746 -0.440E-08 -0.440E-08
 -26.736 -0.466E-08 -0.466E-08
 -26.726 -0.492E-08 -0.492E-08
 -26.716 -0.520E-08 -0.520E-08
 -26.706 -0.550E-08 -0.550E-08
 -26.696 -0.580E-08 -0.580E-08
 -26.686 -0.612E-08 -0.612E-08
 -26.676 -0.645E-08 -0.645E-08
 -26.666 -0.679E-08 -0.679E-08
 -26.656 -0.715E-08 -0.715E-08
 -26.646 -0.752E-08 -0.752E-08
 -26.636 -0.791E-08 -0.791E-08
 -26.626 -0.831E-08 -0.831E-08
 -26.616 -0.873E-08 -0.873E-08
 -26.606 -0.916E-08 -0.916E-08
 -26.596 -0.961E-08 -0.961E-08
 -26.586 -0.101E-07 -0.101E-07
 -26.576 -0.105E-07 -0.105E-07
 -26.566 -0.110E-07 -0.110E-07
 -26.556 -0.115E-07 -0.115E-07
 -26.546 -0.121E-07 -0.121E-07
 -26.536 -0.126E-07 -0.126E-07
 -26.526 -0.132E-07 -0.132E-07
 -26.516 -0.137E-07 -0.137E-07
 -26.506 -0.143E-07 -0.143E-07
 -26.496 -0.149E-07 -0.149E-07
 -26.486 -0.155E-07 -0.155E-07
 -26.476 -0.161E-07 -0.161E-07
 -26.466 -0.168E-07 -0.168E-07
 -26.456 -0.174E-07 -0.174E-07
 -26.446 -0.181E-07 -0.181E-07
 -26.436 -0.187E-07 -0.187E-07
 -26.426 -0.194E-07 -0.194E-07
 -26.416 -0.201E-07 -0.201E-07
 -26.406 -0.208E-07 -0.208E-07
 -26.396 -0.215E-07 -0.215E-07
 -26.386 -0.222E-07 -0.222E-07
 -26.376 -0.229E-07 -0.229E-07
 -26.366 -0.236E-07 -0.236E-07
 -26.356 -0.243E-07 -0.243E-07
 -26.346 -0.249E-07 -0.249E-07
 -26.336 -0.256E-07 -0.256E-07
 -26.326 -0.263E-07 -0.263E-07
 -26.316 -0.270E-07 -0.270E-07
 -26.306 -0.277E-07 -0.277E-07
 -26.296 -0.283E-07 -0.283E-07
 -26.286 -0.289E-07 -0.289E-07
 -26.276 -0.296E-07 -0.296E-07
 -26.266 -0.302E-07 -0.302E-07
 -26.256 -0.307E-07 -0.307E-07
 -26.246 -0.313E-07 -0.313E-07
 -26.236 -0.318E-07 -0.318E-07
 -26.226 -0.322E-07 -0.322E-07
 -26.216 -0.327E-07 -0.327E-07
 -26.206 -0.330E-07 -0.330E-07
 -26.196 -0.334E-07 -0.334E-07
 -26.186 -0.337E-07 -0.337E-07
 -26.176 -0.339E-07 -0.339E-07
 -26.166 -0.341E-07 -0.341E-07
 -26.156 -0.342E-07 -0.342E-07
 -26.146 -0.342E-07 -0.342E-07
 -26.136 -0.342E-07 -0.342E-07
 -26.126 -0.341E-07 -0.341E-07
 -26.116 -0.339E-07 -0.339E-07
 -26.106 -0.336E-07 -0.336E-07
 -26.096 -0.332E-07 -0.332E-07
 -26.086 -0.327E-07 -0.327E-07
 -26.076 -0.322E-07 -0.322E-07
 -26.066 -0.315E-07 -0.315E-07
 -26.056 -0.307E-07 -0.307E-07
 -26.046 -0.297E-07 -0.297E-07
 -26.036 -0.287E-07 -0.287E-07
 -26.026 -0.275E-07 -0.275E-07
 -26.016 -0.262E-07 -0.262E-07
 -26.006 -0.247E-07 -0.247E-07
 -25.996 -0.231E-07 -0.231E-07
 -25.986 -0.213E-07 -0.213E-07
 -25.976 -0.194E-07 -0.194E-07
 -25.966 -0.173E-07 -0.173E-07
 -25.956 -0.150E-07 -0.150E-07
 -25.946 -0.126E-07 -0.126E-07
 -25.936 -0.997E-08 -0.997E-08
 -25.926 -0.716E-08 -0.716E-08
 -25.916 -0.416E-08 -0.416E-08
 -25.906 -0.972E-09 -0.972E-09
 -25.896  0.242E-08  0.242E-08
 -25.886  0.602E-08  0.602E-08
 -25.876  0.982E-08  0.982E-08
 -25.866  0.138E-07  0.138E-07
 -25.856  0.181E-07  0.181E-07
 -25.846  0.225E-07  0.225E-07
 -25.836  0.272E-07  0.272E-07
 -25.826  0.321E-07  0.321E-07
 -25.816  0.372E-07  0.372E-07
 -25.806  0.426E-07  0.426E-07
 -25.796  0.481E-07  0.481E-07
 -25.786  0.540E-07  0.540E-07
 -25.776  0.600E-07  0.600E-07
 -25.766  0.663E-07  0.663E-07
 -25.756  0.728E-07  0.728E-07
 -25.746  0.796E-07  0.796E-07
 -25.736  0.865E-07  0.865E-07
 -25.726  0.937E-07  0.937E-07
 -25.716  0.101E-06  0.101E-06
 -25.706  0.109E-06  0.109E-06
 -25.696  0.117E-06  0.117E-06
 -25.686  0.125E-06  0.125E-06
 -25.676  0.133E-06  0.133E-06
 -25.666  0.142E-06  0.142E-06
 -25.656  0.150E-06  0.150E-06
 -25.646  0.159E-06  0.159E-06
 -25.636  0.168E-06  0.168E-06
 -25.626  0.178E-06  0.178E-06
 -25.616  0.187E-06  0.187E-06
 -25.606  0.197E-06  0.197E-06
 -25.596  0.207E-06  0.207E-06
 -25.586  0.217E-06  0.217E-06
 -25.576  0.227E-06  0.227E-06
 -25.566  0.237E-06  0.237E-06
 -25.556  0.248E-06  0.248E-06
 -25.546  0.258E-06  0.258E-06
 -25.536  0.269E-06  0.269E-06
 -25.526  0.279E-06  0.279E-06
 -25.516  0.290E-06  0.290E-06
 -25.506  0.301E-06  0.301E-06
 -25.496  0.312E-06  0.312E-06
 -25.486  0.323E-06  0.323E-06
 -25.476  0.334E-06  0.334E-06
 -25.466  0.345E-06  0.345E-06
 -25.456  0.356E-06  0.356E-06
 -25.446  0.367E-06  0.367E-06
 -25.436  0.378E-06  0.378E-06
 -25.426  0.389E-06  0.389E-06
 -25.416  0.400E-06  0.400E-06
 -25.406  0.410E-06  0.410E-06
 -25.396  0.421E-06  0.421E-06
 -25.386  0.431E-06  0.431E-06
 -25.376  0.442E-06  0.442E-06
 -25.366  0.452E-06  0.452E-06
 -25.356  0.462E-06  0.462E-06
 -25.346  0.472E-06  0.472E-06
 -25.336  0.482E-06  0.482E-06
 -25.326  0.492E-06  0.492E-06
 -25.316  0.501E-06  0.501E-06
 -25.306  0.510E-06  0.510E-06
 -25.296  0.519E-06  0.519E-06
 -25.286  0.527E-06  0.527E-06
 -25.276  0.536E-06  0.536E-06
 -25.266  0.544E-06  0.544E-06
 -25.256  0.551E-06  0.551E-06
 -25.246  0.559E-06  0.559E-06
 -25.236  0.566E-06  0.566E-06
 -25.226  0.573E-06  0.573E-06
 -25.216  0.579E-06  0.579E-06
 -25.206  0.585E-06  0.585E-06
 -25.196  0.591E-06  0.591E-06
 -25.186  0.596E-06  0.596E-06
 -25.176  0.601E-06  0.601E-06
 -25.166  0.605E-06  0.605E-06
 -25.156  0.609E-06  0.609E-06
 -25.146  0.613E-06  0.613E-06
 -25.136  0.616E-06  0.616E-06
 -25.126  0.618E-06  0.618E-06
 -25.116  0.621E-06  0.621E-06
 -25.106  0.623E-06  0.623E-06
 -25.096  0.624E-06  0.624E-06
 -25.086  0.625E-06  0.625E-06
 -25.076  0.625E-06  0.625E-06
 -25.066  0.625E-06  0.625E-06
 -25.056  0.625E-06  0.625E-06
 -25.046  0.624E-06  0.624E-06
 -25.036  0.623E-06  0.623E-06
 -25.026  0.621E-06  0.621E-06
 -25.016  0.619E-06  0.619E-06
 -25.006  0.616E-06  0.616E-06
 -24.996  0.613E-06  0.613E-06
 -24.986  0.610E-06  0.610E-06
 -24.976  0.606E-06  0.606E-06
 -24.966  0.602E-06  0.602E-06
 -24.956  0.597E-06  0.597E-06
 -24.946  0.592E-06  0.592E-06
 -24.936  0.586E-06  0.586E-06
 -24.926  0.580E-06  0.580E-06
 -24.916  0.574E-06  0.574E-06
 -24.906  0.567E-06  0.567E-06
 -24.896  0.560E-06  0.560E-06
 -24.886  0.553E-06  0.553E-06
 -24.876  0.545E-06  0.545E-06
 -24.866  0.538E-06  0.538E-06
 -24.856  0.529E-06  0.529E-06
 -24.846  0.521E-06  0.521E-06
 -24.836  0.512E-06  0.512E-06
 -24.826  0.503E-06  0.503E-06
 -24.816  0.494E-06  0.494E-06
 -24.806  0.484E-06  0.484E-06
 -24.796  0.474E-06  0.474E-06
 -24.786  0.465E-06  0.465E-06
 -24.776  0.454E-06  0.454E-06
 -24.766  0.444E-06  0.444E-06
 -24.756  0.434E-06  0.434E-06
 -24.746  0.423E-06  0.423E-06
 -24.736  0.413E-06  0.413E-06
 -24.726  0.402E-06  0.402E-06
 -24.716  0.391E-06  0.391E-06
 -24.706  0.380E-06  0.380E-06
 -24.696  0.369E-06  0.369E-06
 -24.686  0.358E-06  0.358E-06
 -24.676  0.347E-06  0.347E-06
 -24.666  0.336E-06  0.336E-06
 -24.656  0.325E-06  0.325E-06
 -24.646  0.314E-06  0.314E-06
 -24.636  0.304E-06  0.304E-06
 -24.626  0.293E-06  0.293E-06
 -24.616  0.282E-06  0.282E-06
 -24.606  0.271E-06  0.271E-06
 -24.596  0.260E-06  0.260E-06
 -24.586  0.250E-06  0.250E-06
 -24.576  0.239E-06  0.239E-06
 -24.566  0.229E-06  0.229E-06
 -24.556  0.219E-06  0.219E-06
 -24.546  0.209E-06  0.209E-06
 -24.536  0.199E-06  0.199E-06
 -24.526  0.189E-06  0.189E-06
 -24.516  0.180E-06  0.180E-06
 -24.506  0.171E-06  0.171E-06
 -24.496  0.161E-06  0.161E-06
 -24.486  0.152E-06  0.152E-06
 -24.476  0.144E-06  0.144E-06
 -24.466  0.135E-06  0.135E-06
 -24.456  0.127E-06  0.127E-06
 -24.446  0.118E-06  0.118E-06
 -24.436  0.111E-06  0.111E-06
 -24.426  0.103E-06  0.103E-06
 -24.416  0.954E-07  0.954E-07
 -24.406  0.881E-07  0.881E-07
 -24.396  0.811E-07  0.811E-07
 -24.386  0.743E-07  0.743E-07
 -24.376  0.677E-07  0.677E-07
 -24.366  0.614E-07  0.614E-07
 -24.356  0.553E-07  0.553E-07
 -24.346  0.494E-07  0.494E-07
 -24.336  0.438E-07  0.438E-07
 -24.326  0.384E-07  0.384E-07
 -24.316  0.332E-07  0.332E-07
 -24.306  0.283E-07  0.283E-07
 -24.296  0.235E-07  0.235E-07
 -24.286  0.190E-07  0.190E-07
 -24.276  0.148E-07  0.148E-07
 -24.266  0.107E-07  0.107E-07
 -24.256  0.684E-08  0.684E-08
 -24.246  0.320E-08  0.320E-08
 -24.236 -0.240E-09 -0.240E-09
 -24.226 -0.348E-08 -0.348E-08
 -24.216 -0.652E-08 -0.652E-08
 -24.206 -0.936E-08 -0.936E-08
 -24.196 -0.120E-07 -0.120E-07
 -24.186 -0.145E-07 -0.145E-07
 -24.176 -0.168E-07 -0.168E-07
 -24.166 -0.189E-07 -0.189E-07
 -24.156 -0.209E-07 -0.209E-07
 -24.146 -0.227E-07 -0.227E-07
 -24.136 -0.244E-07 -0.244E-07
 -24.126 -0.259E-07 -0.259E-07
 -24.116 -0.272E-07 -0.272E-07
 -24.106 -0.284E-07 -0.284E-07
 -24.096 -0.295E-07 -0.295E-07
 -24.086 -0.305E-07 -0.305E-07
 -24.076 -0.313E-07 -0.313E-07
 -24.066 -0.320E-07 -0.320E-07
 -24.056 -0.326E-07 -0.326E-07
 -24.046 -0.331E-07 -0.331E-07
 -24.036 -0.335E-07 -0.335E-07
 -24.026 -0.338E-07 -0.338E-07
 -24.016 -0.340E-07 -0.340E-07
 -24.006 -0.342E-07 -0.342E-07
 -23.996 -0.342E-07 -0.342E-07
 -23.986 -0.342E-07 -0.342E-07
 -23.976 -0.341E-07 -0.341E-07
 -23.966 -0.340E-07 -0.340E-07
 -23.956 -0.337E-07 -0.337E-07
 -23.946 -0.335E-07 -0.335E-07
 -23.936 -0.331E-07 -0.331E-07
 -23.926 -0.327E-07 -0.327E-07
 -23.916 -0.323E-07 -0.323E-07
 -23.906 -0.319E-07 -0.319E-07
 -23.896 -0.314E-07 -0.314E-07
 -23.886 -0.308E-07 -0.308E-07
 -23.876 -0.303E-07 -0.303E-07
 -23.866 -0.297E-07 -0.297E-07
 -23.856 -0.291E-07 -0.291E-07
 -23.846 -0.285E-07 -0.285E-07
 -23.836 -0.278E-07 -0.278E-07
 -23.826 -0.271E-07 -0.271E-07
 -23.816 -0.265E-07 -0.265E-07
 -23.806 -0.258E-07 -0.258E-07
 -23.796 -0.251E-07 -0.251E-07
 -23.786 -0.244E-07 -0.244E-07
 -23.776 -0.237E-07 -0.237E-07
 -23.766 -0.230E-07 -0.230E-07
 -23.756 -0.223E-07 -0.223E-07
 -23.746 -0.216E-07 -0.216E-07
 -23.736 -0.209E-07 -0.209E-07
 -23.726 -0.202E-07 -0.202E-07
 -23.716 -0.195E-07 -0.195E-07
 -23.706 -0.189E-07 -0.189E-07
 -23.696 -0.182E-07 -0.182E-07
 -23.686 -0.175E-07 -0.175E-07
 -23.676 -0.169E-07 -0.169E-07
 -23.666 -0.163E-07 -0.163E-07
 -23.656 -0.156E-07 -0.156E-07
 -23.646 -0.150E-07 -0.150E-07
 -23.636 -0.144E-07 -0.144E-07
 -23.626 -0.139E-07 -0.139E-07
 -23.616 -0.133E-07 -0.133E-07
 -23.606 -0.127E-07 -0.127E-07
 -23.596 -0.122E-07 -0.122E-07
 -23.586 -0.117E-07 -0.117E-07
 -23.576 -0.111E-07 -0.111E-07
 -23.566 -0.107E-07 -0.107E-07
 -23.556 -0.102E-07 -0.102E-07
 -23.546 -0.971E-08 -0.971E-08
 -23.536 -0.926E-08 -0.926E-08
 -23.526 -0.882E-08 -0.882E-08
 -23.516 -0.840E-08 -0.840E-08
 -23.506 -0.800E-08 -0.800E-08
 -23.496 -0.761E-08 -0.761E-08
 -23.486 -0.723E-08 -0.723E-08
 -23.476 -0.687E-08 -0.687E-08
 -23.466 -0.652E-08 -0.652E-08
 -23.456 -0.619E-08 -0.619E-08
 -23.446 -0.587E-08 -0.587E-08
 -23.436 -0.556E-08 -0.556E-08
 -23.426 -0.527E-08 -0.527E-08
 -23.416 -0.499E-08 -0.499E-08
 -23.406 -0.472E-08 -0.472E-08
 -23.396 -0.446E-08 -0.446E-08
 -23.386 -0.421E-08 -0.421E-08
 -23.376 -0.398E-08 -0.398E-08
 -23.366 -0.375E-08 -0.375E-08
 -23.356 -0.354E-08 -0.354E-08
 -23.346 -0.334E-08 -0.334E-08
 -23.336 -0.314E-08 -0.314E-08
 -23.326 -0.296E-08 -0.296E-08
 -23.316 -0.279E-08 -0.279E-08
 -23.306 -0.262E-08 -0.262E-08
 -23.296 -0.246E-08 -0.246E-08
 -23.286 -0.231E-08 -0.231E-08
 -23.276 -0.217E-08 -0.217E-08
 -23.266 -0.204E-08 -0.204E-08
 -23.256 -0.191E-08 -0.191E-08
 -23.246 -0.179E-08 -0.179E-08
 -23.236 -0.168E-08 -0.168E-08
 -23.226 -0.157E-08 -0.157E-08
 -23.216 -0.147E-08 -0.147E-08
 -23.206 -0.138E-08 -0.138E-08
 -23.196 -0.129E-08 -0.129E-08
 -23.186 -0.120E-08 -0.120E-08
 -23.176 -0.112E-08 -0.112E-08
 -23.166 -0.105E-08 -0.105E-08
 -23.156 -0.977E-09 -0.977E-09
 -23.146 -0.911E-09 -0.911E-09
 -23.136 -0.849E-09 -0.849E-09
 -23.126 -0.791E-09 -0.791E-09
 -23.116 -0.736E-09 -0.736E-09
 -23.106 -0.685E-09 -0.685E-09
 -23.096 -0.637E-09 -0.637E-09
 -23.086 -0.592E-09 -0.592E-09
 -23.076 -0.550E-09 -0.550E-09
 -23.066 -0.511E-09 -0.511E-09
 -23.056 -0.474E-09 -0.474E-09
 -23.046 -0.440E-09 -0.440E-09
 -23.036 -0.408E-09 -0.408E-09
 -23.026 -0.378E-09 -0.378E-09
 -23.016 -0.350E-09 -0.350E-09
 -23.006 -0.324E-09 -0.324E-09
 -22.996 -0.300E-09 -0.300E-09
 -22.986 -0.278E-09 -0.278E-09
 -22.976 -0.257E-09 -0.257E-09
 -22.966 -0.237E-09 -0.237E-09
 -22.956 -0.219E-09 -0.219E-09
 -22.946 -0.203E-09 -0.203E-09
 -22.936 -0.187E-09 -0.187E-09
 -22.926 -0.173E-09 -0.173E-09
 -22.916 -0.160E-09 -0.160E-09
 -22.906 -0.148E-09 -0.148E-09
 -22.896 -0.137E-09 -0.137E-09
 -22.886 -0.126E-09 -0.126E-09
 -22.876 -0.117E-09 -0.117E-09
 -22.866 -0.108E-09 -0.108E-09
 -22.856 -0.100E-09 -0.100E-09
 -22.846 -0.927E-10 -0.927E-10
 -22.836 -0.860E-10 -0.860E-10
 -22.826 -0.800E-10 -0.800E-10
 -22.816 -0.745E-10 -0.745E-10
 -22.806 -0.696E-10 -0.696E-10
 -22.796 -0.652E-10 -0.652E-10
 -22.786 -0.613E-10 -0.613E-10
 -22.776 -0.579E-10 -0.579E-10
 -22.766 -0.549E-10 -0.549E-10
 -22.756 -0.524E-10 -0.524E-10
 -22.746 -0.503E-10 -0.503E-10
 -22.736 -0.485E-10 -0.485E-10
 -22.726 -0.472E-10 -0.472E-10
 -22.716 -0.463E-10 -0.463E-10
 -22.706 -0.457E-10 -0.457E-10
 -22.696 -0.455E-10 -0.455E-10
 -22.686 -0.457E-10 -0.457E-10
 -22.676 -0.463E-10 -0.463E-10
 -22.666 -0.473E-10 -0.473E-10
 -22.656 -0.487E-10 -0.487E-10
 -22.646 -0.504E-10 -0.504E-10
 -22.636 -0.526E-10 -0.526E-10
 -22.626 -0.552E-10 -0.552E-10
 -22.616 -0.583E-10 -0.583E-10
 -22.606 -0.618E-10 -0.618E-10
 -22.596 -0.658E-10 -0.658E-10
 -22.586 -0.703E-10 -0.703E-10
 -22.576 -0.754E-10 -0.754E-10
 -22.566 -0.810E-10 -0.810E-10
 -22.556 -0.872E-10 -0.872E-10
 -22.546 -0.941E-10 -0.941E-10
 -22.536 -0.102E-09 -0.102E-09
 -22.526 -0.110E-09 -0.110E-09
 -22.516 -0.119E-09 -0.119E-09
 -22.506 -0.129E-09 -0.129E-09
 -22.496 -0.140E-09 -0.140E-09
 -22.486 -0.152E-09 -0.152E-09
 -22.476 -0.164E-09 -0.164E-09
 -22.466 -0.178E-09 -0.178E-09
 -22.456 -0.193E-09 -0.193E-09
 -22.446 -0.210E-09 -0.210E-09
 -22.436 -0.227E-09 -0.227E-09
 -22.426 -0.246E-09 -0.246E-09
 -22.416 -0.267E-09 -0.267E-09
 -22.406 -0.289E-09 -0.289E-09
 -22.396 -0.313E-09 -0.313E-09
 -22.386 -0.339E-09 -0.339E-09
 -22.376 -0.366E-09 -0.366E-09
 -22.366 -0.396E-09 -0.396E-09
 -22.356 -0.428E-09 -0.428E-09
 -22.346 -0.463E-09 -0.463E-09
 -22.336 -0.500E-09 -0.500E-09
 -22.326 -0.540E-09 -0.540E-09
 -22.316 -0.582E-09 -0.582E-09
 -22.306 -0.628E-09 -0.628E-09
 -22.296 -0.677E-09 -0.677E-09
 -22.286 -0.729E-09 -0.729E-09
 -22.276 -0.785E-09 -0.785E-09
 -22.266 -0.845E-09 -0.845E-09
 -22.256 -0.909E-09 -0.909E-09
 -22.246 -0.977E-09 -0.977E-09
 -22.236 -0.105E-08 -0.105E-08
 -22.226 -0.113E-08 -0.113E-08
 -22.216 -0.121E-08 -0.121E-08
 -22.206 -0.130E-08 -0.130E-08
 -22.196 -0.139E-08 -0.139E-08
 -22.186 -0.149E-08 -0.149E-08
 -22.176 -0.160E-08 -0.160E-08
 -22.166 -0.171E-08 -0.171E-08
 -22.156 -0.183E-08 -0.183E-08
 -22.146 -0.196E-08 -0.196E-08
 -22.136 -0.210E-08 -0.210E-08
 -22.126 -0.224E-08 -0.224E-08
 -22.116 -0.239E-08 -0.239E-08
 -22.106 -0.255E-08 -0.255E-08
 -22.096 -0.272E-08 -0.272E-08
 -22.086 -0.290E-08 -0.290E-08
 -22.076 -0.309E-08 -0.309E-08
 -22.066 -0.329E-08 -0.329E-08
 -22.056 -0.350E-08 -0.350E-08
 -22.046 -0.373E-08 -0.373E-08
 -22.036 -0.396E-08 -0.396E-08
 -22.026 -0.421E-08 -0.421E-08
 -22.016 -0.447E-08 -0.447E-08
 -22.006 -0.475E-08 -0.475E-08
 -21.996 -0.503E-08 -0.503E-08
 -21.986 -0.534E-08 -0.534E-08
 -21.976 -0.565E-08 -0.565E-08
 -21.966 -0.599E-08 -0.599E-08
 -21.956 -0.633E-08 -0.633E-08
 -21.946 -0.670E-08 -0.670E-08
 -21.936 -0.708E-08 -0.708E-08
 -21.926 -0.748E-08 -0.748E-08
 -21.916 -0.789E-08 -0.789E-08
 -21.906 -0.833E-08 -0.833E-08
 -21.896 -0.878E-08 -0.878E-08
 -21.886 -0.925E-08 -0.925E-08
 -21.876 -0.975E-08 -0.975E-08
 -21.866 -0.103E-07 -0.103E-07
 -21.856 -0.108E-07 -0.108E-07
 -21.846 -0.113E-07 -0.113E-07
 -21.836 -0.119E-07 -0.119E-07
 -21.826 -0.125E-07 -0.125E-07
 -21.816 -0.131E-07 -0.131E-07
 -21.806 -0.138E-07 -0.138E-07
 -21.796 -0.144E-07 -0.144E-07
 -21.786 -0.151E-07 -0.151E-07
 -21.776 -0.158E-07 -0.158E-07
 -21.766 -0.165E-07 -0.165E-07
 -21.756 -0.172E-07 -0.172E-07
 -21.746 -0.180E-07 -0.180E-07
 -21.736 -0.188E-07 -0.188E-07
 -21.726 -0.196E-07 -0.196E-07
 -21.716 -0.204E-07 -0.204E-07
 -21.706 -0.213E-07 -0.213E-07
 -21.696 -0.221E-07 -0.221E-07
 -21.686 -0.230E-07 -0.230E-07
 -21.676 -0.239E-07 -0.239E-07
 -21.666 -0.248E-07 -0.248E-07
 -21.656 -0.257E-07 -0.257E-07
 -21.646 -0.266E-07 -0.266E-07
 -21.636 -0.276E-07 -0.276E-07
 -21.626 -0.285E-07 -0.285E-07
 -21.616 -0.295E-07 -0.295E-07
 -21.606 -0.305E-07 -0.305E-07
 -21.596 -0.315E-07 -0.315E-07
 -21.586 -0.324E-07 -0.324E-07
 -21.576 -0.334E-07 -0.334E-07
 -21.566 -0.344E-07 -0.344E-07
 -21.556 -0.354E-07 -0.354E-07
 -21.546 -0.363E-07 -0.363E-07
 -21.536 -0.373E-07 -0.373E-07
 -21.526 -0.382E-07 -0.382E-07
 -21.516 -0.391E-07 -0.391E-07
 -21.506 -0.400E-07 -0.400E-07
 -21.496 -0.409E-07 -0.409E-07
 -21.486 -0.417E-07 -0.417E-07
 -21.476 -0.425E-07 -0.425E-07
 -21.466 -0.433E-07 -0.433E-07
 -21.456 -0.440E-07 -0.440E-07
 -21.446 -0.447E-07 -0.447E-07
 -21.436 -0.453E-07 -0.453E-07
 -21.426 -0.459E-07 -0.459E-07
 -21.416 -0.464E-07 -0.464E-07
 -21.406 -0.468E-07 -0.468E-07
 -21.396 -0.472E-07 -0.472E-07
 -21.386 -0.475E-07 -0.475E-07
 -21.376 -0.477E-07 -0.477E-07
 -21.366 -0.478E-07 -0.478E-07
 -21.356 -0.478E-07 -0.478E-07
 -21.346 -0.477E-07 -0.477E-07
 -21.336 -0.475E-07 -0.475E-07
 -21.326 -0.471E-07 -0.471E-07
 -21.316 -0.467E-07 -0.467E-07
 -21.306 -0.461E-07 -0.461E-07
 -21.296 -0.453E-07 -0.453E-07
 -21.286 -0.444E-07 -0.444E-07
 -21.276 -0.434E-07 -0.434E-07
 -21.266 -0.422E-07 -0.422E-07
 -21.256 -0.408E-07 -0.408E-07
 -21.246 -0.392E-07 -0.392E-07
 -21.236 -0.375E-07 -0.375E-07
 -21.226 -0.355E-07 -0.355E-07
 -21.216 -0.333E-07 -0.333E-07
 -21.206 -0.310E-07 -0.310E-07
 -21.196 -0.284E-07 -0.284E-07
 -21.186 -0.256E-07 -0.256E-07
 -21.176 -0.225E-07 -0.225E-07
 -21.166 -0.192E-07 -0.192E-07
 -21.156 -0.157E-07 -0.157E-07
 -21.146 -0.119E-07 -0.119E-07
 -21.136 -0.785E-08 -0.785E-08
 -21.126 -0.352E-08 -0.352E-08
 -21.116  0.108E-08  0.108E-08
 -21.106  0.596E-08  0.596E-08
 -21.096  0.111E-07  0.111E-07
 -21.086  0.166E-07  0.166E-07
 -21.076  0.224E-07  0.224E-07
 -21.066  0.284E-07  0.284E-07
 -21.056  0.348E-07  0.348E-07
 -21.046  0.415E-07  0.415E-07
 -21.036  0.485E-07  0.485E-07
 -21.026  0.558E-07  0.558E-07
 -21.016  0.635E-07  0.635E-07
 -21.006  0.714E-07  0.714E-07
 -20.996  0.797E-07  0.797E-07
 -20.986  0.883E-07  0.883E-07
 -20.976  0.973E-07  0.973E-07
 -20.966  0.107E-06  0.107E-06
 -20.956  0.116E-06  0.116E-06
 -20.946  0.126E-06  0.126E-06
 -20.936  0.136E-06  0.136E-06
 -20.926  0.147E-06  0.147E-06
 -20.916  0.158E-06  0.158E-06
 -20.906  0.169E-06  0.169E-06
 -20.896  0.180E-06  0.180E-06
 -20.886  0.192E-06  0.192E-06
 -20.876  0.204E-06  0.204E-06
 -20.866  0.217E-06  0.217E-06
 -20.856  0.229E-06  0.229E-06
 -20.846  0.242E-06  0.242E-06
 -20.836  0.255E-06  0.255E-06
 -20.826  0.269E-06  0.269E-06
 -20.816  0.282E-06  0.282E-06
 -20.806  0.296E-06  0.296E-06
 -20.796  0.310E-06  0.310E-06
 -20.786  0.324E-06  0.324E-06
 -20.776  0.339E-06  0.339E-06
 -20.766  0.353E-06  0.353E-06
 -20.756  0.368E-06  0.368E-06
 -20.746  0.383E-06  0.383E-06
 -20.736  0.398E-06  0.398E-06
 -20.726  0.413E-06  0.413E-06
 -20.716  0.428E-06  0.428E-06
 -20.706  0.444E-06  0.444E-06
 -20.696  0.459E-06  0.459E-06
 -20.686  0.474E-06  0.474E-06
 -20.676  0.490E-06  0.490E-06
 -20.666  0.505E-06  0.505E-06
 -20.656  0.520E-06  0.520E-06
 -20.646  0.535E-06  0.535E-06
 -20.636  0.551E-06  0.551E-06
 -20.626  0.566E-06  0.566E-06
 -20.616  0.581E-06  0.581E-06
 -20.606  0.595E-06  0.595E-06
 -20.596  0.610E-06  0.610E-06
 -20.586  0.624E-06  0.624E-06
 -20.576  0.639E-06  0.639E-06
 -20.566  0.653E-06  0.653E-06
 -20.556  0.666E-06  0.666E-06
 -20.546  0.680E-06  0.680E-06
 -20.536  0.693E-06  0.693E-06
 -20.526  0.706E-06  0.706E-06
 -20.516  0.718E-06  0.718E-06
 -20.506  0.730E-06  0.730E-06
 -20.496  0.742E-06  0.742E-06
 -20.486  0.754E-06  0.754E-06
 -20.476  0.764E-06  0.764E-06
 -20.466  0.775E-06  0.775E-06
 -20.456  0.785E-06  0.785E-06
 -20.446  0.795E-06  0.795E-06
 -20.436  0.804E-06  0.804E-06
 -20.426  0.812E-06  0.812E-06
 -20.416  0.820E-06  0.820E-06
 -20.406  0.828E-06  0.828E-06
 -20.396  0.835E-06  0.835E-06
 -20.386  0.841E-06  0.841E-06
 -20.376  0.847E-06  0.847E-06
 -20.366  0.852E-06  0.852E-06
 -20.356  0.857E-06  0.857E-06
 -20.346  0.861E-06  0.861E-06
 -20.336  0.864E-06  0.864E-06
 -20.326  0.867E-06  0.867E-06
 -20.316  0.869E-06  0.869E-06
 -20.306  0.871E-06  0.871E-06
 -20.296  0.872E-06  0.872E-06
 -20.286  0.872E-06  0.872E-06
 -20.276  0.872E-06  0.872E-06
 -20.266  0.871E-06  0.871E-06
 -20.256  0.870E-06  0.870E-06
 -20.246  0.867E-06  0.867E-06
 -20.236  0.865E-06  0.865E-06
 -20.226  0.861E-06  0.861E-06
 -20.216  0.857E-06  0.857E-06
 -20.206  0.853E-06  0.853E-06
 -20.196  0.847E-06  0.847E-06
 -20.186  0.842E-06  0.842E-06
 -20.176  0.835E-06  0.835E-06
 -20.166  0.828E-06  0.828E-06
 -20.156  0.821E-06  0.821E-06
 -20.146  0.813E-06  0.813E-06
 -20.136  0.804E-06  0.804E-06
 -20.126  0.795E-06  0.795E-06
 -20.116  0.786E-06  0.786E-06
 -20.106  0.776E-06  0.776E-06
 -20.096  0.765E-06  0.765E-06
 -20.086  0.754E-06  0.754E-06
 -20.076  0.743E-06  0.743E-06
 -20.066  0.731E-06  0.731E-06
 -20.056  0.719E-06  0.719E-06
 -20.046  0.707E-06  0.707E-06
 -20.036  0.694E-06  0.694E-06
 -20.026  0.681E-06  0.681E-06
 -20.016  0.667E-06  0.667E-06
 -20.006  0.654E-06  0.654E-06
 -19.996  0.640E-06  0.640E-06
 -19.986  0.626E-06  0.626E-06
 -19.976  0.611E-06  0.611E-06
 -19.966  0.597E-06  0.597E-06
 -19.956  0.582E-06  0.582E-06
 -19.946  0.567E-06  0.567E-06
 -19.936  0.552E-06  0.552E-06
 -19.926  0.537E-06  0.537E-06
 -19.916  0.522E-06  0.522E-06
 -19.906  0.507E-06  0.507E-06
 -19.896  0.492E-06  0.492E-06
 -19.886  0.476E-06  0.476E-06
 -19.876  0.461E-06  0.461E-06
 -19.866  0.446E-06  0.446E-06
 -19.856  0.431E-06  0.431E-06
 -19.846  0.416E-06  0.416E-06
 -19.836  0.401E-06  0.401E-06
 -19.826  0.386E-06  0.386E-06
 -19.816  0.371E-06  0.371E-06
 -19.806  0.357E-06  0.357E-06
 -19.796  0.342E-06  0.342E-06
 -19.786  0.328E-06  0.328E-06
 -19.776  0.314E-06  0.314E-06
 -19.766  0.300E-06  0.300E-06
 -19.756  0.286E-06  0.286E-06
 -19.746  0.273E-06  0.273E-06
 -19.736  0.260E-06  0.260E-06
 -19.726  0.247E-06  0.247E-06
 -19.716  0.234E-06  0.234E-06
 -19.706  0.222E-06  0.222E-06
 -19.696  0.210E-06  0.210E-06
 -19.686  0.198E-06  0.198E-06
 -19.676  0.186E-06  0.186E-06
 -19.666  0.175E-06  0.175E-06
 -19.656  0.164E-06  0.164E-06
 -19.646  0.154E-06  0.154E-06
 -19.636  0.144E-06  0.144E-06
 -19.626  0.134E-06  0.134E-06
 -19.616  0.124E-06  0.124E-06
 -19.606  0.115E-06  0.115E-06
 -19.596  0.106E-06  0.106E-06
 -19.586  0.974E-07  0.974E-07
 -19.576  0.891E-07  0.891E-07
 -19.566  0.812E-07  0.812E-07
 -19.556  0.737E-07  0.737E-07
 -19.546  0.664E-07  0.664E-07
 -19.536  0.595E-07  0.595E-07
 -19.526  0.530E-07  0.530E-07
 -19.516  0.467E-07  0.467E-07
 -19.506  0.408E-07  0.408E-07
 -19.496  0.352E-07  0.352E-07
 -19.486  0.299E-07  0.299E-07
 -19.476  0.249E-07  0.249E-07
 -19.466  0.202E-07  0.202E-07
 -19.456  0.158E-07  0.158E-07
 -19.446  0.116E-07  0.116E-07
 -19.436  0.779E-08  0.779E-08
 -19.426  0.423E-08  0.423E-08
 -19.416  0.926E-09  0.926E-09
 -19.406 -0.212E-08 -0.212E-08
 -19.396 -0.491E-08 -0.491E-08
 -19.386 -0.746E-08 -0.746E-08
 -19.376 -0.977E-08 -0.977E-08
 -19.366 -0.119E-07 -0.119E-07
 -19.356 -0.137E-07 -0.137E-07
 -19.346 -0.154E-07 -0.154E-07
 -19.336 -0.169E-07 -0.169E-07
 -19.326 -0.181E-07 -0.181E-07
 -19.316 -0.192E-07 -0.192E-07
 -19.306 -0.201E-07 -0.201E-07
 -19.296 -0.209E-07 -0.209E-07
 -19.286 -0.214E-07 -0.214E-07
 -19.276 -0.219E-07 -0.219E-07
 -19.266 -0.222E-07 -0.222E-07
 -19.256 -0.223E-07 -0.223E-07
 -19.246 -0.223E-07 -0.223E-07
 -19.236 -0.223E-07 -0.223E-07
 -19.226 -0.221E-07 -0.221E-07
 -19.216 -0.218E-07 -0.218E-07
 -19.206 -0.214E-07 -0.214E-07
 -19.196 -0.209E-07 -0.209E-07
 -19.186 -0.204E-07 -0.204E-07
 -19.176 -0.197E-07 -0.197E-07
 -19.166 -0.190E-07 -0.190E-07
 -19.156 -0.183E-07 -0.183E-07
 -19.146 -0.175E-07 -0.175E-07
 -19.136 -0.166E-07 -0.166E-07
 -19.126 -0.157E-07 -0.157E-07
 -19.116 -0.148E-07 -0.148E-07
 -19.106 -0.139E-07 -0.139E-07
 -19.096 -0.129E-07 -0.129E-07
 -19.086 -0.119E-07 -0.119E-07
 -19.076 -0.109E-07 -0.109E-07
 -19.066 -0.987E-08 -0.987E-08
 -19.056 -0.885E-08 -0.885E-08
 -19.046 -0.782E-08 -0.782E-08
 -19.036 -0.680E-08 -0.680E-08
 -19.026 -0.579E-08 -0.579E-08
 -19.016 -0.479E-08 -0.479E-08
 -19.006 -0.380E-08 -0.380E-08
 -18.996 -0.283E-08 -0.283E-08
 -18.986 -0.188E-08 -0.188E-08
 -18.976 -0.949E-09 -0.949E-09
 -18.966 -0.420E-10 -0.420E-10
 -18.956  0.839E-09  0.839E-09
 -18.946  0.169E-08  0.169E-08
 -18.936  0.252E-08  0.252E-08
 -18.926  0.331E-08  0.331E-08
 -18.916  0.407E-08  0.407E-08
 -18.906  0.479E-08  0.479E-08
 -18.896  0.549E-08  0.549E-08
 -18.886  0.614E-08  0.614E-08
 -18.876  0.677E-08  0.677E-08
 -18.866  0.735E-08  0.735E-08
 -18.856  0.790E-08  0.790E-08
 -18.846  0.841E-08  0.841E-08
 -18.836  0.888E-08  0.888E-08
 -18.826  0.932E-08  0.932E-08
 -18.816  0.972E-08  0.972E-08
 -18.806  0.101E-07  0.101E-07
 -18.796  0.104E-07  0.104E-07
 -18.786  0.107E-07  0.107E-07
 -18.776  0.110E-07  0.110E-07
 -18.766  0.112E-07  0.112E-07
 -18.756  0.114E-07  0.114E-07
 -18.746  0.115E-07  0.115E-07
 -18.736  0.117E-07  0.117E-07
 -18.726  0.118E-07  0.118E-07
 -18.716  0.118E-07  0.118E-07
 -18.706  0.119E-07  0.119E-07
 -18.696  0.119E-07  0.119E-07
 -18.686  0.118E-07  0.118E-07
 -18.676  0.118E-07  0.118E-07
 -18.666  0.117E-07  0.117E-07
 -18.656  0.116E-07  0.116E-07
 -18.646  0.115E-07  0.115E-07
 -18.636  0.114E-07  0.114E-07
 -18.626  0.112E-07  0.112E-07
 -18.616  0.110E-07  0.110E-07
 -18.606  0.108E-07  0.108E-07
 -18.596  0.106E-07  0.106E-07
 -18.586  0.104E-07  0.104E-07
 -18.576  0.102E-07  0.102E-07
 -18.566  0.992E-08  0.992E-08
 -18.556  0.965E-08  0.965E-08
 -18.546  0.938E-08  0.938E-08
 -18.536  0.910E-08  0.910E-08
 -18.526  0.880E-08  0.880E-08
 -18.516  0.851E-08  0.851E-08
 -18.506  0.820E-08  0.820E-08
 -18.496  0.789E-08  0.789E-08
 -18.486  0.757E-08  0.757E-08
 -18.476  0.725E-08  0.725E-08
 -18.466  0.693E-08  0.693E-08
 -18.456  0.661E-08  0.661E-08
 -18.446  0.629E-08  0.629E-08
 -18.436  0.596E-08  0.596E-08
 -18.426  0.564E-08  0.564E-08
 -18.416  0.531E-08  0.531E-08
 -18.406  0.499E-08  0.499E-08
 -18.396  0.468E-08  0.468E-08
 -18.386  0.436E-08  0.436E-08
 -18.376  0.405E-08  0.405E-08
 -18.366  0.374E-08  0.374E-08
 -18.356  0.344E-08  0.344E-08
 -18.346  0.314E-08  0.314E-08
 -18.336  0.285E-08  0.285E-08
 -18.326  0.256E-08  0.256E-08
 -18.316  0.228E-08  0.228E-08
 -18.306  0.201E-08  0.201E-08
 -18.296  0.174E-08  0.174E-08
 -18.286  0.148E-08  0.148E-08
 -18.276  0.122E-08  0.122E-08
 -18.266  0.976E-09  0.976E-09
 -18.256  0.736E-09  0.736E-09
 -18.246  0.504E-09  0.504E-09
 -18.236  0.279E-09  0.279E-09
 -18.226  0.615E-10  0.615E-10
 -18.216 -0.148E-09 -0.148E-09
 -18.206 -0.351E-09 -0.351E-09
 -18.196 -0.546E-09 -0.546E-09
 -18.186 -0.734E-09 -0.734E-09
 -18.176 -0.914E-09 -0.914E-09
 -18.166 -0.109E-08 -0.109E-08
 -18.156 -0.125E-08 -0.125E-08
 -18.146 -0.141E-08 -0.141E-08
 -18.136 -0.156E-08 -0.156E-08
 -18.126 -0.171E-08 -0.171E-08
 -18.116 -0.185E-08 -0.185E-08
 -18.106 -0.198E-08 -0.198E-08
 -18.096 -0.211E-08 -0.211E-08
 -18.086 -0.223E-08 -0.223E-08
 -18.076 -0.235E-08 -0.235E-08
 -18.066 -0.245E-08 -0.245E-08
 -18.056 -0.256E-08 -0.256E-08
 -18.046 -0.266E-08 -0.266E-08
 -18.036 -0.275E-08 -0.275E-08
 -18.026 -0.284E-08 -0.284E-08
 -18.016 -0.293E-08 -0.293E-08
 -18.006 -0.301E-08 -0.301E-08
 -17.996 -0.309E-08 -0.309E-08
 -17.986 -0.317E-08 -0.317E-08
 -17.976 -0.324E-08 -0.324E-08
 -17.966 -0.331E-08 -0.331E-08
 -17.956 -0.337E-08 -0.337E-08
 -17.946 -0.344E-08 -0.344E-08
 -17.936 -0.350E-08 -0.350E-08
 -17.926 -0.356E-08 -0.356E-08
 -17.916 -0.362E-08 -0.362E-08
 -17.906 -0.367E-08 -0.367E-08
 -17.896 -0.373E-08 -0.373E-08
 -17.886 -0.378E-08 -0.378E-08
 -17.876 -0.384E-08 -0.384E-08
 -17.866 -0.389E-08 -0.389E-08
 -17.856 -0.395E-08 -0.395E-08
 -17.846 -0.400E-08 -0.400E-08
 -17.836 -0.406E-08 -0.406E-08
 -17.826 -0.411E-08 -0.411E-08
 -17.816 -0.417E-08 -0.417E-08
 -17.806 -0.422E-08 -0.422E-08
 -17.796 -0.428E-08 -0.428E-08
 -17.786 -0.434E-08 -0.434E-08
 -17.776 -0.440E-08 -0.440E-08
 -17.766 -0.447E-08 -0.447E-08
 -17.756 -0.453E-08 -0.453E-08
 -17.746 -0.460E-08 -0.460E-08
 -17.736 -0.467E-08 -0.467E-08
 -17.726 -0.475E-08 -0.475E-08
 -17.716 -0.482E-08 -0.482E-08
 -17.706 -0.490E-08 -0.490E-08
 -17.696 -0.498E-08 -0.498E-08
 -17.686 -0.507E-08 -0.507E-08
 -17.676 -0.516E-08 -0.516E-08
 -17.666 -0.525E-08 -0.525E-08
 -17.656 -0.535E-08 -0.535E-08
 -17.646 -0.545E-08 -0.545E-08
 -17.636 -0.555E-08 -0.555E-08
 -17.626 -0.566E-08 -0.566E-08
 -17.616 -0.577E-08 -0.577E-08
 -17.606 -0.588E-08 -0.588E-08
 -17.596 -0.600E-08 -0.600E-08
 -17.586 -0.612E-08 -0.612E-08
 -17.576 -0.625E-08 -0.625E-08
 -17.566 -0.637E-08 -0.637E-08
 -17.556 -0.651E-08 -0.651E-08
 -17.546 -0.664E-08 -0.664E-08
 -17.536 -0.678E-08 -0.678E-08
 -17.526 -0.692E-08 -0.692E-08
 -17.516 -0.707E-08 -0.707E-08
 -17.506 -0.722E-08 -0.722E-08
 -17.496 -0.737E-08 -0.737E-08
 -17.486 -0.752E-08 -0.752E-08
 -17.476 -0.767E-08 -0.767E-08
 -17.466 -0.783E-08 -0.783E-08
 -17.456 -0.798E-08 -0.798E-08
 -17.446 -0.814E-08 -0.814E-08
 -17.436 -0.830E-08 -0.830E-08
 -17.426 -0.845E-08 -0.845E-08
 -17.416 -0.861E-08 -0.861E-08
 -17.406 -0.876E-08 -0.876E-08
 -17.396 -0.891E-08 -0.891E-08
 -17.386 -0.905E-08 -0.905E-08
 -17.376 -0.919E-08 -0.919E-08
 -17.366 -0.933E-08 -0.933E-08
 -17.356 -0.945E-08 -0.945E-08
 -17.346 -0.957E-08 -0.957E-08
 -17.336 -0.969E-08 -0.969E-08
 -17.326 -0.979E-08 -0.979E-08
 -17.316 -0.988E-08 -0.988E-08
 -17.306 -0.996E-08 -0.996E-08
 -17.296 -0.100E-07 -0.100E-07
 -17.286 -0.101E-07 -0.101E-07
 -17.276 -0.101E-07 -0.101E-07
 -17.266 -0.101E-07 -0.101E-07
 -17.256 -0.101E-07 -0.101E-07
 -17.246 -0.101E-07 -0.101E-07
 -17.236 -0.100E-07 -0.100E-07
 -17.226 -0.996E-08 -0.996E-08
 -17.216 -0.985E-08 -0.985E-08
 -17.206 -0.972E-08 -0.972E-08
 -17.196 -0.955E-08 -0.955E-08
 -17.186 -0.935E-08 -0.935E-08
 -17.176 -0.911E-08 -0.911E-08
 -17.166 -0.883E-08 -0.883E-08
 -17.156 -0.851E-08 -0.851E-08
 -17.146 -0.815E-08 -0.815E-08
 -17.136 -0.774E-08 -0.774E-08
 -17.126 -0.728E-08 -0.728E-08
 -17.116 -0.677E-08 -0.677E-08
 -17.106 -0.620E-08 -0.620E-08
 -17.096 -0.558E-08 -0.558E-08
 -17.086 -0.490E-08 -0.490E-08
 -17.076 -0.415E-08 -0.415E-08
 -17.066 -0.334E-08 -0.334E-08
 -17.056 -0.246E-08 -0.246E-08
 -17.046 -0.151E-08 -0.151E-08
 -17.036 -0.488E-09 -0.488E-09
 -17.026  0.615E-09  0.615E-09
 -17.016  0.180E-08  0.180E-08
 -17.006  0.306E-08  0.306E-08
 -16.996  0.442E-08  0.442E-08
 -16.986  0.586E-08  0.586E-08
 -16.976  0.739E-08  0.739E-08
 -16.966  0.901E-08  0.901E-08
 -16.956  0.107E-07  0.107E-07
 -16.946  0.126E-07  0.126E-07
 -16.936  0.145E-07  0.145E-07
 -16.926  0.165E-07  0.165E-07
 -16.916  0.187E-07  0.187E-07
 -16.906  0.209E-07  0.209E-07
 -16.896  0.233E-07  0.233E-07
 -16.886  0.257E-07  0.257E-07
 -16.876  0.283E-07  0.283E-07
 -16.866  0.310E-07  0.310E-07
 -16.856  0.338E-07  0.338E-07
 -16.846  0.368E-07  0.368E-07
 -16.836  0.398E-07  0.398E-07
 -16.826  0.430E-07  0.430E-07
 -16.816  0.463E-07  0.463E-07
 -16.806  0.497E-07  0.497E-07
 -16.796  0.533E-07  0.533E-07
 -16.786  0.570E-07  0.570E-07
 -16.776  0.608E-07  0.608E-07
 -16.766  0.647E-07  0.647E-07
 -16.756  0.687E-07  0.687E-07
 -16.746  0.729E-07  0.729E-07
 -16.736  0.772E-07  0.772E-07
 -16.726  0.816E-07  0.816E-07
 -16.716  0.861E-07  0.861E-07
 -16.706  0.907E-07  0.907E-07
 -16.696  0.955E-07  0.955E-07
 -16.686  0.100E-06  0.100E-06
 -16.676  0.105E-06  0.105E-06
 -16.666  0.110E-06  0.110E-06
 -16.656  0.116E-06  0.116E-06
 -16.646  0.121E-06  0.121E-06
 -16.636  0.126E-06  0.126E-06
 -16.626  0.132E-06  0.132E-06
 -16.616  0.137E-06  0.137E-06
 -16.606  0.143E-06  0.143E-06
 -16.596  0.148E-06  0.148E-06
 -16.586  0.154E-06  0.154E-06
 -16.576  0.160E-06  0.160E-06
 -16.566  0.166E-06  0.166E-06
 -16.556  0.172E-06  0.172E-06
 -16.546  0.178E-06  0.178E-06
 -16.536  0.184E-06  0.184E-06
 -16.526  0.190E-06  0.190E-06
 -16.516  0.196E-06  0.196E-06
 -16.506  0.202E-06  0.202E-06
 -16.496  0.208E-06  0.208E-06
 -16.486  0.214E-06  0.214E-06
 -16.476  0.220E-06  0.220E-06
 -16.466  0.226E-06  0.226E-06
 -16.456  0.232E-06  0.232E-06
 -16.446  0.238E-06  0.238E-06
 -16.436  0.244E-06  0.244E-06
 -16.426  0.249E-06  0.249E-06
 -16.416  0.255E-06  0.255E-06
 -16.406  0.261E-06  0.261E-06
 -16.396  0.266E-06  0.266E-06
 -16.386  0.272E-06  0.272E-06
 -16.376  0.277E-06  0.277E-06
 -16.366  0.283E-06  0.283E-06
 -16.356  0.288E-06  0.288E-06
 -16.346  0.293E-06  0.293E-06
 -16.336  0.298E-06  0.298E-06
 -16.326  0.303E-06  0.303E-06
 -16.316  0.308E-06  0.308E-06
 -16.306  0.312E-06  0.312E-06
 -16.296  0.316E-06  0.316E-06
 -16.286  0.321E-06  0.321E-06
 -16.276  0.325E-06  0.325E-06
 -16.266  0.328E-06  0.328E-06
 -16.256  0.332E-06  0.332E-06
 -16.246  0.335E-06  0.335E-06
 -16.236  0.339E-06  0.339E-06
 -16.226  0.342E-06  0.342E-06
 -16.216  0.344E-06  0.344E-06
 -16.206  0.347E-06  0.347E-06
 -16.196  0.349E-06  0.349E-06
 -16.186  0.351E-06  0.351E-06
 -16.176  0.353E-06  0.353E-06
 -16.166  0.355E-06  0.355E-06
 -16.156  0.356E-06  0.356E-06
 -16.146  0.357E-06  0.357E-06
 -16.136  0.358E-06  0.358E-06
 -16.126  0.359E-06  0.359E-06
 -16.116  0.359E-06  0.359E-06
 -16.106  0.359E-06  0.359E-06
 -16.096  0.359E-06  0.359E-06
 -16.086  0.359E-06  0.359E-06
 -16.076  0.358E-06  0.358E-06
 -16.066  0.357E-06  0.357E-06
 -16.056  0.356E-06  0.356E-06
 -16.046  0.355E-06  0.355E-06
 -16.036  0.353E-06  0.353E-06
 -16.026  0.351E-06  0.351E-06
 -16.016  0.349E-06  0.349E-06
 -16.006  0.347E-06  0.347E-06
 -15.996  0.344E-06  0.344E-06
 -15.986  0.341E-06  0.341E-06
 -15.976  0.338E-06  0.338E-06
 -15.966  0.335E-06  0.335E-06
 -15.956  0.331E-06  0.331E-06
 -15.946  0.328E-06  0.328E-06
 -15.936  0.324E-06  0.324E-06
 -15.926  0.320E-06  0.320E-06
 -15.916  0.315E-06  0.315E-06
 -15.906  0.311E-06  0.311E-06
 -15.896  0.306E-06  0.306E-06
 -15.886  0.302E-06  0.302E-06
 -15.876  0.297E-06  0.297E-06
 -15.866  0.291E-06  0.291E-06
 -15.856  0.286E-06  0.286E-06
 -15.846  0.281E-06  0.281E-06
 -15.836  0.275E-06  0.275E-06
 -15.826  0.270E-06  0.270E-06
 -15.816  0.264E-06  0.264E-06
 -15.806  0.258E-06  0.258E-06
 -15.796  0.252E-06  0.252E-06
 -15.786  0.246E-06  0.246E-06
 -15.776  0.240E-06  0.240E-06
 -15.766  0.234E-06  0.234E-06
 -15.756  0.228E-06  0.228E-06
 -15.746  0.221E-06  0.221E-06
 -15.736  0.215E-06  0.215E-06
 -15.726  0.209E-06  0.209E-06
 -15.716  0.202E-06  0.202E-06
 -15.706  0.196E-06  0.196E-06
 -15.696  0.190E-06  0.190E-06
 -15.686  0.183E-06  0.183E-06
 -15.676  0.177E-06  0.177E-06
 -15.666  0.170E-06  0.170E-06
 -15.656  0.164E-06  0.164E-06
 -15.646  0.158E-06  0.158E-06
 -15.636  0.152E-06  0.152E-06
 -15.626  0.145E-06  0.145E-06
 -15.616  0.139E-06  0.139E-06
 -15.606  0.133E-06  0.133E-06
 -15.596  0.127E-06  0.127E-06
 -15.586  0.121E-06  0.121E-06
 -15.576  0.115E-06  0.115E-06
 -15.566  0.109E-06  0.109E-06
 -15.556  0.103E-06  0.103E-06
 -15.546  0.977E-07  0.977E-07
 -15.536  0.921E-07  0.921E-07
 -15.526  0.866E-07  0.866E-07
 -15.516  0.812E-07  0.812E-07
 -15.506  0.759E-07  0.759E-07
 -15.496  0.707E-07  0.707E-07
 -15.486  0.655E-07  0.655E-07
 -15.476  0.605E-07  0.605E-07
 -15.466  0.556E-07  0.556E-07
 -15.456  0.508E-07  0.508E-07
 -15.446  0.462E-07  0.462E-07
 -15.436  0.416E-07  0.416E-07
 -15.426  0.371E-07  0.371E-07
 -15.416  0.328E-07  0.328E-07
 -15.406  0.285E-07  0.285E-07
 -15.396  0.244E-07  0.244E-07
 -15.386  0.203E-07  0.203E-07
 -15.376  0.164E-07  0.164E-07
 -15.366  0.125E-07  0.125E-07
 -15.356  0.882E-08  0.882E-08
 -15.346  0.519E-08  0.519E-08
 -15.336  0.166E-08  0.166E-08
 -15.326 -0.178E-08 -0.178E-08
 -15.316 -0.512E-08 -0.512E-08
 -15.306 -0.837E-08 -0.837E-08
 -15.296 -0.115E-07 -0.115E-07
 -15.286 -0.146E-07 -0.146E-07
 -15.276 -0.176E-07 -0.176E-07
 -15.266 -0.205E-07 -0.205E-07
 -15.256 -0.234E-07 -0.234E-07
 -15.246 -0.261E-07 -0.261E-07
 -15.236 -0.288E-07 -0.288E-07
 -15.226 -0.315E-07 -0.315E-07
 -15.216 -0.341E-07 -0.341E-07
 -15.206 -0.366E-07 -0.366E-07
 -15.196 -0.390E-07 -0.390E-07
 -15.186 -0.415E-07 -0.415E-07
 -15.176 -0.438E-07 -0.438E-07
 -15.166 -0.461E-07 -0.461E-07
 -15.156 -0.484E-07 -0.484E-07
 -15.146 -0.507E-07 -0.507E-07
 -15.136 -0.529E-07 -0.529E-07
 -15.126 -0.551E-07 -0.551E-07
 -15.116 -0.572E-07 -0.572E-07
 -15.106 -0.593E-07 -0.593E-07
 -15.096 -0.614E-07 -0.614E-07
 -15.086 -0.635E-07 -0.635E-07
 -15.076 -0.656E-07 -0.656E-07
 -15.066 -0.677E-07 -0.677E-07
 -15.056 -0.697E-07 -0.697E-07
 -15.046 -0.717E-07 -0.717E-07
 -15.036 -0.737E-07 -0.737E-07
 -15.026 -0.758E-07 -0.758E-07
 -15.016 -0.778E-07 -0.778E-07
 -15.006 -0.798E-07 -0.798E-07
 -14.996 -0.817E-07 -0.817E-07
 -14.986 -0.837E-07 -0.837E-07
 -14.976 -0.857E-07 -0.857E-07
 -14.966 -0.877E-07 -0.877E-07
 -14.956 -0.896E-07 -0.896E-07
 -14.946 -0.916E-07 -0.916E-07
 -14.936 -0.935E-07 -0.935E-07
 -14.926 -0.955E-07 -0.955E-07
 -14.916 -0.974E-07 -0.974E-07
 -14.906 -0.993E-07 -0.993E-07
 -14.896 -0.101E-06 -0.101E-06
 -14.886 -0.103E-06 -0.103E-06
 -14.876 -0.105E-06 -0.105E-06
 -14.866 -0.107E-06 -0.107E-06
 -14.856 -0.108E-06 -0.108E-06
 -14.846 -0.110E-06 -0.110E-06
 -14.836 -0.112E-06 -0.112E-06
 -14.826 -0.113E-06 -0.113E-06
 -14.816 -0.115E-06 -0.115E-06
 -14.806 -0.116E-06 -0.116E-06
 -14.796 -0.118E-06 -0.118E-06
 -14.786 -0.119E-06 -0.119E-06
 -14.776 -0.120E-06 -0.120E-06
 -14.766 -0.122E-06 -0.122E-06
 -14.756 -0.123E-06 -0.123E-06
 -14.746 -0.123E-06 -0.123E-06
 -14.736 -0.124E-06 -0.124E-06
 -14.726 -0.125E-06 -0.125E-06
 -14.716 -0.125E-06 -0.125E-06
 -14.706 -0.126E-06 -0.126E-06
 -14.696 -0.126E-06 -0.126E-06
 -14.686 -0.126E-06 -0.126E-06
 -14.676 -0.126E-06 -0.126E-06
 -14.666 -0.125E-06 -0.125E-06
 -14.656 -0.124E-06 -0.124E-06
 -14.646 -0.123E-06 -0.123E-06
 -14.636 -0.122E-06 -0.122E-06
 -14.626 -0.121E-06 -0.121E-06
 -14.616 -0.119E-06 -0.119E-06
 -14.606 -0.117E-06 -0.117E-06
 -14.596 -0.115E-06 -0.115E-06
 -14.586 -0.112E-06 -0.112E-06
 -14.576 -0.109E-06 -0.109E-06
 -14.566 -0.105E-06 -0.105E-06
 -14.556 -0.102E-06 -0.102E-06
 -14.546 -0.974E-07 -0.974E-07
 -14.536 -0.927E-07 -0.927E-07
 -14.526 -0.876E-07 -0.876E-07
 -14.516 -0.821E-07 -0.821E-07
 -14.506 -0.761E-07 -0.761E-07
 -14.496 -0.695E-07 -0.695E-07
 -14.486 -0.625E-07 -0.625E-07
 -14.476 -0.550E-07 -0.550E-07
 -14.466 -0.469E-07 -0.469E-07
 -14.456 -0.382E-07 -0.382E-07
 -14.446 -0.289E-07 -0.289E-07
 -14.436 -0.191E-07 -0.191E-07
 -14.426 -0.861E-08 -0.861E-08
 -14.416  0.250E-08  0.250E-08
 -14.406  0.143E-07  0.143E-07
 -14.396  0.267E-07  0.267E-07
 -14.386  0.398E-07  0.398E-07
 -14.376  0.536E-07  0.536E-07
 -14.366  0.682E-07  0.682E-07
 -14.356  0.835E-07  0.835E-07
 -14.346  0.995E-07  0.995E-07
 -14.336  0.116E-06  0.116E-06
 -14.326  0.134E-06  0.134E-06
 -14.316  0.152E-06  0.152E-06
 -14.306  0.171E-06  0.171E-06
 -14.296  0.191E-06  0.191E-06
 -14.286  0.212E-06  0.212E-06
 -14.276  0.234E-06  0.234E-06
 -14.266  0.256E-06  0.256E-06
 -14.256  0.279E-06  0.279E-06
 -14.246  0.304E-06  0.304E-06
 -14.236  0.329E-06  0.329E-06
 -14.226  0.355E-06  0.355E-06
 -14.216  0.381E-06  0.381E-06
 -14.206  0.409E-06  0.409E-06
 -14.196  0.437E-06  0.437E-06
 -14.186  0.467E-06  0.467E-06
 -14.176  0.497E-06  0.497E-06
 -14.166  0.528E-06  0.528E-06
 -14.156  0.560E-06  0.560E-06
 -14.146  0.593E-06  0.593E-06
 -14.136  0.626E-06  0.626E-06
 -14.126  0.661E-06  0.661E-06
 -14.116  0.696E-06  0.696E-06
 -14.106  0.732E-06  0.732E-06
 -14.096  0.769E-06  0.769E-06
 -14.086  0.807E-06  0.807E-06
 -14.076  0.845E-06  0.845E-06
 -14.066  0.884E-06  0.884E-06
 -14.056  0.924E-06  0.924E-06
 -14.046  0.965E-06  0.965E-06
 -14.036  0.101E-05  0.101E-05
 -14.026  0.105E-05  0.105E-05
 -14.016  0.109E-05  0.109E-05
 -14.006  0.113E-05  0.113E-05
 -13.996  0.118E-05  0.118E-05
 -13.986  0.122E-05  0.122E-05
 -13.976  0.127E-05  0.127E-05
 -13.966  0.131E-05  0.131E-05
 -13.956  0.136E-05  0.136E-05
 -13.946  0.140E-05  0.140E-05
 -13.936  0.145E-05  0.145E-05
 -13.926  0.150E-05  0.150E-05
 -13.916  0.154E-05  0.154E-05
 -13.906  0.159E-05  0.159E-05
 -13.896  0.164E-05  0.164E-05
 -13.886  0.168E-05  0.168E-05
 -13.876  0.173E-05  0.173E-05
 -13.866  0.178E-05  0.178E-05
 -13.856  0.182E-05  0.182E-05
 -13.846  0.187E-05  0.187E-05
 -13.836  0.192E-05  0.192E-05
 -13.826  0.197E-05  0.197E-05
 -13.816  0.201E-05  0.201E-05
 -13.806  0.206E-05  0.206E-05
 -13.796  0.210E-05  0.210E-05
 -13.786  0.215E-05  0.215E-05
 -13.776  0.219E-05  0.219E-05
 -13.766  0.224E-05  0.224E-05
 -13.756  0.228E-05  0.228E-05
 -13.746  0.233E-05  0.233E-05
 -13.736  0.237E-05  0.237E-05
 -13.726  0.241E-05  0.241E-05
 -13.716  0.245E-05  0.245E-05
 -13.706  0.249E-05  0.249E-05
 -13.696  0.253E-05  0.253E-05
 -13.686  0.257E-05  0.257E-05
 -13.676  0.261E-05  0.261E-05
 -13.666  0.264E-05  0.264E-05
 -13.656  0.268E-05  0.268E-05
 -13.646  0.271E-05  0.271E-05
 -13.636  0.274E-05  0.274E-05
 -13.626  0.277E-05  0.277E-05
 -13.616  0.280E-05  0.280E-05
 -13.606  0.283E-05  0.283E-05
 -13.596  0.286E-05  0.286E-05
 -13.586  0.288E-05  0.288E-05
 -13.576  0.291E-05  0.291E-05
 -13.566  0.293E-05  0.293E-05
 -13.556  0.295E-05  0.295E-05
 -13.546  0.297E-05  0.297E-05
 -13.536  0.299E-05  0.299E-05
 -13.526  0.300E-05  0.300E-05
 -13.516  0.302E-05  0.302E-05
 -13.506  0.303E-05  0.303E-05
 -13.496  0.304E-05  0.304E-05
 -13.486  0.305E-05  0.305E-05
 -13.476  0.306E-05  0.306E-05
 -13.466  0.306E-05  0.306E-05
 -13.456  0.307E-05  0.307E-05
 -13.446  0.307E-05  0.307E-05
 -13.436  0.307E-05  0.307E-05
 -13.426  0.307E-05  0.307E-05
 -13.416  0.306E-05  0.306E-05
 -13.406  0.306E-05  0.306E-05
 -13.396  0.305E-05  0.305E-05
 -13.386  0.304E-05  0.304E-05
 -13.376  0.303E-05  0.303E-05
 -13.366  0.302E-05  0.302E-05
 -13.356  0.300E-05  0.300E-05
 -13.346  0.299E-05  0.299E-05
 -13.336  0.297E-05  0.297E-05
 -13.326  0.295E-05  0.295E-05
 -13.316  0.293E-05  0.293E-05
 -13.306  0.291E-05  0.291E-05
 -13.296  0.288E-05  0.288E-05
 -13.286  0.286E-05  0.286E-05
 -13.276  0.283E-05  0.283E-05
 -13.266  0.280E-05  0.280E-05
 -13.256  0.277E-05  0.277E-05
 -13.246  0.274E-05  0.274E-05
 -13.236  0.271E-05  0.271E-05
 -13.226  0.267E-05  0.267E-05
 -13.216  0.264E-05  0.264E-05
 -13.206  0.260E-05  0.260E-05
 -13.196  0.256E-05  0.256E-05
 -13.186  0.252E-05  0.252E-05
 -13.176  0.248E-05  0.248E-05
 -13.166  0.244E-05  0.244E-05
 -13.156  0.240E-05  0.240E-05
 -13.146  0.236E-05  0.236E-05
 -13.136  0.232E-05  0.232E-05
 -13.126  0.227E-05  0.227E-05
 -13.116  0.223E-05  0.223E-05
 -13.106  0.218E-05  0.218E-05
 -13.096  0.213E-05  0.213E-05
 -13.086  0.209E-05  0.209E-05
 -13.076  0.204E-05  0.204E-05
 -13.066  0.199E-05  0.199E-05
 -13.056  0.195E-05  0.195E-05
 -13.046  0.190E-05  0.190E-05
 -13.036  0.185E-05  0.185E-05
 -13.026  0.180E-05  0.180E-05
 -13.016  0.175E-05  0.175E-05
 -13.006  0.170E-05  0.170E-05
 -12.996  0.165E-05  0.165E-05
 -12.986  0.160E-05  0.160E-05
 -12.976  0.156E-05  0.156E-05
 -12.966  0.151E-05  0.151E-05
 -12.956  0.146E-05  0.146E-05
 -12.946  0.141E-05  0.141E-05
 -12.936  0.136E-05  0.136E-05
 -12.926  0.132E-05  0.132E-05
 -12.916  0.127E-05  0.127E-05
 -12.906  0.122E-05  0.122E-05
 -12.896  0.117E-05  0.117E-05
 -12.886  0.113E-05  0.113E-05
 -12.876  0.108E-05  0.108E-05
 -12.866  0.104E-05  0.104E-05
 -12.856  0.994E-06  0.994E-06
 -12.846  0.951E-06  0.951E-06
 -12.836  0.908E-06  0.908E-06
 -12.826  0.866E-06  0.866E-06
 -12.816  0.824E-06  0.824E-06
 -12.806  0.783E-06  0.783E-06
 -12.796  0.743E-06  0.743E-06
 -12.786  0.704E-06  0.704E-06
 -12.776  0.665E-06  0.665E-06
 -12.766  0.627E-06  0.627E-06
 -12.756  0.590E-06  0.590E-06
 -12.746  0.554E-06  0.554E-06
 -12.736  0.519E-06  0.519E-06
 -12.726  0.484E-06  0.484E-06
 -12.716  0.451E-06  0.451E-06
 -12.706  0.418E-06  0.418E-06
 -12.696  0.386E-06  0.386E-06
 -12.686  0.355E-06  0.355E-06
 -12.676  0.324E-06  0.324E-06
 -12.666  0.295E-06  0.295E-06
 -12.656  0.266E-06  0.266E-06
 -12.646  0.238E-06  0.238E-06
 -12.636  0.212E-06  0.212E-06
 -12.626  0.185E-06  0.185E-06
 -12.616  0.160E-06  0.160E-06
 -12.606  0.136E-06  0.136E-06
 -12.596  0.112E-06  0.112E-06
 -12.586  0.893E-07  0.893E-07
 -12.576  0.673E-07  0.673E-07
 -12.566  0.461E-07  0.461E-07
 -12.556  0.256E-07  0.256E-07
 -12.546  0.591E-08  0.591E-08
 -12.536 -0.130E-07 -0.130E-07
 -12.526 -0.313E-07 -0.313E-07
 -12.516 -0.488E-07 -0.488E-07
 -12.506 -0.655E-07 -0.655E-07
 -12.496 -0.816E-07 -0.816E-07
 -12.486 -0.970E-07 -0.970E-07
 -12.476 -0.112E-06 -0.112E-06
 -12.466 -0.126E-06 -0.126E-06
 -12.456 -0.139E-06 -0.139E-06
 -12.446 -0.152E-06 -0.152E-06
 -12.436 -0.164E-06 -0.164E-06
 -12.426 -0.175E-06 -0.175E-06
 -12.416 -0.186E-06 -0.186E-06
 -12.406 -0.197E-06 -0.197E-06
 -12.396 -0.206E-06 -0.206E-06
 -12.386 -0.215E-06 -0.215E-06
 -12.376 -0.224E-06 -0.224E-06
 -12.366 -0.232E-06 -0.232E-06
 -12.356 -0.239E-06 -0.239E-06
 -12.346 -0.246E-06 -0.246E-06
 -12.336 -0.252E-06 -0.252E-06
 -12.326 -0.258E-06 -0.258E-06
 -12.316 -0.263E-06 -0.263E-06
 -12.306 -0.267E-06 -0.267E-06
 -12.296 -0.271E-06 -0.271E-06
 -12.286 -0.275E-06 -0.275E-06
 -12.276 -0.278E-06 -0.278E-06
 -12.266 -0.280E-06 -0.280E-06
 -12.256 -0.282E-06 -0.282E-06
 -12.246 -0.283E-06 -0.283E-06
 -12.236 -0.284E-06 -0.284E-06
 -12.226 -0.284E-06 -0.284E-06
 -12.216 -0.283E-06 -0.283E-06
 -12.206 -0.282E-06 -0.282E-06
 -12.196 -0.280E-06 -0.280E-06
 -12.186 -0.278E-06 -0.278E-06
 -12.176 -0.274E-06 -0.274E-06
 -12.166 -0.271E-06 -0.271E-06
 -12.156 -0.266E-06 -0.266E-06
 -12.146 -0.261E-06 -0.261E-06
 -12.136 -0.255E-06 -0.255E-06
 -12.126 -0.249E-06 -0.249E-06
 -12.116 -0.242E-06 -0.242E-06
 -12.106 -0.234E-06 -0.234E-06
 -12.096 -0.225E-06 -0.225E-06
 -12.086 -0.216E-06 -0.216E-06
 -12.076 -0.205E-06 -0.205E-06
 -12.066 -0.194E-06 -0.194E-06
 -12.056 -0.182E-06 -0.182E-06
 -12.046 -0.169E-06 -0.169E-06
 -12.036 -0.156E-06 -0.156E-06
 -12.026 -0.141E-06 -0.141E-06
 -12.016 -0.126E-06 -0.126E-06
 -12.006 -0.109E-06 -0.109E-06
 -11.996 -0.921E-07 -0.921E-07
 -11.986 -0.739E-07 -0.739E-07
 -11.976 -0.548E-07 -0.548E-07
 -11.966 -0.346E-07 -0.346E-07
 -11.956 -0.135E-07 -0.135E-07
 -11.946  0.861E-08  0.861E-08
 -11.936  0.317E-07  0.317E-07
 -11.926  0.558E-07  0.558E-07
 -11.916  0.810E-07  0.810E-07
 -11.906  0.107E-06  0.107E-06
 -11.896  0.134E-06  0.134E-06
 -11.886  0.162E-06  0.162E-06
 -11.876  0.192E-06  0.192E-06
 -11.866  0.222E-06  0.222E-06
 -11.856  0.253E-06  0.253E-06
 -11.846  0.285E-06  0.285E-06
 -11.836  0.318E-06  0.318E-06
 -11.826  0.352E-06  0.352E-06
 -11.816  0.387E-06  0.387E-06
 -11.806  0.423E-06  0.423E-06
 -11.796  0.459E-06  0.459E-06
 -11.786  0.497E-06  0.497E-06
 -11.776  0.535E-06  0.535E-06
 -11.766  0.574E-06  0.574E-06
 -11.756  0.614E-06  0.614E-06
 -11.746  0.654E-06  0.654E-06
 -11.736  0.695E-06  0.695E-06
 -11.726  0.736E-06  0.736E-06
 -11.716  0.778E-06  0.778E-06
 -11.706  0.820E-06  0.820E-06
 -11.696  0.862E-06  0.862E-06
 -11.686  0.905E-06  0.905E-06
 -11.676  0.947E-06  0.947E-06
 -11.666  0.990E-06  0.990E-06
 -11.656  0.103E-05  0.103E-05
 -11.646  0.107E-05  0.107E-05
 -11.636  0.111E-05  0.111E-05
 -11.626  0.116E-05  0.116E-05
 -11.616  0.120E-05  0.120E-05
 -11.606  0.123E-05  0.123E-05
 -11.596  0.127E-05  0.127E-05
 -11.586  0.131E-05  0.131E-05
 -11.576  0.134E-05  0.134E-05
 -11.566  0.137E-05  0.137E-05
 -11.556  0.140E-05  0.140E-05
 -11.546  0.143E-05  0.143E-05
 -11.536  0.146E-05  0.146E-05
 -11.526  0.148E-05  0.148E-05
 -11.516  0.150E-05  0.150E-05
 -11.506  0.151E-05  0.151E-05
 -11.496  0.152E-05  0.152E-05
 -11.486  0.153E-05  0.153E-05
 -11.476  0.153E-05  0.153E-05
 -11.466  0.152E-05  0.152E-05
 -11.456  0.151E-05  0.151E-05
 -11.446  0.149E-05  0.149E-05
 -11.436  0.146E-05  0.146E-05
 -11.426  0.142E-05  0.142E-05
 -11.416  0.138E-05  0.138E-05
 -11.406  0.132E-05  0.132E-05
 -11.396  0.126E-05  0.126E-05
 -11.386  0.118E-05  0.118E-05
 -11.376  0.109E-05  0.109E-05
 -11.366  0.986E-06  0.986E-06
 -11.356  0.866E-06  0.866E-06
 -11.346  0.730E-06  0.730E-06
 -11.336  0.575E-06  0.575E-06
 -11.326  0.402E-06  0.402E-06
 -11.316  0.208E-06  0.208E-06
 -11.306 -0.962E-08 -0.962E-08
 -11.296 -0.251E-06 -0.251E-06
 -11.286 -0.519E-06 -0.519E-06
 -11.276 -0.816E-06 -0.816E-06
 -11.266 -0.114E-05 -0.114E-05
 -11.256 -0.150E-05 -0.150E-05
 -11.246 -0.190E-05 -0.190E-05
 -11.236 -0.234E-05 -0.234E-05
 -11.226 -0.281E-05 -0.281E-05
 -11.216 -0.334E-05 -0.334E-05
 -11.206 -0.391E-05 -0.391E-05
 -11.196 -0.453E-05 -0.453E-05
 -11.186 -0.521E-05 -0.521E-05
 -11.176 -0.595E-05 -0.595E-05
 -11.166 -0.675E-05 -0.675E-05
 -11.156 -0.763E-05 -0.763E-05
 -11.146 -0.858E-05 -0.858E-05
 -11.136 -0.961E-05 -0.961E-05
 -11.126 -0.107E-04 -0.107E-04
 -11.116 -0.119E-04 -0.119E-04
 -11.106 -0.132E-04 -0.132E-04
 -11.096 -0.146E-04 -0.146E-04
 -11.086 -0.162E-04 -0.162E-04
 -11.076 -0.178E-04 -0.178E-04
 -11.066 -0.196E-04 -0.196E-04
 -11.056 -0.215E-04 -0.215E-04
 -11.046 -0.236E-04 -0.236E-04
 -11.036 -0.258E-04 -0.258E-04
 -11.026 -0.282E-04 -0.282E-04
 -11.016 -0.308E-04 -0.308E-04
 -11.006 -0.335E-04 -0.335E-04
 -10.996 -0.365E-04 -0.365E-04
 -10.986 -0.397E-04 -0.397E-04
 -10.976 -0.431E-04 -0.431E-04
 -10.966 -0.468E-04 -0.468E-04
 -10.956 -0.507E-04 -0.507E-04
 -10.946 -0.549E-04 -0.549E-04
 -10.936 -0.594E-04 -0.594E-04
 -10.926 -0.642E-04 -0.642E-04
 -10.916 -0.693E-04 -0.693E-04
 -10.906 -0.748E-04 -0.748E-04
 -10.896 -0.807E-04 -0.807E-04
 -10.886 -0.870E-04 -0.870E-04
 -10.876 -0.936E-04 -0.936E-04
 -10.866 -0.101E-03 -0.101E-03
 -10.856 -0.108E-03 -0.108E-03
 -10.846 -0.116E-03 -0.116E-03
 -10.836 -0.125E-03 -0.125E-03
 -10.826 -0.134E-03 -0.134E-03
 -10.816 -0.144E-03 -0.144E-03
 -10.806 -0.154E-03 -0.154E-03
 -10.796 -0.165E-03 -0.165E-03
 -10.786 -0.177E-03 -0.177E-03
 -10.776 -0.189E-03 -0.189E-03
 -10.766 -0.202E-03 -0.202E-03
 -10.756 -0.216E-03 -0.216E-03
 -10.746 -0.230E-03 -0.230E-03
 -10.736 -0.246E-03 -0.246E-03
 -10.726 -0.262E-03 -0.262E-03
 -10.716 -0.279E-03 -0.279E-03
 -10.706 -0.297E-03 -0.297E-03
 -10.696 -0.317E-03 -0.317E-03
 -10.686 -0.337E-03 -0.337E-03
 -10.676 -0.358E-03 -0.358E-03
 -10.666 -0.380E-03 -0.380E-03
 -10.656 -0.404E-03 -0.404E-03
 -10.646 -0.429E-03 -0.429E-03
 -10.636 -0.455E-03 -0.455E-03
 -10.626 -0.482E-03 -0.482E-03
 -10.616 -0.510E-03 -0.510E-03
 -10.606 -0.540E-03 -0.540E-03
 -10.596 -0.572E-03 -0.572E-03
 -10.586 -0.605E-03 -0.605E-03
 -10.576 -0.639E-03 -0.639E-03
 -10.566 -0.675E-03 -0.675E-03
 -10.556 -0.713E-03 -0.713E-03
 -10.546 -0.752E-03 -0.752E-03
 -10.536 -0.792E-03 -0.792E-03
 -10.526 -0.835E-03 -0.835E-03
 -10.516 -0.879E-03 -0.879E-03
 -10.506 -0.925E-03 -0.925E-03
 -10.496 -0.973E-03 -0.973E-03
 -10.486 -0.102E-02 -0.102E-02
 -10.476 -0.107E-02 -0.107E-02
 -10.466 -0.113E-02 -0.113E-02
 -10.456 -0.118E-02 -0.118E-02
 -10.446 -0.124E-02 -0.124E-02
 -10.436 -0.130E-02 -0.130E-02
 -10.426 -0.136E-02 -0.136E-02
 -10.416 -0.142E-02 -0.142E-02
 -10.406 -0.149E-02 -0.149E-02
 -10.396 -0.155E-02 -0.155E-02
 -10.386 -0.162E-02 -0.162E-02
 -10.376 -0.169E-02 -0.169E-02
 -10.366 -0.177E-02 -0.177E-02
 -10.356 -0.184E-02 -0.184E-02
 -10.346 -0.192E-02 -0.192E-02
 -10.336 -0.199E-02 -0.199E-02
 -10.326 -0.207E-02 -0.207E-02
 -10.316 -0.215E-02 -0.215E-02
 -10.306 -0.224E-02 -0.224E-02
 -10.296 -0.232E-02 -0.232E-02
 -10.286 -0.240E-02 -0.240E-02
 -10.276 -0.249E-02 -0.249E-02
 -10.266 -0.258E-02 -0.258E-02
 -10.256 -0.267E-02 -0.267E-02
 -10.246 -0.276E-02 -0.276E-02
 -10.236 -0.284E-02 -0.284E-02
 -10.226 -0.293E-02 -0.293E-02
 -10.216 -0.302E-02 -0.302E-02
 -10.206 -0.311E-02 -0.311E-02
 -10.196 -0.320E-02 -0.320E-02
 -10.186 -0.329E-02 -0.329E-02
 -10.176 -0.338E-02 -0.338E-02
 -10.166 -0.347E-02 -0.347E-02
 -10.156 -0.356E-02 -0.356E-02
 -10.146 -0.364E-02 -0.364E-02
 -10.136 -0.373E-02 -0.373E-02
 -10.126 -0.381E-02 -0.381E-02
 -10.116 -0.388E-02 -0.388E-02
 -10.106 -0.396E-02 -0.396E-02
 -10.096 -0.403E-02 -0.403E-02
 -10.086 -0.410E-02 -0.410E-02
 -10.076 -0.417E-02 -0.417E-02
 -10.066 -0.423E-02 -0.423E-02
 -10.056 -0.428E-02 -0.428E-02
 -10.046 -0.433E-02 -0.433E-02
 -10.036 -0.438E-02 -0.438E-02
 -10.026 -0.441E-02 -0.441E-02
 -10.016 -0.444E-02 -0.444E-02
 -10.006 -0.447E-02 -0.447E-02
  -9.996 -0.448E-02 -0.448E-02
  -9.986 -0.449E-02 -0.449E-02
  -9.976 -0.449E-02 -0.449E-02
  -9.966 -0.447E-02 -0.447E-02
  -9.956 -0.445E-02 -0.445E-02
  -9.946 -0.442E-02 -0.442E-02
  -9.936 -0.438E-02 -0.438E-02
  -9.926 -0.432E-02 -0.432E-02
  -9.916 -0.425E-02 -0.425E-02
  -9.906 -0.417E-02 -0.417E-02
  -9.896 -0.407E-02 -0.407E-02
  -9.886 -0.396E-02 -0.396E-02
  -9.876 -0.384E-02 -0.384E-02
  -9.866 -0.369E-02 -0.369E-02
  -9.856 -0.354E-02 -0.354E-02
  -9.846 -0.336E-02 -0.336E-02
  -9.836 -0.317E-02 -0.317E-02
  -9.826 -0.296E-02 -0.296E-02
  -9.816 -0.273E-02 -0.273E-02
  -9.806 -0.248E-02 -0.248E-02
  -9.796 -0.221E-02 -0.221E-02
  -9.786 -0.192E-02 -0.192E-02
  -9.776 -0.160E-02 -0.160E-02
  -9.766 -0.127E-02 -0.127E-02
  -9.756 -0.912E-03 -0.912E-03
  -9.746 -0.533E-03 -0.533E-03
  -9.736 -0.130E-03 -0.130E-03
  -9.726  0.297E-03  0.297E-03
  -9.716  0.749E-03  0.749E-03
  -9.706  0.123E-02  0.123E-02
  -9.696  0.173E-02  0.173E-02
  -9.686  0.225E-02  0.225E-02
  -9.676  0.281E-02  0.281E-02
  -9.666  0.339E-02  0.339E-02
  -9.656  0.399E-02  0.399E-02
  -9.646  0.463E-02  0.463E-02
  -9.636  0.529E-02  0.529E-02
  -9.626  0.597E-02  0.597E-02
  -9.616  0.669E-02  0.669E-02
  -9.606  0.743E-02  0.743E-02
  -9.596  0.820E-02  0.820E-02
  -9.586  0.899E-02  0.899E-02
  -9.576  0.981E-02  0.981E-02
  -9.566  0.107E-01  0.107E-01
  -9.556  0.115E-01  0.115E-01
  -9.546  0.124E-01  0.124E-01
  -9.536  0.134E-01  0.134E-01
  -9.526  0.143E-01  0.143E-01
  -9.516  0.153E-01  0.153E-01
  -9.506  0.163E-01  0.163E-01
  -9.496  0.174E-01  0.174E-01
  -9.486  0.184E-01  0.184E-01
  -9.476  0.195E-01  0.195E-01
  -9.466  0.206E-01  0.206E-01
  -9.456  0.217E-01  0.217E-01
  -9.446  0.229E-01  0.229E-01
  -9.436  0.240E-01  0.240E-01
  -9.426  0.252E-01  0.252E-01
  -9.416  0.264E-01  0.264E-01
  -9.406  0.276E-01  0.276E-01
  -9.396  0.289E-01  0.289E-01
  -9.386  0.302E-01  0.302E-01
  -9.376  0.314E-01  0.314E-01
  -9.366  0.327E-01  0.327E-01
  -9.356  0.340E-01  0.340E-01
  -9.346  0.353E-01  0.353E-01
  -9.336  0.367E-01  0.367E-01
  -9.326  0.380E-01  0.380E-01
  -9.316  0.393E-01  0.393E-01
  -9.306  0.407E-01  0.407E-01
  -9.296  0.420E-01  0.420E-01
  -9.286  0.434E-01  0.434E-01
  -9.276  0.448E-01  0.448E-01
  -9.266  0.461E-01  0.461E-01
  -9.256  0.475E-01  0.475E-01
  -9.246  0.489E-01  0.489E-01
  -9.236  0.502E-01  0.502E-01
  -9.226  0.516E-01  0.516E-01
  -9.216  0.529E-01  0.529E-01
  -9.206  0.543E-01  0.543E-01
  -9.196  0.556E-01  0.556E-01
  -9.186  0.570E-01  0.570E-01
  -9.176  0.583E-01  0.583E-01
  -9.166  0.596E-01  0.596E-01
  -9.156  0.609E-01  0.609E-01
  -9.146  0.622E-01  0.622E-01
  -9.136  0.634E-01  0.634E-01
  -9.126  0.647E-01  0.647E-01
  -9.116  0.659E-01  0.659E-01
  -9.106  0.672E-01  0.672E-01
  -9.096  0.684E-01  0.684E-01
  -9.086  0.695E-01  0.695E-01
  -9.076  0.707E-01  0.707E-01
  -9.066  0.718E-01  0.718E-01
  -9.056  0.729E-01  0.729E-01
  -9.046  0.740E-01  0.740E-01
  -9.036  0.751E-01  0.751E-01
  -9.026  0.761E-01  0.761E-01
  -9.016  0.771E-01  0.771E-01
  -9.006  0.781E-01  0.781E-01
  -8.996  0.791E-01  0.791E-01
  -8.986  0.800E-01  0.800E-01
  -8.976  0.809E-01  0.809E-01
  -8.966  0.817E-01  0.817E-01
  -8.956  0.826E-01  0.826E-01
  -8.946  0.834E-01  0.834E-01
  -8.936  0.842E-01  0.842E-01
  -8.926  0.849E-01  0.849E-01
  -8.916  0.856E-01  0.856E-01
  -8.906  0.863E-01  0.863E-01
  -8.896  0.869E-01  0.869E-01
  -8.886  0.876E-01  0.876E-01
  -8.876  0.881E-01  0.881E-01
  -8.866  0.887E-01  0.887E-01
  -8.856  0.892E-01  0.892E-01
  -8.846  0.897E-01  0.897E-01
  -8.836  0.901E-01  0.901E-01
  -8.826  0.906E-01  0.906E-01
  -8.816  0.910E-01  0.910E-01
  -8.806  0.913E-01  0.913E-01
  -8.796  0.916E-01  0.916E-01
  -8.786  0.919E-01  0.919E-01
  -8.776  0.922E-01  0.922E-01
  -8.766  0.924E-01  0.924E-01
  -8.756  0.926E-01  0.926E-01
  -8.746  0.928E-01  0.928E-01
  -8.736  0.929E-01  0.929E-01
  -8.726  0.931E-01  0.931E-01
  -8.716  0.931E-01  0.931E-01
  -8.706  0.932E-01  0.932E-01
  -8.696  0.932E-01  0.932E-01
  -8.686  0.932E-01  0.932E-01
  -8.676  0.932E-01  0.932E-01
  -8.666  0.931E-01  0.931E-01
  -8.656  0.930E-01  0.930E-01
  -8.646  0.929E-01  0.929E-01
  -8.636  0.928E-01  0.928E-01
  -8.626  0.926E-01  0.926E-01
  -8.616  0.924E-01  0.924E-01
  -8.606  0.922E-01  0.922E-01
  -8.596  0.920E-01  0.920E-01
  -8.586  0.917E-01  0.917E-01
  -8.576  0.915E-01  0.915E-01
  -8.566  0.912E-01  0.912E-01
  -8.556  0.908E-01  0.908E-01
  -8.546  0.905E-01  0.905E-01
  -8.536  0.901E-01  0.901E-01
  -8.526  0.897E-01  0.897E-01
  -8.516  0.893E-01  0.893E-01
  -8.506  0.889E-01  0.889E-01
  -8.496  0.885E-01  0.885E-01
  -8.486  0.880E-01  0.880E-01
  -8.476  0.875E-01  0.875E-01
  -8.466  0.870E-01  0.870E-01
  -8.456  0.865E-01  0.865E-01
  -8.446  0.860E-01  0.860E-01
  -8.436  0.854E-01  0.854E-01
  -8.426  0.849E-01  0.849E-01
  -8.416  0.843E-01  0.843E-01
  -8.406  0.837E-01  0.837E-01
  -8.396  0.831E-01  0.831E-01
  -8.386  0.825E-01  0.825E-01
  -8.376  0.819E-01  0.819E-01
  -8.366  0.813E-01  0.813E-01
  -8.356  0.806E-01  0.806E-01
  -8.346  0.800E-01  0.800E-01
  -8.336  0.793E-01  0.793E-01
  -8.326  0.787E-01  0.787E-01
  -8.316  0.780E-01  0.780E-01
  -8.306  0.773E-01  0.773E-01
  -8.296  0.767E-01  0.767E-01
  -8.286  0.760E-01  0.760E-01
  -8.276  0.753E-01  0.753E-01
  -8.266  0.747E-01  0.747E-01
  -8.256  0.740E-01  0.740E-01
  -8.246  0.733E-01  0.733E-01
  -8.236  0.727E-01  0.727E-01
  -8.226  0.720E-01  0.720E-01
  -8.216  0.714E-01  0.714E-01
  -8.206  0.708E-01  0.708E-01
  -8.196  0.701E-01  0.701E-01
  -8.186  0.695E-01  0.695E-01
  -8.176  0.689E-01  0.689E-01
  -8.166  0.683E-01  0.683E-01
  -8.156  0.677E-01  0.677E-01
  -8.146  0.672E-01  0.672E-01
  -8.136  0.667E-01  0.667E-01
  -8.126  0.661E-01  0.661E-01
  -8.116  0.656E-01  0.656E-01
  -8.106  0.652E-01  0.652E-01
  -8.096  0.647E-01  0.647E-01
  -8.086  0.643E-01  0.643E-01
  -8.076  0.639E-01  0.639E-01
  -8.066  0.636E-01  0.636E-01
  -8.056  0.632E-01  0.632E-01
  -8.046  0.629E-01  0.629E-01
  -8.036  0.627E-01  0.627E-01
  -8.026  0.624E-01  0.624E-01
  -8.016  0.622E-01  0.622E-01
  -8.006  0.621E-01  0.621E-01
  -7.996  0.619E-01  0.619E-01
  -7.986  0.619E-01  0.619E-01
  -7.976  0.618E-01  0.618E-01
  -7.966  0.618E-01  0.618E-01
  -7.956  0.618E-01  0.618E-01
  -7.946  0.619E-01  0.619E-01
  -7.936  0.621E-01  0.621E-01
  -7.926  0.622E-01  0.622E-01
  -7.916  0.624E-01  0.624E-01
  -7.906  0.627E-01  0.627E-01
  -7.896  0.630E-01  0.630E-01
  -7.886  0.634E-01  0.634E-01
  -7.876  0.638E-01  0.638E-01
  -7.866  0.642E-01  0.642E-01
  -7.856  0.647E-01  0.647E-01
  -7.846  0.652E-01  0.652E-01
  -7.836  0.658E-01  0.658E-01
  -7.826  0.664E-01  0.664E-01
  -7.816  0.671E-01  0.671E-01
  -7.806  0.678E-01  0.678E-01
  -7.796  0.686E-01  0.686E-01
  -7.786  0.694E-01  0.694E-01
  -7.776  0.702E-01  0.702E-01
  -7.766  0.711E-01  0.711E-01
  -7.756  0.720E-01  0.720E-01
  -7.746  0.730E-01  0.730E-01
  -7.736  0.740E-01  0.740E-01
  -7.726  0.750E-01  0.750E-01
  -7.716  0.761E-01  0.761E-01
  -7.706  0.772E-01  0.772E-01
  -7.696  0.783E-01  0.783E-01
  -7.686  0.794E-01  0.794E-01
  -7.676  0.806E-01  0.806E-01
  -7.666  0.818E-01  0.818E-01
  -7.656  0.830E-01  0.830E-01
  -7.646  0.843E-01  0.843E-01
  -7.636  0.855E-01  0.855E-01
  -7.626  0.868E-01  0.868E-01
  -7.616  0.881E-01  0.881E-01
  -7.606  0.894E-01  0.894E-01
  -7.596  0.907E-01  0.907E-01
  -7.586  0.920E-01  0.920E-01
  -7.576  0.932E-01  0.932E-01
  -7.566  0.945E-01  0.945E-01
  -7.556  0.958E-01  0.958E-01
  -7.546  0.971E-01  0.971E-01
  -7.536  0.984E-01  0.984E-01
  -7.526  0.996E-01  0.996E-01
  -7.516  0.101E+00  0.101E+00
  -7.506  0.102E+00  0.102E+00
  -7.496  0.103E+00  0.103E+00
  -7.486  0.104E+00  0.104E+00
  -7.476  0.106E+00  0.106E+00
  -7.466  0.107E+00  0.107E+00
  -7.456  0.108E+00  0.108E+00
  -7.446  0.109E+00  0.109E+00
  -7.436  0.110E+00  0.110E+00
  -7.426  0.111E+00  0.111E+00
  -7.416  0.112E+00  0.112E+00
  -7.406  0.112E+00  0.112E+00
  -7.396  0.113E+00  0.113E+00
  -7.386  0.114E+00  0.114E+00
  -7.376  0.115E+00  0.115E+00
  -7.366  0.115E+00  0.115E+00
  -7.356  0.116E+00  0.116E+00
  -7.346  0.116E+00  0.116E+00
  -7.336  0.117E+00  0.117E+00
  -7.326  0.117E+00  0.117E+00
  -7.316  0.118E+00  0.118E+00
  -7.306  0.118E+00  0.118E+00
  -7.296  0.118E+00  0.118E+00
  -7.286  0.118E+00  0.118E+00
  -7.276  0.118E+00  0.118E+00
  -7.266  0.118E+00  0.118E+00
  -7.256  0.118E+00  0.118E+00
  -7.246  0.118E+00  0.118E+00
  -7.236  0.118E+00  0.118E+00
  -7.226  0.118E+00  0.118E+00
  -7.216  0.117E+00  0.117E+00
  -7.206  0.117E+00  0.117E+00
  -7.196  0.116E+00  0.116E+00
  -7.186  0.116E+00  0.116E+00
  -7.176  0.115E+00  0.115E+00
  -7.166  0.114E+00  0.114E+00
  -7.156  0.113E+00  0.113E+00
  -7.146  0.113E+00  0.113E+00
  -7.136  0.112E+00  0.112E+00
  -7.126  0.111E+00  0.111E+00
  -7.116  0.110E+00  0.110E+00
  -7.106  0.108E+00  0.108E+00
  -7.096  0.107E+00  0.107E+00
  -7.086  0.106E+00  0.106E+00
  -7.076  0.105E+00  0.105E+00
  -7.066  0.103E+00  0.103E+00
  -7.056  0.102E+00  0.102E+00
  -7.046  0.100E+00  0.100E+00
  -7.036  0.989E-01  0.989E-01
  -7.026  0.973E-01  0.973E-01
  -7.016  0.957E-01  0.957E-01
  -7.006  0.941E-01  0.941E-01
  -6.996  0.923E-01  0.923E-01
  -6.986  0.906E-01  0.906E-01
  -6.976  0.888E-01  0.888E-01
  -6.966  0.870E-01  0.870E-01
  -6.956  0.852E-01  0.852E-01
  -6.946  0.833E-01  0.833E-01
  -6.936  0.814E-01  0.814E-01
  -6.926  0.795E-01  0.795E-01
  -6.916  0.775E-01  0.775E-01
  -6.906  0.755E-01  0.755E-01
  -6.896  0.736E-01  0.736E-01
  -6.886  0.716E-01  0.716E-01
  -6.876  0.696E-01  0.696E-01
  -6.866  0.676E-01  0.676E-01
  -6.856  0.656E-01  0.656E-01
  -6.846  0.636E-01  0.636E-01
  -6.836  0.616E-01  0.616E-01
  -6.826  0.596E-01  0.596E-01
  -6.816  0.576E-01  0.576E-01
  -6.806  0.556E-01  0.556E-01
  -6.796  0.536E-01  0.536E-01
  -6.786  0.517E-01  0.517E-01
  -6.776  0.497E-01  0.497E-01
  -6.766  0.478E-01  0.478E-01
  -6.756  0.459E-01  0.459E-01
  -6.746  0.440E-01  0.440E-01
  -6.736  0.422E-01  0.422E-01
  -6.726  0.404E-01  0.404E-01
  -6.716  0.386E-01  0.386E-01
  -6.706  0.368E-01  0.368E-01
  -6.696  0.351E-01  0.351E-01
  -6.686  0.334E-01  0.334E-01
  -6.676  0.318E-01  0.318E-01
  -6.666  0.302E-01  0.302E-01
  -6.656  0.286E-01  0.286E-01
  -6.646  0.271E-01  0.271E-01
  -6.636  0.256E-01  0.256E-01
  -6.626  0.242E-01  0.242E-01
  -6.616  0.228E-01  0.228E-01
  -6.606  0.214E-01  0.214E-01
  -6.596  0.202E-01  0.202E-01
  -6.586  0.189E-01  0.189E-01
  -6.576  0.177E-01  0.177E-01
  -6.566  0.166E-01  0.166E-01
  -6.556  0.155E-01  0.155E-01
  -6.546  0.145E-01  0.145E-01
  -6.536  0.135E-01  0.135E-01
  -6.526  0.126E-01  0.126E-01
  -6.516  0.117E-01  0.117E-01
  -6.506  0.109E-01  0.109E-01
  -6.496  0.101E-01  0.101E-01
  -6.486  0.942E-02  0.942E-02
  -6.476  0.877E-02  0.877E-02
  -6.466  0.817E-02  0.817E-02
  -6.456  0.763E-02  0.763E-02
  -6.446  0.714E-02  0.714E-02
  -6.436  0.670E-02  0.670E-02
  -6.426  0.631E-02  0.631E-02
  -6.416  0.598E-02  0.598E-02
  -6.406  0.570E-02  0.570E-02
  -6.396  0.547E-02  0.547E-02
  -6.386  0.529E-02  0.529E-02
  -6.376  0.516E-02  0.516E-02
  -6.366  0.508E-02  0.508E-02
  -6.356  0.505E-02  0.505E-02
  -6.346  0.507E-02  0.507E-02
  -6.336  0.513E-02  0.513E-02
  -6.326  0.524E-02  0.524E-02
  -6.316  0.539E-02  0.539E-02
  -6.306  0.558E-02  0.558E-02
  -6.296  0.582E-02  0.582E-02
  -6.286  0.609E-02  0.609E-02
  -6.276  0.641E-02  0.641E-02
  -6.266  0.676E-02  0.676E-02
  -6.256  0.715E-02  0.715E-02
  -6.246  0.758E-02  0.758E-02
  -6.236  0.804E-02  0.804E-02
  -6.226  0.853E-02  0.853E-02
  -6.216  0.905E-02  0.905E-02
  -6.206  0.960E-02  0.960E-02
  -6.196  0.102E-01  0.102E-01
  -6.186  0.108E-01  0.108E-01
  -6.176  0.114E-01  0.114E-01
  -6.166  0.121E-01  0.121E-01
  -6.156  0.127E-01  0.127E-01
  -6.146  0.134E-01  0.134E-01
  -6.136  0.141E-01  0.141E-01
  -6.126  0.149E-01  0.149E-01
  -6.116  0.156E-01  0.156E-01
  -6.106  0.164E-01  0.164E-01
  -6.096  0.171E-01  0.171E-01
  -6.086  0.179E-01  0.179E-01
  -6.076  0.187E-01  0.187E-01
  -6.066  0.195E-01  0.195E-01
  -6.056  0.203E-01  0.203E-01
  -6.046  0.211E-01  0.211E-01
  -6.036  0.219E-01  0.219E-01
  -6.026  0.227E-01  0.227E-01
  -6.016  0.235E-01  0.235E-01
  -6.006  0.243E-01  0.243E-01
  -5.996  0.251E-01  0.251E-01
  -5.986  0.259E-01  0.259E-01
  -5.976  0.267E-01  0.267E-01
  -5.966  0.275E-01  0.275E-01
  -5.956  0.282E-01  0.282E-01
  -5.946  0.290E-01  0.290E-01
  -5.936  0.297E-01  0.297E-01
  -5.926  0.305E-01  0.305E-01
  -5.916  0.312E-01  0.312E-01
  -5.906  0.319E-01  0.319E-01
  -5.896  0.326E-01  0.326E-01
  -5.886  0.332E-01  0.332E-01
  -5.876  0.339E-01  0.339E-01
  -5.866  0.345E-01  0.345E-01
  -5.856  0.351E-01  0.351E-01
  -5.846  0.357E-01  0.357E-01
  -5.836  0.363E-01  0.363E-01
  -5.826  0.368E-01  0.368E-01
  -5.816  0.373E-01  0.373E-01
  -5.806  0.378E-01  0.378E-01
  -5.796  0.383E-01  0.383E-01
  -5.786  0.387E-01  0.387E-01
  -5.776  0.392E-01  0.392E-01
  -5.766  0.396E-01  0.396E-01
  -5.756  0.399E-01  0.399E-01
  -5.746  0.403E-01  0.403E-01
  -5.736  0.406E-01  0.406E-01
  -5.726  0.409E-01  0.409E-01
  -5.716  0.411E-01  0.411E-01
  -5.706  0.414E-01  0.414E-01
  -5.696  0.416E-01  0.416E-01
  -5.686  0.418E-01  0.418E-01
  -5.676  0.419E-01  0.419E-01
  -5.666  0.420E-01  0.420E-01
  -5.656  0.421E-01  0.421E-01
  -5.646  0.422E-01  0.422E-01
  -5.636  0.423E-01  0.423E-01
  -5.626  0.423E-01  0.423E-01
  -5.616  0.423E-01  0.423E-01
  -5.606  0.423E-01  0.423E-01
  -5.596  0.423E-01  0.423E-01
  -5.586  0.422E-01  0.422E-01
  -5.576  0.421E-01  0.421E-01
  -5.566  0.420E-01  0.420E-01
  -5.556  0.419E-01  0.419E-01
  -5.546  0.418E-01  0.418E-01
  -5.536  0.416E-01  0.416E-01
  -5.526  0.414E-01  0.414E-01
  -5.516  0.412E-01  0.412E-01
  -5.506  0.410E-01  0.410E-01
  -5.496  0.408E-01  0.408E-01
  -5.486  0.406E-01  0.406E-01
  -5.476  0.403E-01  0.403E-01
  -5.466  0.401E-01  0.401E-01
  -5.456  0.398E-01  0.398E-01
  -5.446  0.395E-01  0.395E-01
  -5.436  0.393E-01  0.393E-01
  -5.426  0.390E-01  0.390E-01
  -5.416  0.387E-01  0.387E-01
  -5.406  0.384E-01  0.384E-01
  -5.396  0.381E-01  0.381E-01
  -5.386  0.378E-01  0.378E-01
  -5.376  0.375E-01  0.375E-01
  -5.366  0.371E-01  0.371E-01
  -5.356  0.368E-01  0.368E-01
  -5.346  0.365E-01  0.365E-01
  -5.336  0.362E-01  0.362E-01
  -5.326  0.359E-01  0.359E-01
  -5.316  0.356E-01  0.356E-01
  -5.306  0.353E-01  0.353E-01
  -5.296  0.351E-01  0.351E-01
  -5.286  0.348E-01  0.348E-01
  -5.276  0.345E-01  0.345E-01
  -5.266  0.343E-01  0.343E-01
  -5.256  0.340E-01  0.340E-01
  -5.246  0.338E-01  0.338E-01
  -5.236  0.335E-01  0.335E-01
  -5.226  0.333E-01  0.333E-01
  -5.216  0.331E-01  0.331E-01
  -5.206  0.329E-01  0.329E-01
  -5.196  0.327E-01  0.327E-01
  -5.186  0.326E-01  0.326E-01
  -5.176  0.324E-01  0.324E-01
  -5.166  0.323E-01  0.323E-01
  -5.156  0.322E-01  0.322E-01
  -5.146  0.321E-01  0.321E-01
  -5.136  0.320E-01  0.320E-01
  -5.126  0.319E-01  0.319E-01
  -5.116  0.318E-01  0.318E-01
  -5.106  0.318E-01  0.318E-01
  -5.096  0.318E-01  0.318E-01
  -5.086  0.318E-01  0.318E-01
  -5.076  0.318E-01  0.318E-01
  -5.066  0.318E-01  0.318E-01
  -5.056  0.319E-01  0.319E-01
  -5.046  0.320E-01  0.320E-01
  -5.036  0.320E-01  0.320E-01
  -5.026  0.321E-01  0.321E-01
  -5.016  0.323E-01  0.323E-01
  -5.006  0.324E-01  0.324E-01
  -4.996  0.326E-01  0.326E-01
  -4.986  0.327E-01  0.327E-01
  -4.976  0.329E-01  0.329E-01
  -4.966  0.332E-01  0.332E-01
  -4.956  0.334E-01  0.334E-01
  -4.946  0.336E-01  0.336E-01
  -4.936  0.339E-01  0.339E-01
  -4.926  0.342E-01  0.342E-01
  -4.916  0.345E-01  0.345E-01
  -4.906  0.348E-01  0.348E-01
  -4.896  0.351E-01  0.351E-01
  -4.886  0.355E-01  0.355E-01
  -4.876  0.358E-01  0.358E-01
  -4.866  0.362E-01  0.362E-01
  -4.856  0.366E-01  0.366E-01
  -4.846  0.370E-01  0.370E-01
  -4.836  0.375E-01  0.375E-01
  -4.826  0.379E-01  0.379E-01
  -4.816  0.384E-01  0.384E-01
  -4.806  0.388E-01  0.388E-01
  -4.796  0.393E-01  0.393E-01
  -4.786  0.398E-01  0.398E-01
  -4.776  0.403E-01  0.403E-01
  -4.766  0.408E-01  0.408E-01
  -4.756  0.414E-01  0.414E-01
  -4.746  0.419E-01  0.419E-01
  -4.736  0.425E-01  0.425E-01
  -4.726  0.431E-01  0.431E-01
  -4.716  0.436E-01  0.436E-01
  -4.706  0.442E-01  0.442E-01
  -4.696  0.448E-01  0.448E-01
  -4.686  0.455E-01  0.455E-01
  -4.676  0.461E-01  0.461E-01
  -4.666  0.467E-01  0.467E-01
  -4.656  0.474E-01  0.474E-01
  -4.646  0.480E-01  0.480E-01
  -4.636  0.487E-01  0.487E-01
  -4.626  0.494E-01  0.494E-01
  -4.616  0.500E-01  0.500E-01
  -4.606  0.507E-01  0.507E-01
  -4.596  0.514E-01  0.514E-01
  -4.586  0.521E-01  0.521E-01
  -4.576  0.528E-01  0.528E-01
  -4.566  0.535E-01  0.535E-01
  -4.556  0.543E-01  0.543E-01
  -4.546  0.550E-01  0.550E-01
  -4.536  0.557E-01  0.557E-01
  -4.526  0.564E-01  0.564E-01
  -4.516  0.572E-01  0.572E-01
  -4.506  0.579E-01  0.579E-01
  -4.496  0.587E-01  0.587E-01
  -4.486  0.594E-01  0.594E-01
  -4.476  0.601E-01  0.601E-01
  -4.466  0.609E-01  0.609E-01
  -4.456  0.616E-01  0.616E-01
  -4.446  0.624E-01  0.624E-01
  -4.436  0.631E-01  0.631E-01
  -4.426  0.639E-01  0.639E-01
  -4.416  0.646E-01  0.646E-01
  -4.406  0.654E-01  0.654E-01
  -4.396  0.661E-01  0.661E-01
  -4.386  0.668E-01  0.668E-01
  -4.376  0.676E-01  0.676E-01
  -4.366  0.683E-01  0.683E-01
  -4.356  0.690E-01  0.690E-01
  -4.346  0.698E-01  0.698E-01
  -4.336  0.705E-01  0.705E-01
  -4.326  0.712E-01  0.712E-01
  -4.316  0.719E-01  0.719E-01
  -4.306  0.726E-01  0.726E-01
  -4.296  0.733E-01  0.733E-01
  -4.286  0.740E-01  0.740E-01
  -4.276  0.746E-01  0.746E-01
  -4.266  0.753E-01  0.753E-01
  -4.256  0.760E-01  0.760E-01
  -4.246  0.766E-01  0.766E-01
  -4.236  0.773E-01  0.773E-01
  -4.226  0.779E-01  0.779E-01
  -4.216  0.785E-01  0.785E-01
  -4.206  0.791E-01  0.791E-01
  -4.196  0.797E-01  0.797E-01
  -4.186  0.803E-01  0.803E-01
  -4.176  0.808E-01  0.808E-01
  -4.166  0.814E-01  0.814E-01
  -4.156  0.820E-01  0.820E-01
  -4.146  0.825E-01  0.825E-01
  -4.136  0.830E-01  0.830E-01
  -4.126  0.835E-01  0.835E-01
  -4.116  0.840E-01  0.840E-01
  -4.106  0.845E-01  0.845E-01
  -4.096  0.849E-01  0.849E-01
  -4.086  0.854E-01  0.854E-01
  -4.076  0.858E-01  0.858E-01
  -4.066  0.863E-01  0.863E-01
  -4.056  0.867E-01  0.867E-01
  -4.046  0.871E-01  0.871E-01
  -4.036  0.874E-01  0.874E-01
  -4.026  0.878E-01  0.878E-01
  -4.016  0.882E-01  0.882E-01
  -4.006  0.885E-01  0.885E-01
  -3.996  0.888E-01  0.888E-01
  -3.986  0.891E-01  0.891E-01
  -3.976  0.894E-01  0.894E-01
  -3.966  0.897E-01  0.897E-01
  -3.956  0.900E-01  0.900E-01
  -3.946  0.903E-01  0.903E-01
  -3.936  0.905E-01  0.905E-01
  -3.926  0.908E-01  0.908E-01
  -3.916  0.910E-01  0.910E-01
  -3.906  0.912E-01  0.912E-01
  -3.896  0.914E-01  0.914E-01
  -3.886  0.916E-01  0.916E-01
  -3.876  0.918E-01  0.918E-01
  -3.866  0.920E-01  0.920E-01
  -3.856  0.921E-01  0.921E-01
  -3.846  0.923E-01  0.923E-01
  -3.836  0.924E-01  0.924E-01
  -3.826  0.926E-01  0.926E-01
  -3.816  0.927E-01  0.927E-01
  -3.806  0.928E-01  0.928E-01
  -3.796  0.929E-01  0.929E-01
  -3.786  0.930E-01  0.930E-01
  -3.776  0.932E-01  0.932E-01
  -3.766  0.932E-01  0.932E-01
  -3.756  0.933E-01  0.933E-01
  -3.746  0.934E-01  0.934E-01
  -3.736  0.935E-01  0.935E-01
  -3.726  0.936E-01  0.936E-01
  -3.716  0.936E-01  0.936E-01
  -3.706  0.937E-01  0.937E-01
  -3.696  0.938E-01  0.938E-01
  -3.686  0.938E-01  0.938E-01
  -3.676  0.939E-01  0.939E-01
  -3.666  0.939E-01  0.939E-01
  -3.656  0.940E-01  0.940E-01
  -3.646  0.940E-01  0.940E-01
  -3.636  0.941E-01  0.941E-01
  -3.626  0.941E-01  0.941E-01
  -3.616  0.942E-01  0.942E-01
  -3.606  0.942E-01  0.942E-01
  -3.596  0.942E-01  0.942E-01
  -3.586  0.943E-01  0.943E-01
  -3.576  0.943E-01  0.943E-01
  -3.566  0.943E-01  0.943E-01
  -3.556  0.944E-01  0.944E-01
  -3.546  0.944E-01  0.944E-01
  -3.536  0.944E-01  0.944E-01
  -3.526  0.944E-01  0.944E-01
  -3.516  0.944E-01  0.944E-01
  -3.506  0.944E-01  0.944E-01
  -3.496  0.945E-01  0.945E-01
  -3.486  0.945E-01  0.945E-01
  -3.476  0.945E-01  0.945E-01
  -3.466  0.945E-01  0.945E-01
  -3.456  0.945E-01  0.945E-01
  -3.446  0.945E-01  0.945E-01
  -3.436  0.945E-01  0.945E-01
  -3.426  0.945E-01  0.945E-01
  -3.416  0.944E-01  0.944E-01
  -3.406  0.944E-01  0.944E-01
  -3.396  0.944E-01  0.944E-01
  -3.386  0.944E-01  0.944E-01
  -3.376  0.943E-01  0.943E-01
  -3.366  0.943E-01  0.943E-01
  -3.356  0.942E-01  0.942E-01
  -3.346  0.942E-01  0.942E-01
  -3.336  0.941E-01  0.941E-01
  -3.326  0.941E-01  0.941E-01
  -3.316  0.940E-01  0.940E-01
  -3.306  0.939E-01  0.939E-01
  -3.296  0.939E-01  0.939E-01
  -3.286  0.938E-01  0.938E-01
  -3.276  0.937E-01  0.937E-01
  -3.266  0.936E-01  0.936E-01
  -3.256  0.935E-01  0.935E-01
  -3.246  0.934E-01  0.934E-01
  -3.236  0.933E-01  0.933E-01
  -3.226  0.931E-01  0.931E-01
  -3.216  0.930E-01  0.930E-01
  -3.206  0.929E-01  0.929E-01
  -3.196  0.927E-01  0.927E-01
  -3.186  0.926E-01  0.926E-01
  -3.176  0.924E-01  0.924E-01
  -3.166  0.923E-01  0.923E-01
  -3.156  0.921E-01  0.921E-01
  -3.146  0.920E-01  0.920E-01
  -3.136  0.918E-01  0.918E-01
  -3.126  0.916E-01  0.916E-01
  -3.116  0.915E-01  0.915E-01
  -3.106  0.913E-01  0.913E-01
  -3.096  0.911E-01  0.911E-01
  -3.086  0.910E-01  0.910E-01
  -3.076  0.908E-01  0.908E-01
  -3.066  0.906E-01  0.906E-01
  -3.056  0.905E-01  0.905E-01
  -3.046  0.903E-01  0.903E-01
  -3.036  0.901E-01  0.901E-01
  -3.026  0.900E-01  0.900E-01
  -3.016  0.898E-01  0.898E-01
  -3.006  0.897E-01  0.897E-01
  -2.996  0.896E-01  0.896E-01
  -2.986  0.894E-01  0.894E-01
  -2.976  0.893E-01  0.893E-01
  -2.966  0.892E-01  0.892E-01
  -2.956  0.891E-01  0.891E-01
  -2.946  0.890E-01  0.890E-01
  -2.936  0.890E-01  0.890E-01
  -2.926  0.889E-01  0.889E-01
  -2.916  0.889E-01  0.889E-01
  -2.906  0.889E-01  0.889E-01
  -2.896  0.889E-01  0.889E-01
  -2.886  0.889E-01  0.889E-01
  -2.876  0.889E-01  0.889E-01
  -2.866  0.890E-01  0.890E-01
  -2.856  0.891E-01  0.891E-01
  -2.846  0.892E-01  0.892E-01
  -2.836  0.893E-01  0.893E-01
  -2.826  0.895E-01  0.895E-01
  -2.816  0.897E-01  0.897E-01
  -2.806  0.899E-01  0.899E-01
  -2.796  0.902E-01  0.902E-01
  -2.786  0.904E-01  0.904E-01
  -2.776  0.908E-01  0.908E-01
  -2.766  0.911E-01  0.911E-01
  -2.756  0.915E-01  0.915E-01
  -2.746  0.919E-01  0.919E-01
  -2.736  0.923E-01  0.923E-01
  -2.726  0.928E-01  0.928E-01
  -2.716  0.933E-01  0.933E-01
  -2.706  0.938E-01  0.938E-01
  -2.696  0.944E-01  0.944E-01
  -2.686  0.950E-01  0.950E-01
  -2.676  0.957E-01  0.957E-01
  -2.666  0.964E-01  0.964E-01
  -2.656  0.971E-01  0.971E-01
  -2.646  0.979E-01  0.979E-01
  -2.636  0.986E-01  0.986E-01
  -2.626  0.995E-01  0.995E-01
  -2.616  0.100E+00  0.100E+00
  -2.606  0.101E+00  0.101E+00
  -2.596  0.102E+00  0.102E+00
  -2.586  0.103E+00  0.103E+00
  -2.576  0.104E+00  0.104E+00
  -2.566  0.105E+00  0.105E+00
  -2.556  0.106E+00  0.106E+00
  -2.546  0.107E+00  0.107E+00
  -2.536  0.108E+00  0.108E+00
  -2.526  0.110E+00  0.110E+00
  -2.516  0.111E+00  0.111E+00
  -2.506  0.112E+00  0.112E+00
  -2.496  0.113E+00  0.113E+00
  -2.486  0.114E+00  0.114E+00
  -2.476  0.116E+00  0.116E+00
  -2.466  0.117E+00  0.117E+00
  -2.456  0.118E+00  0.118E+00
  -2.446  0.119E+00  0.119E+00
  -2.436  0.121E+00  0.121E+00
  -2.426  0.122E+00  0.122E+00
  -2.416  0.123E+00  0.123E+00
  -2.406  0.125E+00  0.125E+00
  -2.396  0.126E+00  0.126E+00
  -2.386  0.127E+00  0.127E+00
  -2.376  0.129E+00  0.129E+00
  -2.366  0.130E+00  0.130E+00
  -2.356  0.131E+00  0.131E+00
  -2.346  0.133E+00  0.133E+00
  -2.336  0.134E+00  0.134E+00
  -2.326  0.135E+00  0.135E+00
  -2.316  0.137E+00  0.137E+00
  -2.306  0.138E+00  0.138E+00
  -2.296  0.139E+00  0.139E+00
  -2.286  0.140E+00  0.140E+00
  -2.276  0.141E+00  0.141E+00
  -2.266  0.143E+00  0.143E+00
  -2.256  0.144E+00  0.144E+00
  -2.246  0.145E+00  0.145E+00
  -2.236  0.146E+00  0.146E+00
  -2.226  0.147E+00  0.147E+00
  -2.216  0.148E+00  0.148E+00
  -2.206  0.149E+00  0.149E+00
  -2.196  0.150E+00  0.150E+00
  -2.186  0.151E+00  0.151E+00
  -2.176  0.151E+00  0.151E+00
  -2.166  0.152E+00  0.152E+00
  -2.156  0.153E+00  0.153E+00
  -2.146  0.153E+00  0.153E+00
  -2.136  0.154E+00  0.154E+00
  -2.126  0.155E+00  0.155E+00
  -2.116  0.155E+00  0.155E+00
  -2.106  0.155E+00  0.155E+00
  -2.096  0.156E+00  0.156E+00
  -2.086  0.156E+00  0.156E+00
  -2.076  0.156E+00  0.156E+00
  -2.066  0.156E+00  0.156E+00
  -2.056  0.156E+00  0.156E+00
  -2.046  0.156E+00  0.156E+00
  -2.036  0.156E+00  0.156E+00
  -2.026  0.156E+00  0.156E+00
  -2.016  0.156E+00  0.156E+00
  -2.006  0.156E+00  0.156E+00
  -1.996  0.156E+00  0.156E+00
  -1.986  0.155E+00  0.155E+00
  -1.976  0.155E+00  0.155E+00
  -1.966  0.154E+00  0.154E+00
  -1.956  0.154E+00  0.154E+00
  -1.946  0.153E+00  0.153E+00
  -1.936  0.152E+00  0.152E+00
  -1.926  0.151E+00  0.151E+00
  -1.916  0.151E+00  0.151E+00
  -1.906  0.150E+00  0.150E+00
  -1.896  0.149E+00  0.149E+00
  -1.886  0.148E+00  0.148E+00
  -1.876  0.147E+00  0.147E+00
  -1.866  0.145E+00  0.145E+00
  -1.856  0.144E+00  0.144E+00
  -1.846  0.143E+00  0.143E+00
  -1.836  0.142E+00  0.142E+00
  -1.826  0.140E+00  0.140E+00
  -1.816  0.139E+00  0.139E+00
  -1.806  0.137E+00  0.137E+00
  -1.796  0.136E+00  0.136E+00
  -1.786  0.134E+00  0.134E+00
  -1.776  0.133E+00  0.133E+00
  -1.766  0.131E+00  0.131E+00
  -1.756  0.129E+00  0.129E+00
  -1.746  0.128E+00  0.128E+00
  -1.736  0.126E+00  0.126E+00
  -1.726  0.124E+00  0.124E+00
  -1.716  0.122E+00  0.122E+00
  -1.706  0.120E+00  0.120E+00
  -1.696  0.119E+00  0.119E+00
  -1.686  0.117E+00  0.117E+00
  -1.676  0.115E+00  0.115E+00
  -1.666  0.113E+00  0.113E+00
  -1.656  0.111E+00  0.111E+00
  -1.646  0.109E+00  0.109E+00
  -1.636  0.107E+00  0.107E+00
  -1.626  0.105E+00  0.105E+00
  -1.616  0.103E+00  0.103E+00
  -1.606  0.101E+00  0.101E+00
  -1.596  0.993E-01  0.993E-01
  -1.586  0.973E-01  0.973E-01
  -1.576  0.954E-01  0.954E-01
  -1.566  0.934E-01  0.934E-01
  -1.556  0.915E-01  0.915E-01
  -1.546  0.896E-01  0.896E-01
  -1.536  0.877E-01  0.877E-01
  -1.526  0.858E-01  0.858E-01
  -1.516  0.839E-01  0.839E-01
  -1.506  0.821E-01  0.821E-01
  -1.496  0.802E-01  0.802E-01
  -1.486  0.784E-01  0.784E-01
  -1.476  0.767E-01  0.767E-01
  -1.466  0.749E-01  0.749E-01
  -1.456  0.732E-01  0.732E-01
  -1.446  0.714E-01  0.714E-01
  -1.436  0.698E-01  0.698E-01
  -1.426  0.681E-01  0.681E-01
  -1.416  0.665E-01  0.665E-01
  -1.406  0.649E-01  0.649E-01
  -1.396  0.633E-01  0.633E-01
  -1.386  0.618E-01  0.618E-01
  -1.376  0.603E-01  0.603E-01
  -1.366  0.589E-01  0.589E-01
  -1.356  0.574E-01  0.574E-01
  -1.346  0.561E-01  0.561E-01
  -1.336  0.547E-01  0.547E-01
  -1.326  0.534E-01  0.534E-01
  -1.316  0.521E-01  0.521E-01
  -1.306  0.509E-01  0.509E-01
  -1.296  0.496E-01  0.496E-01
  -1.286  0.485E-01  0.485E-01
  -1.276  0.473E-01  0.473E-01
  -1.266  0.462E-01  0.462E-01
  -1.256  0.451E-01  0.451E-01
  -1.246  0.441E-01  0.441E-01
  -1.236  0.431E-01  0.431E-01
  -1.226  0.421E-01  0.421E-01
  -1.216  0.412E-01  0.412E-01
  -1.206  0.403E-01  0.403E-01
  -1.196  0.394E-01  0.394E-01
  -1.186  0.386E-01  0.386E-01
  -1.176  0.378E-01  0.378E-01
  -1.166  0.370E-01  0.370E-01
  -1.156  0.362E-01  0.362E-01
  -1.146  0.355E-01  0.355E-01
  -1.136  0.348E-01  0.348E-01
  -1.126  0.342E-01  0.342E-01
  -1.116  0.335E-01  0.335E-01
  -1.106  0.329E-01  0.329E-01
  -1.096  0.323E-01  0.323E-01
  -1.086  0.318E-01  0.318E-01
  -1.076  0.312E-01  0.312E-01
  -1.066  0.307E-01  0.307E-01
  -1.056  0.302E-01  0.302E-01
  -1.046  0.297E-01  0.297E-01
  -1.036  0.293E-01  0.293E-01
  -1.026  0.288E-01  0.288E-01
  -1.016  0.284E-01  0.284E-01
  -1.006  0.280E-01  0.280E-01
  -0.996  0.276E-01  0.276E-01
  -0.986  0.273E-01  0.273E-01
  -0.976  0.269E-01  0.269E-01
  -0.966  0.266E-01  0.266E-01
  -0.956  0.263E-01  0.263E-01
  -0.946  0.260E-01  0.260E-01
  -0.936  0.257E-01  0.257E-01
  -0.926  0.254E-01  0.254E-01
  -0.916  0.252E-01  0.252E-01
  -0.906  0.250E-01  0.250E-01
  -0.896  0.247E-01  0.247E-01
  -0.886  0.245E-01  0.245E-01
  -0.876  0.243E-01  0.243E-01
  -0.866  0.241E-01  0.241E-01
  -0.856  0.239E-01  0.239E-01
  -0.846  0.238E-01  0.238E-01
  -0.836  0.236E-01  0.236E-01
  -0.826  0.235E-01  0.235E-01
  -0.816  0.234E-01  0.234E-01
  -0.806  0.233E-01  0.233E-01
  -0.796  0.232E-01  0.232E-01
  -0.786  0.231E-01  0.231E-01
  -0.776  0.230E-01  0.230E-01
  -0.766  0.230E-01  0.230E-01
  -0.756  0.229E-01  0.229E-01
  -0.746  0.229E-01  0.229E-01
  -0.736  0.229E-01  0.229E-01
  -0.726  0.229E-01  0.229E-01
  -0.716  0.229E-01  0.229E-01
  -0.706  0.229E-01  0.229E-01
  -0.696  0.230E-01  0.230E-01
  -0.686  0.230E-01  0.230E-01
  -0.676  0.231E-01  0.231E-01
  -0.666  0.232E-01  0.232E-01
  -0.656  0.233E-01  0.233E-01
  -0.646  0.235E-01  0.235E-01
  -0.636  0.236E-01  0.236E-01
  -0.626  0.238E-01  0.238E-01
  -0.616  0.240E-01  0.240E-01
  -0.606  0.242E-01  0.242E-01
  -0.596  0.245E-01  0.245E-01
  -0.586  0.247E-01  0.247E-01
  -0.576  0.250E-01  0.250E-01
  -0.566  0.253E-01  0.253E-01
  -0.556  0.256E-01  0.256E-01
  -0.546  0.260E-01  0.260E-01
  -0.536  0.263E-01  0.263E-01
  -0.526  0.267E-01  0.267E-01
  -0.516  0.272E-01  0.272E-01
  -0.506  0.276E-01  0.276E-01
  -0.496  0.281E-01  0.281E-01
  -0.486  0.286E-01  0.286E-01
  -0.476  0.291E-01  0.291E-01
  -0.466  0.296E-01  0.296E-01
  -0.456  0.302E-01  0.302E-01
  -0.446  0.308E-01  0.308E-01
  -0.436  0.314E-01  0.314E-01
  -0.426  0.320E-01  0.320E-01
  -0.416  0.327E-01  0.327E-01
  -0.406  0.334E-01  0.334E-01
  -0.396  0.341E-01  0.341E-01
  -0.386  0.349E-01  0.349E-01
  -0.376  0.356E-01  0.356E-01
  -0.366  0.364E-01  0.364E-01
  -0.356  0.372E-01  0.372E-01
  -0.346  0.380E-01  0.380E-01
  -0.336  0.389E-01  0.389E-01
  -0.326  0.398E-01  0.398E-01
  -0.316  0.407E-01  0.407E-01
  -0.306  0.416E-01  0.416E-01
  -0.296  0.425E-01  0.425E-01
  -0.286  0.434E-01  0.434E-01
  -0.276  0.444E-01  0.444E-01
  -0.266  0.454E-01  0.454E-01
  -0.256  0.464E-01  0.464E-01
  -0.246  0.474E-01  0.474E-01
  -0.236  0.484E-01  0.484E-01
  -0.226  0.494E-01  0.494E-01
  -0.216  0.504E-01  0.504E-01
  -0.206  0.514E-01  0.514E-01
  -0.196  0.525E-01  0.525E-01
  -0.186  0.535E-01  0.535E-01
  -0.176  0.546E-01  0.546E-01
  -0.166  0.556E-01  0.556E-01
  -0.156  0.567E-01  0.567E-01
  -0.146  0.577E-01  0.577E-01
  -0.136  0.588E-01  0.588E-01
  -0.126  0.598E-01  0.598E-01
  -0.116  0.609E-01  0.609E-01
  -0.106  0.619E-01  0.619E-01
  -0.096  0.629E-01  0.629E-01
  -0.086  0.639E-01  0.639E-01
  -0.076  0.649E-01  0.649E-01
  -0.066  0.659E-01  0.659E-01
  -0.056  0.668E-01  0.668E-01
  -0.046  0.678E-01  0.678E-01
  -0.036  0.687E-01  0.687E-01
  -0.026  0.696E-01  0.696E-01
  -0.016  0.705E-01  0.705E-01
  -0.006  0.713E-01  0.713E-01
   0.004  0.721E-01  0.721E-01
   0.014  0.729E-01  0.729E-01
   0.024  0.737E-01  0.737E-01
   0.034  0.745E-01  0.745E-01
   0.044  0.752E-01  0.752E-01
   0.054  0.758E-01  0.758E-01
   0.064  0.765E-01  0.765E-01
   0.074  0.771E-01  0.771E-01
   0.084  0.777E-01  0.777E-01
   0.094  0.782E-01  0.782E-01
   0.104  0.787E-01  0.787E-01
   0.114  0.792E-01  0.792E-01
   0.124  0.796E-01  0.796E-01
   0.134  0.800E-01  0.800E-01
   0.144  0.803E-01  0.803E-01
   0.154  0.806E-01  0.806E-01
   0.164  0.809E-01  0.809E-01
   0.174  0.811E-01  0.811E-01
   0.184  0.813E-01  0.813E-01
   0.194  0.814E-01  0.814E-01
   0.204  0.815E-01  0.815E-01
   0.214  0.816E-01  0.816E-01
   0.224  0.816E-01  0.816E-01
   0.234  0.815E-01  0.815E-01
   0.244  0.815E-01  0.815E-01
   0.254  0.814E-01  0.814E-01
   0.264  0.812E-01  0.812E-01
   0.274  0.810E-01  0.810E-01
   0.284  0.808E-01  0.808E-01
   0.294  0.805E-01  0.805E-01
   0.304  0.802E-01  0.802E-01
   0.314  0.799E-01  0.799E-01
   0.324  0.795E-01  0.795E-01
   0.334  0.791E-01  0.791E-01
   0.344  0.787E-01  0.787E-01
   0.354  0.782E-01  0.782E-01
   0.364  0.777E-01  0.777E-01
   0.374  0.772E-01  0.772E-01
   0.384  0.766E-01  0.766E-01
   0.394  0.760E-01  0.760E-01
   0.404  0.754E-01  0.754E-01
   0.414  0.748E-01  0.748E-01
   0.424  0.741E-01  0.741E-01
   0.434  0.735E-01  0.735E-01
   0.444  0.728E-01  0.728E-01
   0.454  0.721E-01  0.721E-01
   0.464  0.714E-01  0.714E-01
   0.474  0.706E-01  0.706E-01
   0.484  0.699E-01  0.699E-01
   0.494  0.691E-01  0.691E-01
   0.504  0.684E-01  0.684E-01
   0.514  0.676E-01  0.676E-01
   0.524  0.669E-01  0.669E-01
   0.534  0.661E-01  0.661E-01
   0.544  0.653E-01  0.653E-01
   0.554  0.645E-01  0.645E-01
   0.564  0.638E-01  0.638E-01
   0.574  0.630E-01  0.630E-01
   0.584  0.623E-01  0.623E-01
   0.594  0.615E-01  0.615E-01
   0.604  0.608E-01  0.608E-01
   0.614  0.601E-01  0.601E-01
   0.624  0.593E-01  0.593E-01
   0.634  0.586E-01  0.586E-01
   0.644  0.580E-01  0.580E-01
   0.654  0.573E-01  0.573E-01
   0.664  0.566E-01  0.566E-01
   0.674  0.560E-01  0.560E-01
   0.684  0.554E-01  0.554E-01
   0.694  0.548E-01  0.548E-01
   0.704  0.542E-01  0.542E-01
   0.714  0.537E-01  0.537E-01
   0.724  0.531E-01  0.531E-01
   0.734  0.526E-01  0.526E-01
   0.744  0.521E-01  0.521E-01
   0.754  0.517E-01  0.517E-01
   0.764  0.513E-01  0.513E-01
   0.774  0.509E-01  0.509E-01
   0.784  0.505E-01  0.505E-01
   0.794  0.501E-01  0.501E-01
   0.804  0.498E-01  0.498E-01
   0.814  0.495E-01  0.495E-01
   0.824  0.492E-01  0.492E-01
   0.834  0.489E-01  0.489E-01
   0.844  0.487E-01  0.487E-01
   0.854  0.485E-01  0.485E-01
   0.864  0.483E-01  0.483E-01
   0.874  0.482E-01  0.482E-01
   0.884  0.480E-01  0.480E-01
   0.894  0.479E-01  0.479E-01
   0.904  0.479E-01  0.479E-01
   0.914  0.478E-01  0.478E-01
   0.924  0.477E-01  0.477E-01
   0.934  0.477E-01  0.477E-01
   0.944  0.477E-01  0.477E-01
   0.954  0.477E-01  0.477E-01
   0.964  0.477E-01  0.477E-01
   0.974  0.478E-01  0.478E-01
   0.984  0.478E-01  0.478E-01
   0.994  0.479E-01  0.479E-01
   1.004  0.480E-01  0.480E-01
   1.014  0.481E-01  0.481E-01
   1.024  0.482E-01  0.482E-01
   1.034  0.483E-01  0.483E-01
   1.044  0.484E-01  0.484E-01
   1.054  0.485E-01  0.485E-01
   1.064  0.486E-01  0.486E-01
   1.074  0.488E-01  0.488E-01
   1.084  0.489E-01  0.489E-01
   1.094  0.490E-01  0.490E-01
   1.104  0.492E-01  0.492E-01
   1.114  0.493E-01  0.493E-01
   1.124  0.494E-01  0.494E-01
   1.134  0.495E-01  0.495E-01
   1.144  0.497E-01  0.497E-01
   1.154  0.498E-01  0.498E-01
   1.164  0.499E-01  0.499E-01
   1.174  0.500E-01  0.500E-01
   1.184  0.500E-01  0.500E-01
   1.194  0.501E-01  0.501E-01
   1.204  0.502E-01  0.502E-01
   1.214  0.502E-01  0.502E-01
   1.224  0.502E-01  0.502E-01
   1.234  0.502E-01  0.502E-01
   1.244  0.502E-01  0.502E-01
   1.254  0.502E-01  0.502E-01
   1.264  0.502E-01  0.502E-01
   1.274  0.501E-01  0.501E-01
   1.284  0.501E-01  0.501E-01
   1.294  0.500E-01  0.500E-01
   1.304  0.498E-01  0.498E-01
   1.314  0.497E-01  0.497E-01
   1.324  0.496E-01  0.496E-01
   1.334  0.494E-01  0.494E-01
   1.344  0.492E-01  0.492E-01
   1.354  0.490E-01  0.490E-01
   1.364  0.487E-01  0.487E-01
   1.374  0.485E-01  0.485E-01
   1.384  0.482E-01  0.482E-01
   1.394  0.479E-01  0.479E-01
   1.404  0.476E-01  0.476E-01
   1.414  0.472E-01  0.472E-01
   1.424  0.468E-01  0.468E-01
   1.434  0.465E-01  0.465E-01
   1.444  0.461E-01  0.461E-01
   1.454  0.456E-01  0.456E-01
   1.464  0.452E-01  0.452E-01
   1.474  0.447E-01  0.447E-01
   1.484  0.442E-01  0.442E-01
   1.494  0.437E-01  0.437E-01
   1.504  0.432E-01  0.432E-01
   1.514  0.427E-01  0.427E-01
   1.524  0.421E-01  0.421E-01
   1.534  0.416E-01  0.416E-01
   1.544  0.410E-01  0.410E-01
   1.554  0.404E-01  0.404E-01
   1.564  0.398E-01  0.398E-01
   1.574  0.392E-01  0.392E-01
   1.584  0.386E-01  0.386E-01
   1.594  0.380E-01  0.380E-01
   1.604  0.374E-01  0.374E-01
   1.614  0.367E-01  0.367E-01
   1.624  0.361E-01  0.361E-01
   1.634  0.354E-01  0.354E-01
   1.644  0.348E-01  0.348E-01
   1.654  0.341E-01  0.341E-01
   1.664  0.335E-01  0.335E-01
   1.674  0.329E-01  0.329E-01
   1.684  0.322E-01  0.322E-01
   1.694  0.316E-01  0.316E-01
   1.704  0.309E-01  0.309E-01
   1.714  0.303E-01  0.303E-01
   1.724  0.297E-01  0.297E-01
   1.734  0.291E-01  0.291E-01
   1.744  0.285E-01  0.285E-01
   1.754  0.279E-01  0.279E-01
   1.764  0.273E-01  0.273E-01
   1.774  0.267E-01  0.267E-01
   1.784  0.262E-01  0.262E-01
   1.794  0.257E-01  0.257E-01
   1.804  0.252E-01  0.252E-01
   1.814  0.247E-01  0.247E-01
   1.824  0.242E-01  0.242E-01
   1.834  0.237E-01  0.237E-01
   1.844  0.233E-01  0.233E-01
   1.854  0.229E-01  0.229E-01
   1.864  0.225E-01  0.225E-01
   1.874  0.221E-01  0.221E-01
   1.884  0.218E-01  0.218E-01
   1.894  0.215E-01  0.215E-01
   1.904  0.212E-01  0.212E-01
   1.914  0.210E-01  0.210E-01
   1.924  0.207E-01  0.207E-01
   1.934  0.205E-01  0.205E-01
   1.944  0.204E-01  0.204E-01
   1.954  0.203E-01  0.203E-01
   1.964  0.202E-01  0.202E-01
   1.974  0.201E-01  0.201E-01
   1.984  0.201E-01  0.201E-01
   1.994  0.201E-01  0.201E-01
   2.004  0.201E-01  0.201E-01
   2.014  0.202E-01  0.202E-01
   2.024  0.203E-01  0.203E-01
   2.034  0.204E-01  0.204E-01
   2.044  0.206E-01  0.206E-01
   2.054  0.208E-01  0.208E-01
   2.064  0.210E-01  0.210E-01
   2.074  0.213E-01  0.213E-01
   2.084  0.216E-01  0.216E-01
   2.094  0.220E-01  0.220E-01
   2.104  0.224E-01  0.224E-01
   2.114  0.228E-01  0.228E-01
   2.124  0.232E-01  0.232E-01
   2.134  0.237E-01  0.237E-01
   2.144  0.243E-01  0.243E-01
   2.154  0.248E-01  0.248E-01
   2.164  0.254E-01  0.254E-01
   2.174  0.260E-01  0.260E-01
   2.184  0.267E-01  0.267E-01
   2.194  0.274E-01  0.274E-01
   2.204  0.281E-01  0.281E-01
   2.214  0.288E-01  0.288E-01
   2.224  0.296E-01  0.296E-01
   2.234  0.304E-01  0.304E-01
   2.244  0.312E-01  0.312E-01
   2.254  0.321E-01  0.321E-01
   2.264  0.330E-01  0.330E-01
   2.274  0.339E-01  0.339E-01
   2.284  0.348E-01  0.348E-01
   2.294  0.357E-01  0.357E-01
   2.304  0.367E-01  0.367E-01
   2.314  0.377E-01  0.377E-01
   2.324  0.387E-01  0.387E-01
   2.334  0.397E-01  0.397E-01
   2.344  0.407E-01  0.407E-01
   2.354  0.418E-01  0.418E-01
   2.364  0.428E-01  0.428E-01
   2.374  0.439E-01  0.439E-01
   2.384  0.449E-01  0.449E-01
   2.394  0.460E-01  0.460E-01
   2.404  0.471E-01  0.471E-01
   2.414  0.482E-01  0.482E-01
   2.424  0.493E-01  0.493E-01
   2.434  0.504E-01  0.504E-01
   2.444  0.514E-01  0.514E-01
   2.454  0.525E-01  0.525E-01
   2.464  0.536E-01  0.536E-01
   2.474  0.547E-01  0.547E-01
   2.484  0.557E-01  0.557E-01
   2.494  0.568E-01  0.568E-01
   2.504  0.578E-01  0.578E-01
   2.514  0.588E-01  0.588E-01
   2.524  0.598E-01  0.598E-01
   2.534  0.608E-01  0.608E-01
   2.544  0.618E-01  0.618E-01
   2.554  0.627E-01  0.627E-01
   2.564  0.637E-01  0.637E-01
   2.574  0.646E-01  0.646E-01
   2.584  0.655E-01  0.655E-01
   2.594  0.663E-01  0.663E-01
   2.604  0.671E-01  0.671E-01
   2.614  0.679E-01  0.679E-01
   2.624  0.687E-01  0.687E-01
   2.634  0.694E-01  0.694E-01
   2.644  0.701E-01  0.701E-01
   2.654  0.708E-01  0.708E-01
   2.664  0.714E-01  0.714E-01
   2.674  0.720E-01  0.720E-01
   2.684  0.725E-01  0.725E-01
   2.694  0.730E-01  0.730E-01
   2.704  0.735E-01  0.735E-01
   2.714  0.739E-01  0.739E-01
   2.724  0.743E-01  0.743E-01
   2.734  0.746E-01  0.746E-01
   2.744  0.749E-01  0.749E-01
   2.754  0.752E-01  0.752E-01
   2.764  0.754E-01  0.754E-01
   2.774  0.755E-01  0.755E-01
   2.784  0.756E-01  0.756E-01
   2.794  0.757E-01  0.757E-01
   2.804  0.757E-01  0.757E-01
   2.814  0.757E-01  0.757E-01
   2.824  0.756E-01  0.756E-01
   2.834  0.755E-01  0.755E-01
   2.844  0.753E-01  0.753E-01
   2.854  0.751E-01  0.751E-01
   2.864  0.749E-01  0.749E-01
   2.874  0.746E-01  0.746E-01
   2.884  0.742E-01  0.742E-01
   2.894  0.738E-01  0.738E-01
   2.904  0.734E-01  0.734E-01
   2.914  0.729E-01  0.729E-01
   2.924  0.724E-01  0.724E-01
   2.934  0.718E-01  0.718E-01
   2.944  0.712E-01  0.712E-01
   2.954  0.706E-01  0.706E-01
   2.964  0.699E-01  0.699E-01
   2.974  0.691E-01  0.691E-01
   2.984  0.684E-01  0.684E-01
   2.994  0.676E-01  0.676E-01
   3.004  0.668E-01  0.668E-01
   3.014  0.659E-01  0.659E-01
   3.024  0.650E-01  0.650E-01
   3.034  0.641E-01  0.641E-01
   3.044  0.631E-01  0.631E-01
   3.054  0.621E-01  0.621E-01
   3.064  0.611E-01  0.611E-01
   3.074  0.601E-01  0.601E-01
   3.084  0.590E-01  0.590E-01
   3.094  0.579E-01  0.579E-01
   3.104  0.568E-01  0.568E-01
   3.114  0.557E-01  0.557E-01
   3.124  0.545E-01  0.545E-01
   3.134  0.534E-01  0.534E-01
   3.144  0.522E-01  0.522E-01
   3.154  0.510E-01  0.510E-01
   3.164  0.498E-01  0.498E-01
   3.174  0.486E-01  0.486E-01
   3.184  0.474E-01  0.474E-01
   3.194  0.462E-01  0.462E-01
   3.204  0.450E-01  0.450E-01
   3.214  0.437E-01  0.437E-01
   3.224  0.425E-01  0.425E-01
   3.234  0.413E-01  0.413E-01
   3.244  0.400E-01  0.400E-01
   3.254  0.388E-01  0.388E-01
   3.264  0.376E-01  0.376E-01
   3.274  0.363E-01  0.363E-01
   3.284  0.351E-01  0.351E-01
   3.294  0.339E-01  0.339E-01
   3.304  0.327E-01  0.327E-01
   3.314  0.315E-01  0.315E-01
   3.324  0.303E-01  0.303E-01
   3.334  0.292E-01  0.292E-01
   3.344  0.280E-01  0.280E-01
   3.354  0.269E-01  0.269E-01
   3.364  0.258E-01  0.258E-01
   3.374  0.247E-01  0.247E-01
   3.384  0.236E-01  0.236E-01
   3.394  0.225E-01  0.225E-01
   3.404  0.214E-01  0.214E-01
   3.414  0.204E-01  0.204E-01
   3.424  0.194E-01  0.194E-01
   3.434  0.184E-01  0.184E-01
   3.444  0.174E-01  0.174E-01
   3.454  0.165E-01  0.165E-01
   3.464  0.155E-01  0.155E-01
   3.474  0.146E-01  0.146E-01
   3.484  0.138E-01  0.138E-01
   3.494  0.129E-01  0.129E-01
   3.504  0.121E-01  0.121E-01
   3.514  0.113E-01  0.113E-01
   3.524  0.105E-01  0.105E-01
   3.534  0.970E-02  0.970E-02
   3.544  0.896E-02  0.896E-02
   3.554  0.825E-02  0.825E-02
   3.564  0.756E-02  0.756E-02
   3.574  0.690E-02  0.690E-02
   3.584  0.626E-02  0.626E-02
   3.594  0.564E-02  0.564E-02
   3.604  0.505E-02  0.505E-02
   3.614  0.448E-02  0.448E-02
   3.624  0.394E-02  0.394E-02
   3.634  0.341E-02  0.341E-02
   3.644  0.292E-02  0.292E-02
   3.654  0.244E-02  0.244E-02
   3.664  0.199E-02  0.199E-02
   3.674  0.156E-02  0.156E-02
   3.684  0.115E-02  0.115E-02
   3.694  0.761E-03  0.761E-03
   3.704  0.395E-03  0.395E-03
   3.714  0.484E-04  0.484E-04
   3.724 -0.278E-03 -0.278E-03
   3.734 -0.585E-03 -0.585E-03
   3.744 -0.872E-03 -0.872E-03
   3.754 -0.114E-02 -0.114E-02
   3.764 -0.139E-02 -0.139E-02
   3.774 -0.163E-02 -0.163E-02
   3.784 -0.184E-02 -0.184E-02
   3.794 -0.204E-02 -0.204E-02
   3.804 -0.223E-02 -0.223E-02
   3.814 -0.240E-02 -0.240E-02
   3.824 -0.255E-02 -0.255E-02
   3.834 -0.269E-02 -0.269E-02
   3.844 -0.282E-02 -0.282E-02
   3.854 -0.293E-02 -0.293E-02
   3.864 -0.303E-02 -0.303E-02
   3.874 -0.312E-02 -0.312E-02
   3.884 -0.320E-02 -0.320E-02
   3.894 -0.327E-02 -0.327E-02
   3.904 -0.332E-02 -0.332E-02
   3.914 -0.337E-02 -0.337E-02
   3.924 -0.340E-02 -0.340E-02
   3.934 -0.343E-02 -0.343E-02
   3.944 -0.345E-02 -0.345E-02
   3.954 -0.346E-02 -0.346E-02
   3.964 -0.347E-02 -0.347E-02
   3.974 -0.346E-02 -0.346E-02
   3.984 -0.345E-02 -0.345E-02
   3.994 -0.344E-02 -0.344E-02
   4.004 -0.342E-02 -0.342E-02
   4.014 -0.339E-02 -0.339E-02
   4.024 -0.336E-02 -0.336E-02
   4.034 -0.332E-02 -0.332E-02
   4.044 -0.328E-02 -0.328E-02
   4.054 -0.324E-02 -0.324E-02
   4.064 -0.319E-02 -0.319E-02
   4.074 -0.314E-02 -0.314E-02
   4.084 -0.308E-02 -0.308E-02
   4.094 -0.303E-02 -0.303E-02
   4.104 -0.297E-02 -0.297E-02
   4.114 -0.291E-02 -0.291E-02
   4.124 -0.285E-02 -0.285E-02
   4.134 -0.278E-02 -0.278E-02
   4.144 -0.272E-02 -0.272E-02
   4.154 -0.265E-02 -0.265E-02
   4.164 -0.258E-02 -0.258E-02
   4.174 -0.252E-02 -0.252E-02
   4.184 -0.245E-02 -0.245E-02
   4.194 -0.238E-02 -0.238E-02
   4.204 -0.231E-02 -0.231E-02
   4.214 -0.224E-02 -0.224E-02
   4.224 -0.218E-02 -0.218E-02
   4.234 -0.211E-02 -0.211E-02
   4.244 -0.204E-02 -0.204E-02
   4.254 -0.198E-02 -0.198E-02
   4.264 -0.191E-02 -0.191E-02
   4.274 -0.185E-02 -0.185E-02
   4.284 -0.178E-02 -0.178E-02
   4.294 -0.172E-02 -0.172E-02
   4.304 -0.166E-02 -0.166E-02
   4.314 -0.160E-02 -0.160E-02
   4.324 -0.154E-02 -0.154E-02
   4.334 -0.148E-02 -0.148E-02
   4.344 -0.142E-02 -0.142E-02
   4.354 -0.137E-02 -0.137E-02
   4.364 -0.131E-02 -0.131E-02
   4.374 -0.126E-02 -0.126E-02
   4.384 -0.121E-02 -0.121E-02
   4.394 -0.116E-02 -0.116E-02
   4.404 -0.111E-02 -0.111E-02
   4.414 -0.106E-02 -0.106E-02
   4.424 -0.102E-02 -0.102E-02
   4.434 -0.972E-03 -0.972E-03
   4.444 -0.929E-03 -0.929E-03
   4.454 -0.887E-03 -0.887E-03
   4.464 -0.847E-03 -0.847E-03
   4.474 -0.808E-03 -0.808E-03
   4.484 -0.770E-03 -0.770E-03
   4.494 -0.734E-03 -0.734E-03
   4.504 -0.699E-03 -0.699E-03
   4.514 -0.665E-03 -0.665E-03
   4.524 -0.633E-03 -0.633E-03
   4.534 -0.602E-03 -0.602E-03
   4.544 -0.572E-03 -0.572E-03
   4.554 -0.543E-03 -0.543E-03
   4.564 -0.516E-03 -0.516E-03
   4.574 -0.489E-03 -0.489E-03
   4.584 -0.464E-03 -0.464E-03
   4.594 -0.440E-03 -0.440E-03
   4.604 -0.416E-03 -0.416E-03
   4.614 -0.394E-03 -0.394E-03
   4.624 -0.373E-03 -0.373E-03
   4.634 -0.353E-03 -0.353E-03
   4.644 -0.334E-03 -0.334E-03
   4.654 -0.315E-03 -0.315E-03
   4.664 -0.298E-03 -0.298E-03
   4.674 -0.281E-03 -0.281E-03
   4.684 -0.265E-03 -0.265E-03
   4.694 -0.250E-03 -0.250E-03
   4.704 -0.236E-03 -0.236E-03
   4.714 -0.222E-03 -0.222E-03
   4.724 -0.209E-03 -0.209E-03
   4.734 -0.197E-03 -0.197E-03
   4.744 -0.185E-03 -0.185E-03
   4.754 -0.174E-03 -0.174E-03
   4.764 -0.163E-03 -0.163E-03
   4.774 -0.153E-03 -0.153E-03
   4.784 -0.144E-03 -0.144E-03
   4.794 -0.135E-03 -0.135E-03
   4.804 -0.127E-03 -0.127E-03
   4.814 -0.119E-03 -0.119E-03
   4.824 -0.111E-03 -0.111E-03
   4.834 -0.104E-03 -0.104E-03
   4.844 -0.977E-04 -0.977E-04
   4.854 -0.914E-04 -0.914E-04
   4.864 -0.855E-04 -0.855E-04
   4.874 -0.799E-04 -0.799E-04
   4.884 -0.747E-04 -0.747E-04
   4.894 -0.697E-04 -0.697E-04
   4.904 -0.651E-04 -0.651E-04
   4.914 -0.608E-04 -0.608E-04
   4.924 -0.567E-04 -0.567E-04
   4.934 -0.528E-04 -0.528E-04
   4.944 -0.492E-04 -0.492E-04
   4.954 -0.459E-04 -0.459E-04
   4.964 -0.427E-04 -0.427E-04
   4.974 -0.397E-04 -0.397E-04
   4.984 -0.370E-04 -0.370E-04
   4.994 -0.344E-04 -0.344E-04
   5.004 -0.319E-04 -0.319E-04
   5.014 -0.297E-04 -0.297E-04
   5.024 -0.275E-04 -0.275E-04
   5.034 -0.256E-04 -0.256E-04
   5.044 -0.237E-04 -0.237E-04
   5.054 -0.220E-04 -0.220E-04
   5.064 -0.204E-04 -0.204E-04
   5.074 -0.189E-04 -0.189E-04
   5.084 -0.175E-04 -0.175E-04
   5.094 -0.162E-04 -0.162E-04
   5.104 -0.150E-04 -0.150E-04
   5.114 -0.138E-04 -0.138E-04
   5.124 -0.128E-04 -0.128E-04
   5.134 -0.118E-04 -0.118E-04
   5.144 -0.109E-04 -0.109E-04
   5.154 -0.101E-04 -0.101E-04
   5.164 -0.931E-05 -0.931E-05
   5.174 -0.858E-05 -0.858E-05
   5.184 -0.791E-05 -0.791E-05
   5.194 -0.729E-05 -0.729E-05
   5.204 -0.672E-05 -0.672E-05
   5.214 -0.619E-05 -0.619E-05
   5.224 -0.569E-05 -0.569E-05
   5.234 -0.524E-05 -0.524E-05
   5.244 -0.482E-05 -0.482E-05
   5.254 -0.443E-05 -0.443E-05
   5.264 -0.407E-05 -0.407E-05
   5.274 -0.374E-05 -0.374E-05
   5.284 -0.343E-05 -0.343E-05
   5.294 -0.315E-05 -0.315E-05
