# E (eV)   ldos(E)   pdos(E)   
 -27.116 -0.256E-08 -0.256E-08
 -27.106 -0.276E-08 -0.276E-08
 -27.096 -0.298E-08 -0.298E-08
 -27.086 -0.322E-08 -0.322E-08
 -27.076 -0.347E-08 -0.347E-08
 -27.066 -0.373E-08 -0.373E-08
 -27.056 -0.402E-08 -0.402E-08
 -27.046 -0.432E-08 -0.432E-08
 -27.036 -0.465E-08 -0.465E-08
 -27.026 -0.500E-08 -0.500E-08
 -27.016 -0.537E-08 -0.537E-08
 -27.006 -0.577E-08 -0.577E-08
 -26.996 -0.619E-08 -0.619E-08
 -26.986 -0.664E-08 -0.664E-08
 -26.976 -0.712E-08 -0.712E-08
 -26.966 -0.763E-08 -0.763E-08
 -26.956 -0.817E-08 -0.817E-08
 -26.946 -0.875E-08 -0.875E-08
 -26.936 -0.936E-08 -0.936E-08
 -26.926 -0.100E-07 -0.100E-07
 -26.916 -0.107E-07 -0.107E-07
 -26.906 -0.114E-07 -0.114E-07
 -26.896 -0.122E-07 -0.122E-07
 -26.886 -0.130E-07 -0.130E-07
 -26.876 -0.139E-07 -0.139E-07
 -26.866 -0.148E-07 -0.148E-07
 -26.856 -0.158E-07 -0.158E-07
 -26.846 -0.168E-07 -0.168E-07
 -26.836 -0.178E-07 -0.178E-07
 -26.826 -0.190E-07 -0.190E-07
 -26.816 -0.202E-07 -0.202E-07
 -26.806 -0.214E-07 -0.214E-07
 -26.796 -0.227E-07 -0.227E-07
 -26.786 -0.241E-07 -0.241E-07
 -26.776 -0.256E-07 -0.256E-07
 -26.766 -0.271E-07 -0.271E-07
 -26.756 -0.287E-07 -0.287E-07
 -26.746 -0.304E-07 -0.304E-07
 -26.736 -0.322E-07 -0.322E-07
 -26.726 -0.340E-07 -0.340E-07
 -26.716 -0.359E-07 -0.359E-07
 -26.706 -0.379E-07 -0.379E-07
 -26.696 -0.400E-07 -0.400E-07
 -26.686 -0.422E-07 -0.422E-07
 -26.676 -0.445E-07 -0.445E-07
 -26.666 -0.469E-07 -0.469E-07
 -26.656 -0.494E-07 -0.494E-07
 -26.646 -0.519E-07 -0.519E-07
 -26.636 -0.546E-07 -0.546E-07
 -26.626 -0.574E-07 -0.574E-07
 -26.616 -0.603E-07 -0.603E-07
 -26.606 -0.633E-07 -0.633E-07
 -26.596 -0.663E-07 -0.663E-07
 -26.586 -0.695E-07 -0.695E-07
 -26.576 -0.728E-07 -0.728E-07
 -26.566 -0.762E-07 -0.762E-07
 -26.556 -0.797E-07 -0.797E-07
 -26.546 -0.833E-07 -0.833E-07
 -26.536 -0.870E-07 -0.870E-07
 -26.526 -0.908E-07 -0.908E-07
 -26.516 -0.948E-07 -0.948E-07
 -26.506 -0.988E-07 -0.988E-07
 -26.496 -0.103E-06 -0.103E-06
 -26.486 -0.107E-06 -0.107E-06
 -26.476 -0.111E-06 -0.111E-06
 -26.466 -0.116E-06 -0.116E-06
 -26.456 -0.120E-06 -0.120E-06
 -26.446 -0.125E-06 -0.125E-06
 -26.436 -0.129E-06 -0.129E-06
 -26.426 -0.134E-06 -0.134E-06
 -26.416 -0.139E-06 -0.139E-06
 -26.406 -0.143E-06 -0.143E-06
 -26.396 -0.148E-06 -0.148E-06
 -26.386 -0.153E-06 -0.153E-06
 -26.376 -0.158E-06 -0.158E-06
 -26.366 -0.163E-06 -0.163E-06
 -26.356 -0.167E-06 -0.167E-06
 -26.346 -0.172E-06 -0.172E-06
 -26.336 -0.177E-06 -0.177E-06
 -26.326 -0.182E-06 -0.182E-06
 -26.316 -0.186E-06 -0.186E-06
 -26.306 -0.191E-06 -0.191E-06
 -26.296 -0.195E-06 -0.195E-06
 -26.286 -0.200E-06 -0.200E-06
 -26.276 -0.204E-06 -0.204E-06
 -26.266 -0.208E-06 -0.208E-06
 -26.256 -0.212E-06 -0.212E-06
 -26.246 -0.216E-06 -0.216E-06
 -26.236 -0.219E-06 -0.219E-06
 -26.226 -0.223E-06 -0.223E-06
 -26.216 -0.225E-06 -0.225E-06
 -26.206 -0.228E-06 -0.228E-06
 -26.196 -0.230E-06 -0.230E-06
 -26.186 -0.232E-06 -0.232E-06
 -26.176 -0.234E-06 -0.234E-06
 -26.166 -0.235E-06 -0.235E-06
 -26.156 -0.236E-06 -0.236E-06
 -26.146 -0.236E-06 -0.236E-06
 -26.136 -0.236E-06 -0.236E-06
 -26.126 -0.235E-06 -0.235E-06
 -26.116 -0.234E-06 -0.234E-06
 -26.106 -0.232E-06 -0.232E-06
 -26.096 -0.229E-06 -0.229E-06
 -26.086 -0.226E-06 -0.226E-06
 -26.076 -0.222E-06 -0.222E-06
 -26.066 -0.217E-06 -0.217E-06
 -26.056 -0.212E-06 -0.212E-06
 -26.046 -0.205E-06 -0.205E-06
 -26.036 -0.198E-06 -0.198E-06
 -26.026 -0.190E-06 -0.190E-06
 -26.016 -0.181E-06 -0.181E-06
 -26.006 -0.171E-06 -0.171E-06
 -25.996 -0.159E-06 -0.159E-06
 -25.986 -0.147E-06 -0.147E-06
 -25.976 -0.134E-06 -0.134E-06
 -25.966 -0.119E-06 -0.119E-06
 -25.956 -0.104E-06 -0.104E-06
 -25.946 -0.869E-07 -0.869E-07
 -25.936 -0.688E-07 -0.688E-07
 -25.926 -0.494E-07 -0.494E-07
 -25.916 -0.287E-07 -0.287E-07
 -25.906 -0.664E-08 -0.664E-08
 -25.896  0.168E-07  0.168E-07
 -25.886  0.416E-07  0.416E-07
 -25.876  0.679E-07  0.679E-07
 -25.866  0.956E-07  0.956E-07
 -25.856  0.125E-06  0.125E-06
 -25.846  0.156E-06  0.156E-06
 -25.836  0.188E-06  0.188E-06
 -25.826  0.222E-06  0.222E-06
 -25.816  0.257E-06  0.257E-06
 -25.806  0.294E-06  0.294E-06
 -25.796  0.333E-06  0.333E-06
 -25.786  0.373E-06  0.373E-06
 -25.776  0.414E-06  0.414E-06
 -25.766  0.458E-06  0.458E-06
 -25.756  0.503E-06  0.503E-06
 -25.746  0.549E-06  0.549E-06
 -25.736  0.598E-06  0.598E-06
 -25.726  0.647E-06  0.647E-06
 -25.716  0.699E-06  0.699E-06
 -25.706  0.752E-06  0.752E-06
 -25.696  0.806E-06  0.806E-06
 -25.686  0.862E-06  0.862E-06
 -25.676  0.919E-06  0.919E-06
 -25.666  0.978E-06  0.978E-06
 -25.656  0.104E-05  0.104E-05
 -25.646  0.110E-05  0.110E-05
 -25.636  0.116E-05  0.116E-05
 -25.626  0.123E-05  0.123E-05
 -25.616  0.129E-05  0.129E-05
 -25.606  0.136E-05  0.136E-05
 -25.596  0.143E-05  0.143E-05
 -25.586  0.150E-05  0.150E-05
 -25.576  0.157E-05  0.157E-05
 -25.566  0.164E-05  0.164E-05
 -25.556  0.171E-05  0.171E-05
 -25.546  0.178E-05  0.178E-05
 -25.536  0.186E-05  0.186E-05
 -25.526  0.193E-05  0.193E-05
 -25.516  0.200E-05  0.200E-05
 -25.506  0.208E-05  0.208E-05
 -25.496  0.215E-05  0.215E-05
 -25.486  0.223E-05  0.223E-05
 -25.476  0.231E-05  0.231E-05
 -25.466  0.238E-05  0.238E-05
 -25.456  0.246E-05  0.246E-05
 -25.446  0.253E-05  0.253E-05
 -25.436  0.261E-05  0.261E-05
 -25.426  0.268E-05  0.268E-05
 -25.416  0.276E-05  0.276E-05
 -25.406  0.283E-05  0.283E-05
 -25.396  0.291E-05  0.291E-05
 -25.386  0.298E-05  0.298E-05
 -25.376  0.305E-05  0.305E-05
 -25.366  0.312E-05  0.312E-05
 -25.356  0.319E-05  0.319E-05
 -25.346  0.326E-05  0.326E-05
 -25.336  0.333E-05  0.333E-05
 -25.326  0.339E-05  0.339E-05
 -25.316  0.346E-05  0.346E-05
 -25.306  0.352E-05  0.352E-05
 -25.296  0.358E-05  0.358E-05
 -25.286  0.364E-05  0.364E-05
 -25.276  0.370E-05  0.370E-05
 -25.266  0.375E-05  0.375E-05
 -25.256  0.381E-05  0.381E-05
 -25.246  0.386E-05  0.386E-05
 -25.236  0.391E-05  0.391E-05
 -25.226  0.395E-05  0.395E-05
 -25.216  0.400E-05  0.400E-05
 -25.206  0.404E-05  0.404E-05
 -25.196  0.408E-05  0.408E-05
 -25.186  0.411E-05  0.411E-05
 -25.176  0.415E-05  0.415E-05
 -25.166  0.418E-05  0.418E-05
 -25.156  0.420E-05  0.420E-05
 -25.146  0.423E-05  0.423E-05
 -25.136  0.425E-05  0.425E-05
 -25.126  0.427E-05  0.427E-05
 -25.116  0.429E-05  0.429E-05
 -25.106  0.430E-05  0.430E-05
 -25.096  0.431E-05  0.431E-05
 -25.086  0.431E-05  0.431E-05
 -25.076  0.432E-05  0.432E-05
 -25.066  0.432E-05  0.432E-05
 -25.056  0.432E-05  0.432E-05
 -25.046  0.431E-05  0.431E-05
 -25.036  0.430E-05  0.430E-05
 -25.026  0.429E-05  0.429E-05
 -25.016  0.427E-05  0.427E-05
 -25.006  0.426E-05  0.426E-05
 -24.996  0.423E-05  0.423E-05
 -24.986  0.421E-05  0.421E-05
 -24.976  0.418E-05  0.418E-05
 -24.966  0.415E-05  0.415E-05
 -24.956  0.412E-05  0.412E-05
 -24.946  0.408E-05  0.408E-05
 -24.936  0.405E-05  0.405E-05
 -24.926  0.401E-05  0.401E-05
 -24.916  0.396E-05  0.396E-05
 -24.906  0.392E-05  0.392E-05
 -24.896  0.387E-05  0.387E-05
 -24.886  0.382E-05  0.382E-05
 -24.876  0.377E-05  0.377E-05
 -24.866  0.371E-05  0.371E-05
 -24.856  0.365E-05  0.365E-05
 -24.846  0.359E-05  0.359E-05
 -24.836  0.353E-05  0.353E-05
 -24.826  0.347E-05  0.347E-05
 -24.816  0.341E-05  0.341E-05
 -24.806  0.334E-05  0.334E-05
 -24.796  0.327E-05  0.327E-05
 -24.786  0.321E-05  0.321E-05
 -24.776  0.314E-05  0.314E-05
 -24.766  0.307E-05  0.307E-05
 -24.756  0.299E-05  0.299E-05
 -24.746  0.292E-05  0.292E-05
 -24.736  0.285E-05  0.285E-05
 -24.726  0.277E-05  0.277E-05
 -24.716  0.270E-05  0.270E-05
 -24.706  0.262E-05  0.262E-05
 -24.696  0.255E-05  0.255E-05
 -24.686  0.247E-05  0.247E-05
 -24.676  0.240E-05  0.240E-05
 -24.666  0.232E-05  0.232E-05
 -24.656  0.225E-05  0.225E-05
 -24.646  0.217E-05  0.217E-05
 -24.636  0.210E-05  0.210E-05
 -24.626  0.202E-05  0.202E-05
 -24.616  0.195E-05  0.195E-05
 -24.606  0.187E-05  0.187E-05
 -24.596  0.180E-05  0.180E-05
 -24.586  0.173E-05  0.173E-05
 -24.576  0.165E-05  0.165E-05
 -24.566  0.158E-05  0.158E-05
 -24.556  0.151E-05  0.151E-05
 -24.546  0.144E-05  0.144E-05
 -24.536  0.137E-05  0.137E-05
 -24.526  0.131E-05  0.131E-05
 -24.516  0.124E-05  0.124E-05
 -24.506  0.118E-05  0.118E-05
 -24.496  0.111E-05  0.111E-05
 -24.486  0.105E-05  0.105E-05
 -24.476  0.991E-06  0.991E-06
 -24.466  0.932E-06  0.932E-06
 -24.456  0.874E-06  0.874E-06
 -24.446  0.818E-06  0.818E-06
 -24.436  0.763E-06  0.763E-06
 -24.426  0.710E-06  0.710E-06
 -24.416  0.658E-06  0.658E-06
 -24.406  0.608E-06  0.608E-06
 -24.396  0.560E-06  0.560E-06
 -24.386  0.513E-06  0.513E-06
 -24.376  0.467E-06  0.467E-06
 -24.366  0.424E-06  0.424E-06
 -24.356  0.382E-06  0.382E-06
 -24.346  0.341E-06  0.341E-06
 -24.336  0.302E-06  0.302E-06
 -24.326  0.265E-06  0.265E-06
 -24.316  0.229E-06  0.229E-06
 -24.306  0.195E-06  0.195E-06
 -24.296  0.162E-06  0.162E-06
 -24.286  0.131E-06  0.131E-06
 -24.276  0.102E-06  0.102E-06
 -24.266  0.737E-07  0.737E-07
 -24.256  0.471E-07  0.471E-07
 -24.246  0.220E-07  0.220E-07
 -24.236 -0.173E-08 -0.173E-08
 -24.226 -0.241E-07 -0.241E-07
 -24.216 -0.450E-07 -0.450E-07
 -24.206 -0.647E-07 -0.647E-07
 -24.196 -0.831E-07 -0.831E-07
 -24.186 -0.100E-06 -0.100E-06
 -24.176 -0.116E-06 -0.116E-06
 -24.166 -0.131E-06 -0.131E-06
 -24.156 -0.144E-06 -0.144E-06
 -24.146 -0.157E-06 -0.157E-06
 -24.136 -0.168E-06 -0.168E-06
 -24.126 -0.179E-06 -0.179E-06
 -24.116 -0.188E-06 -0.188E-06
 -24.106 -0.196E-06 -0.196E-06
 -24.096 -0.204E-06 -0.204E-06
 -24.086 -0.210E-06 -0.210E-06
 -24.076 -0.216E-06 -0.216E-06
 -24.066 -0.221E-06 -0.221E-06
 -24.056 -0.225E-06 -0.225E-06
 -24.046 -0.229E-06 -0.229E-06
 -24.036 -0.231E-06 -0.231E-06
 -24.026 -0.234E-06 -0.234E-06
 -24.016 -0.235E-06 -0.235E-06
 -24.006 -0.236E-06 -0.236E-06
 -23.996 -0.236E-06 -0.236E-06
 -23.986 -0.236E-06 -0.236E-06
 -23.976 -0.235E-06 -0.235E-06
 -23.966 -0.234E-06 -0.234E-06
 -23.956 -0.233E-06 -0.233E-06
 -23.946 -0.231E-06 -0.231E-06
 -23.936 -0.229E-06 -0.229E-06
 -23.926 -0.226E-06 -0.226E-06
 -23.916 -0.223E-06 -0.223E-06
 -23.906 -0.220E-06 -0.220E-06
 -23.896 -0.217E-06 -0.217E-06
 -23.886 -0.213E-06 -0.213E-06
 -23.876 -0.209E-06 -0.209E-06
 -23.866 -0.205E-06 -0.205E-06
 -23.856 -0.201E-06 -0.201E-06
 -23.846 -0.196E-06 -0.196E-06
 -23.836 -0.192E-06 -0.192E-06
 -23.826 -0.187E-06 -0.187E-06
 -23.816 -0.183E-06 -0.183E-06
 -23.806 -0.178E-06 -0.178E-06
 -23.796 -0.173E-06 -0.173E-06
 -23.786 -0.168E-06 -0.168E-06
 -23.776 -0.164E-06 -0.164E-06
 -23.766 -0.159E-06 -0.159E-06
 -23.756 -0.154E-06 -0.154E-06
 -23.746 -0.149E-06 -0.149E-06
 -23.736 -0.144E-06 -0.144E-06
 -23.726 -0.140E-06 -0.140E-06
 -23.716 -0.135E-06 -0.135E-06
 -23.706 -0.130E-06 -0.130E-06
 -23.696 -0.126E-06 -0.126E-06
 -23.686 -0.121E-06 -0.121E-06
 -23.676 -0.117E-06 -0.117E-06
 -23.666 -0.112E-06 -0.112E-06
 -23.656 -0.108E-06 -0.108E-06
 -23.646 -0.104E-06 -0.104E-06
 -23.636 -0.996E-07 -0.996E-07
 -23.626 -0.956E-07 -0.956E-07
 -23.616 -0.917E-07 -0.917E-07
 -23.606 -0.878E-07 -0.878E-07
 -23.596 -0.841E-07 -0.841E-07
 -23.586 -0.805E-07 -0.805E-07
 -23.576 -0.770E-07 -0.770E-07
 -23.566 -0.735E-07 -0.735E-07
 -23.556 -0.702E-07 -0.702E-07
 -23.546 -0.670E-07 -0.670E-07
 -23.536 -0.639E-07 -0.639E-07
 -23.526 -0.609E-07 -0.609E-07
 -23.516 -0.580E-07 -0.580E-07
 -23.506 -0.552E-07 -0.552E-07
 -23.496 -0.525E-07 -0.525E-07
 -23.486 -0.499E-07 -0.499E-07
 -23.476 -0.474E-07 -0.474E-07
 -23.466 -0.450E-07 -0.450E-07
 -23.456 -0.427E-07 -0.427E-07
 -23.446 -0.405E-07 -0.405E-07
 -23.436 -0.384E-07 -0.384E-07
 -23.426 -0.364E-07 -0.364E-07
 -23.416 -0.344E-07 -0.344E-07
 -23.406 -0.326E-07 -0.326E-07
 -23.396 -0.308E-07 -0.308E-07
 -23.386 -0.291E-07 -0.291E-07
 -23.376 -0.275E-07 -0.275E-07
 -23.366 -0.259E-07 -0.259E-07
 -23.356 -0.244E-07 -0.244E-07
 -23.346 -0.230E-07 -0.230E-07
 -23.336 -0.217E-07 -0.217E-07
 -23.326 -0.204E-07 -0.204E-07
 -23.316 -0.192E-07 -0.192E-07
 -23.306 -0.181E-07 -0.181E-07
 -23.296 -0.170E-07 -0.170E-07
 -23.286 -0.160E-07 -0.160E-07
 -23.276 -0.150E-07 -0.150E-07
 -23.266 -0.141E-07 -0.141E-07
 -23.256 -0.132E-07 -0.132E-07
 -23.246 -0.124E-07 -0.124E-07
 -23.236 -0.116E-07 -0.116E-07
 -23.226 -0.108E-07 -0.108E-07
 -23.216 -0.102E-07 -0.102E-07
 -23.206 -0.950E-08 -0.950E-08
 -23.196 -0.888E-08 -0.888E-08
 -23.186 -0.829E-08 -0.829E-08
 -23.176 -0.775E-08 -0.775E-08
 -23.166 -0.723E-08 -0.723E-08
 -23.156 -0.674E-08 -0.674E-08
 -23.146 -0.629E-08 -0.629E-08
 -23.136 -0.586E-08 -0.586E-08
 -23.126 -0.546E-08 -0.546E-08
 -23.116 -0.508E-08 -0.508E-08
 -23.106 -0.473E-08 -0.473E-08
 -23.096 -0.439E-08 -0.439E-08
 -23.086 -0.408E-08 -0.408E-08
 -23.076 -0.379E-08 -0.379E-08
 -23.066 -0.352E-08 -0.352E-08
 -23.056 -0.327E-08 -0.327E-08
 -23.046 -0.303E-08 -0.303E-08
 -23.036 -0.281E-08 -0.281E-08
 -23.026 -0.260E-08 -0.260E-08
 -23.016 -0.241E-08 -0.241E-08
 -23.006 -0.223E-08 -0.223E-08
 -22.996 -0.206E-08 -0.206E-08
 -22.986 -0.191E-08 -0.191E-08
 -22.976 -0.176E-08 -0.176E-08
 -22.966 -0.163E-08 -0.163E-08
 -22.956 -0.151E-08 -0.151E-08
 -22.946 -0.139E-08 -0.139E-08
 -22.936 -0.128E-08 -0.128E-08
 -22.926 -0.118E-08 -0.118E-08
 -22.916 -0.109E-08 -0.109E-08
 -22.906 -0.100E-08 -0.100E-08
 -22.896 -0.925E-09 -0.925E-09
 -22.886 -0.852E-09 -0.852E-09
 -22.876 -0.784E-09 -0.784E-09
 -22.866 -0.721E-09 -0.721E-09
 -22.856 -0.664E-09 -0.664E-09
 -22.846 -0.610E-09 -0.610E-09
 -22.836 -0.561E-09 -0.561E-09
 -22.826 -0.516E-09 -0.516E-09
 -22.816 -0.475E-09 -0.475E-09
 -22.806 -0.437E-09 -0.437E-09
 -22.796 -0.402E-09 -0.402E-09
 -22.786 -0.370E-09 -0.370E-09
 -22.776 -0.341E-09 -0.341E-09
 -22.766 -0.314E-09 -0.314E-09
 -22.756 -0.290E-09 -0.290E-09
 -22.746 -0.268E-09 -0.268E-09
 -22.736 -0.248E-09 -0.248E-09
 -22.726 -0.230E-09 -0.230E-09
 -22.716 -0.213E-09 -0.213E-09
 -22.706 -0.199E-09 -0.199E-09
 -22.696 -0.186E-09 -0.186E-09
 -22.686 -0.175E-09 -0.175E-09
 -22.676 -0.165E-09 -0.165E-09
 -22.666 -0.156E-09 -0.156E-09
 -22.656 -0.149E-09 -0.149E-09
 -22.646 -0.143E-09 -0.143E-09
 -22.636 -0.139E-09 -0.139E-09
 -22.626 -0.135E-09 -0.135E-09
 -22.616 -0.133E-09 -0.133E-09
 -22.606 -0.131E-09 -0.131E-09
 -22.596 -0.131E-09 -0.131E-09
 -22.586 -0.132E-09 -0.132E-09
 -22.576 -0.134E-09 -0.134E-09
 -22.566 -0.137E-09 -0.137E-09
 -22.556 -0.141E-09 -0.141E-09
 -22.546 -0.146E-09 -0.146E-09
 -22.536 -0.153E-09 -0.153E-09
 -22.526 -0.160E-09 -0.160E-09
 -22.516 -0.169E-09 -0.169E-09
 -22.506 -0.179E-09 -0.179E-09
 -22.496 -0.191E-09 -0.191E-09
 -22.486 -0.203E-09 -0.203E-09
 -22.476 -0.217E-09 -0.217E-09
 -22.466 -0.233E-09 -0.233E-09
 -22.456 -0.250E-09 -0.250E-09
 -22.446 -0.269E-09 -0.269E-09
 -22.436 -0.290E-09 -0.290E-09
 -22.426 -0.312E-09 -0.312E-09
 -22.416 -0.336E-09 -0.336E-09
 -22.406 -0.363E-09 -0.363E-09
 -22.396 -0.392E-09 -0.392E-09
 -22.386 -0.423E-09 -0.423E-09
 -22.376 -0.456E-09 -0.456E-09
 -22.366 -0.493E-09 -0.493E-09
 -22.356 -0.532E-09 -0.532E-09
 -22.346 -0.574E-09 -0.574E-09
 -22.336 -0.619E-09 -0.619E-09
 -22.326 -0.667E-09 -0.667E-09
 -22.316 -0.719E-09 -0.719E-09
 -22.306 -0.775E-09 -0.775E-09
 -22.296 -0.835E-09 -0.835E-09
 -22.286 -0.900E-09 -0.900E-09
 -22.276 -0.968E-09 -0.968E-09
 -22.266 -0.104E-08 -0.104E-08
 -22.256 -0.112E-08 -0.112E-08
 -22.246 -0.120E-08 -0.120E-08
 -22.236 -0.129E-08 -0.129E-08
 -22.226 -0.139E-08 -0.139E-08
 -22.216 -0.149E-08 -0.149E-08
 -22.206 -0.160E-08 -0.160E-08
 -22.196 -0.172E-08 -0.172E-08
 -22.186 -0.184E-08 -0.184E-08
 -22.176 -0.197E-08 -0.197E-08
 -22.166 -0.211E-08 -0.211E-08
 -22.156 -0.226E-08 -0.226E-08
 -22.146 -0.241E-08 -0.241E-08
 -22.136 -0.258E-08 -0.258E-08
 -22.126 -0.276E-08 -0.276E-08
 -22.116 -0.294E-08 -0.294E-08
 -22.106 -0.314E-08 -0.314E-08
 -22.096 -0.335E-08 -0.335E-08
 -22.086 -0.357E-08 -0.357E-08
 -22.076 -0.381E-08 -0.381E-08
 -22.066 -0.405E-08 -0.405E-08
 -22.056 -0.431E-08 -0.431E-08
 -22.046 -0.459E-08 -0.459E-08
 -22.036 -0.488E-08 -0.488E-08
 -22.026 -0.518E-08 -0.518E-08
 -22.016 -0.550E-08 -0.550E-08
 -22.006 -0.584E-08 -0.584E-08
 -21.996 -0.620E-08 -0.620E-08
 -21.986 -0.657E-08 -0.657E-08
 -21.976 -0.696E-08 -0.696E-08
 -21.966 -0.737E-08 -0.737E-08
 -21.956 -0.780E-08 -0.780E-08
 -21.946 -0.825E-08 -0.825E-08
 -21.936 -0.872E-08 -0.872E-08
 -21.926 -0.921E-08 -0.921E-08
 -21.916 -0.972E-08 -0.972E-08
 -21.906 -0.103E-07 -0.103E-07
 -21.896 -0.108E-07 -0.108E-07
 -21.886 -0.114E-07 -0.114E-07
 -21.876 -0.120E-07 -0.120E-07
 -21.866 -0.126E-07 -0.126E-07
 -21.856 -0.133E-07 -0.133E-07
 -21.846 -0.140E-07 -0.140E-07
 -21.836 -0.147E-07 -0.147E-07
 -21.826 -0.154E-07 -0.154E-07
 -21.816 -0.161E-07 -0.161E-07
 -21.806 -0.169E-07 -0.169E-07
 -21.796 -0.177E-07 -0.177E-07
 -21.786 -0.186E-07 -0.186E-07
 -21.776 -0.194E-07 -0.194E-07
 -21.766 -0.203E-07 -0.203E-07
 -21.756 -0.212E-07 -0.212E-07
 -21.746 -0.222E-07 -0.222E-07
 -21.736 -0.231E-07 -0.231E-07
 -21.726 -0.241E-07 -0.241E-07
 -21.716 -0.251E-07 -0.251E-07
 -21.706 -0.262E-07 -0.262E-07
 -21.696 -0.272E-07 -0.272E-07
 -21.686 -0.283E-07 -0.283E-07
 -21.676 -0.294E-07 -0.294E-07
 -21.666 -0.305E-07 -0.305E-07
 -21.656 -0.316E-07 -0.316E-07
 -21.646 -0.328E-07 -0.328E-07
 -21.636 -0.340E-07 -0.340E-07
 -21.626 -0.351E-07 -0.351E-07
 -21.616 -0.363E-07 -0.363E-07
 -21.606 -0.375E-07 -0.375E-07
 -21.596 -0.387E-07 -0.387E-07
 -21.586 -0.399E-07 -0.399E-07
 -21.576 -0.411E-07 -0.411E-07
 -21.566 -0.423E-07 -0.423E-07
 -21.556 -0.435E-07 -0.435E-07
 -21.546 -0.447E-07 -0.447E-07
 -21.536 -0.459E-07 -0.459E-07
 -21.526 -0.470E-07 -0.470E-07
 -21.516 -0.481E-07 -0.481E-07
 -21.506 -0.492E-07 -0.492E-07
 -21.496 -0.503E-07 -0.503E-07
 -21.486 -0.514E-07 -0.514E-07
 -21.476 -0.523E-07 -0.523E-07
 -21.466 -0.533E-07 -0.533E-07
 -21.456 -0.542E-07 -0.542E-07
 -21.446 -0.550E-07 -0.550E-07
 -21.436 -0.558E-07 -0.558E-07
 -21.426 -0.565E-07 -0.565E-07
 -21.416 -0.571E-07 -0.571E-07
 -21.406 -0.577E-07 -0.577E-07
 -21.396 -0.581E-07 -0.581E-07
 -21.386 -0.585E-07 -0.585E-07
 -21.376 -0.587E-07 -0.587E-07
 -21.366 -0.588E-07 -0.588E-07
 -21.356 -0.588E-07 -0.588E-07
 -21.346 -0.587E-07 -0.587E-07
 -21.336 -0.584E-07 -0.584E-07
 -21.326 -0.580E-07 -0.580E-07
 -21.316 -0.575E-07 -0.575E-07
 -21.306 -0.567E-07 -0.567E-07
 -21.296 -0.558E-07 -0.558E-07
 -21.286 -0.547E-07 -0.547E-07
 -21.276 -0.534E-07 -0.534E-07
 -21.266 -0.519E-07 -0.519E-07
 -21.256 -0.502E-07 -0.502E-07
 -21.246 -0.483E-07 -0.483E-07
 -21.236 -0.462E-07 -0.462E-07
 -21.226 -0.438E-07 -0.438E-07
 -21.216 -0.411E-07 -0.411E-07
 -21.206 -0.382E-07 -0.382E-07
 -21.196 -0.350E-07 -0.350E-07
 -21.186 -0.316E-07 -0.316E-07
 -21.176 -0.278E-07 -0.278E-07
 -21.166 -0.238E-07 -0.238E-07
 -21.156 -0.195E-07 -0.195E-07
 -21.146 -0.148E-07 -0.148E-07
 -21.136 -0.982E-08 -0.982E-08
 -21.126 -0.451E-08 -0.451E-08
 -21.116  0.113E-08  0.113E-08
 -21.106  0.713E-08  0.713E-08
 -21.096  0.135E-07  0.135E-07
 -21.086  0.202E-07  0.202E-07
 -21.076  0.272E-07  0.272E-07
 -21.066  0.347E-07  0.347E-07
 -21.056  0.425E-07  0.425E-07
 -21.046  0.507E-07  0.507E-07
 -21.036  0.593E-07  0.593E-07
 -21.026  0.683E-07  0.683E-07
 -21.016  0.776E-07  0.776E-07
 -21.006  0.874E-07  0.874E-07
 -20.996  0.976E-07  0.976E-07
 -20.986  0.108E-06  0.108E-06
 -20.976  0.119E-06  0.119E-06
 -20.966  0.130E-06  0.130E-06
 -20.956  0.142E-06  0.142E-06
 -20.946  0.154E-06  0.154E-06
 -20.936  0.167E-06  0.167E-06
 -20.926  0.180E-06  0.180E-06
 -20.916  0.193E-06  0.193E-06
 -20.906  0.207E-06  0.207E-06
 -20.896  0.221E-06  0.221E-06
 -20.886  0.235E-06  0.235E-06
 -20.876  0.250E-06  0.250E-06
 -20.866  0.265E-06  0.265E-06
 -20.856  0.280E-06  0.280E-06
 -20.846  0.296E-06  0.296E-06
 -20.836  0.312E-06  0.312E-06
 -20.826  0.328E-06  0.328E-06
 -20.816  0.345E-06  0.345E-06
 -20.806  0.362E-06  0.362E-06
 -20.796  0.379E-06  0.379E-06
 -20.786  0.397E-06  0.397E-06
 -20.776  0.414E-06  0.414E-06
 -20.766  0.432E-06  0.432E-06
 -20.756  0.450E-06  0.450E-06
 -20.746  0.468E-06  0.468E-06
 -20.736  0.486E-06  0.486E-06
 -20.726  0.505E-06  0.505E-06
 -20.716  0.523E-06  0.523E-06
 -20.706  0.542E-06  0.542E-06
 -20.696  0.560E-06  0.560E-06
 -20.686  0.579E-06  0.579E-06
 -20.676  0.597E-06  0.597E-06
 -20.666  0.616E-06  0.616E-06
 -20.656  0.634E-06  0.634E-06
 -20.646  0.653E-06  0.653E-06
 -20.636  0.671E-06  0.671E-06
 -20.626  0.689E-06  0.689E-06
 -20.616  0.707E-06  0.707E-06
 -20.606  0.725E-06  0.725E-06
 -20.596  0.743E-06  0.743E-06
 -20.586  0.760E-06  0.760E-06
 -20.576  0.777E-06  0.777E-06
 -20.566  0.794E-06  0.794E-06
 -20.556  0.810E-06  0.810E-06
 -20.546  0.826E-06  0.826E-06
 -20.536  0.842E-06  0.842E-06
 -20.526  0.857E-06  0.857E-06
 -20.516  0.872E-06  0.872E-06
 -20.506  0.886E-06  0.886E-06
 -20.496  0.900E-06  0.900E-06
 -20.486  0.914E-06  0.914E-06
 -20.476  0.927E-06  0.927E-06
 -20.466  0.939E-06  0.939E-06
 -20.456  0.951E-06  0.951E-06
 -20.446  0.962E-06  0.962E-06
 -20.436  0.972E-06  0.972E-06
 -20.426  0.982E-06  0.982E-06
 -20.416  0.991E-06  0.991E-06
 -20.406  0.100E-05  0.100E-05
 -20.396  0.101E-05  0.101E-05
 -20.386  0.101E-05  0.101E-05
 -20.376  0.102E-05  0.102E-05
 -20.366  0.103E-05  0.103E-05
 -20.356  0.103E-05  0.103E-05
 -20.346  0.104E-05  0.104E-05
 -20.336  0.104E-05  0.104E-05
 -20.326  0.104E-05  0.104E-05
 -20.316  0.104E-05  0.104E-05
 -20.306  0.104E-05  0.104E-05
 -20.296  0.105E-05  0.105E-05
 -20.286  0.104E-05  0.104E-05
 -20.276  0.104E-05  0.104E-05
 -20.266  0.104E-05  0.104E-05
 -20.256  0.104E-05  0.104E-05
 -20.246  0.104E-05  0.104E-05
 -20.236  0.103E-05  0.103E-05
 -20.226  0.103E-05  0.103E-05
 -20.216  0.102E-05  0.102E-05
 -20.206  0.101E-05  0.101E-05
 -20.196  0.101E-05  0.101E-05
 -20.186  0.999E-06  0.999E-06
 -20.176  0.991E-06  0.991E-06
 -20.166  0.982E-06  0.982E-06
 -20.156  0.972E-06  0.972E-06
 -20.146  0.962E-06  0.962E-06
 -20.136  0.951E-06  0.951E-06
 -20.126  0.939E-06  0.939E-06
 -20.116  0.927E-06  0.927E-06
 -20.106  0.915E-06  0.915E-06
 -20.096  0.902E-06  0.902E-06
 -20.086  0.888E-06  0.888E-06
 -20.076  0.874E-06  0.874E-06
 -20.066  0.860E-06  0.860E-06
 -20.056  0.845E-06  0.845E-06
 -20.046  0.830E-06  0.830E-06
 -20.036  0.815E-06  0.815E-06
 -20.026  0.799E-06  0.799E-06
 -20.016  0.783E-06  0.783E-06
 -20.006  0.767E-06  0.767E-06
 -19.996  0.751E-06  0.751E-06
 -19.986  0.734E-06  0.734E-06
 -19.976  0.718E-06  0.718E-06
 -19.966  0.701E-06  0.701E-06
 -19.956  0.684E-06  0.684E-06
 -19.946  0.667E-06  0.667E-06
 -19.936  0.651E-06  0.651E-06
 -19.926  0.634E-06  0.634E-06
 -19.916  0.618E-06  0.618E-06
 -19.906  0.601E-06  0.601E-06
 -19.896  0.585E-06  0.585E-06
 -19.886  0.569E-06  0.569E-06
 -19.876  0.553E-06  0.553E-06
 -19.866  0.537E-06  0.537E-06
 -19.856  0.522E-06  0.522E-06
 -19.846  0.507E-06  0.507E-06
 -19.836  0.493E-06  0.493E-06
 -19.826  0.478E-06  0.478E-06
 -19.816  0.464E-06  0.464E-06
 -19.806  0.451E-06  0.451E-06
 -19.796  0.438E-06  0.438E-06
 -19.786  0.425E-06  0.425E-06
 -19.776  0.413E-06  0.413E-06
 -19.766  0.402E-06  0.402E-06
 -19.756  0.391E-06  0.391E-06
 -19.746  0.380E-06  0.380E-06
 -19.736  0.370E-06  0.370E-06
 -19.726  0.361E-06  0.361E-06
 -19.716  0.352E-06  0.352E-06
 -19.706  0.344E-06  0.344E-06
 -19.696  0.336E-06  0.336E-06
 -19.686  0.330E-06  0.330E-06
 -19.676  0.323E-06  0.323E-06
 -19.666  0.318E-06  0.318E-06
 -19.656  0.313E-06  0.313E-06
 -19.646  0.309E-06  0.309E-06
 -19.636  0.305E-06  0.305E-06
 -19.626  0.302E-06  0.302E-06
 -19.616  0.300E-06  0.300E-06
 -19.606  0.298E-06  0.298E-06
 -19.596  0.297E-06  0.297E-06
 -19.586  0.297E-06  0.297E-06
 -19.576  0.297E-06  0.297E-06
 -19.566  0.298E-06  0.298E-06
 -19.556  0.300E-06  0.300E-06
 -19.546  0.302E-06  0.302E-06
 -19.536  0.305E-06  0.305E-06
 -19.526  0.308E-06  0.308E-06
 -19.516  0.312E-06  0.312E-06
 -19.506  0.317E-06  0.317E-06
 -19.496  0.322E-06  0.322E-06
 -19.486  0.327E-06  0.327E-06
 -19.476  0.334E-06  0.334E-06
 -19.466  0.340E-06  0.340E-06
 -19.456  0.347E-06  0.347E-06
 -19.446  0.355E-06  0.355E-06
 -19.436  0.363E-06  0.363E-06
 -19.426  0.371E-06  0.371E-06
 -19.416  0.380E-06  0.380E-06
 -19.406  0.389E-06  0.389E-06
 -19.396  0.398E-06  0.398E-06
 -19.386  0.408E-06  0.408E-06
 -19.376  0.418E-06  0.418E-06
 -19.366  0.428E-06  0.428E-06
 -19.356  0.438E-06  0.438E-06
 -19.346  0.449E-06  0.449E-06
 -19.336  0.460E-06  0.460E-06
 -19.326  0.470E-06  0.470E-06
 -19.316  0.481E-06  0.481E-06
 -19.306  0.492E-06  0.492E-06
 -19.296  0.503E-06  0.503E-06
 -19.286  0.514E-06  0.514E-06
 -19.276  0.525E-06  0.525E-06
 -19.266  0.536E-06  0.536E-06
 -19.256  0.547E-06  0.547E-06
 -19.246  0.558E-06  0.558E-06
 -19.236  0.569E-06  0.569E-06
 -19.226  0.579E-06  0.579E-06
 -19.216  0.589E-06  0.589E-06
 -19.206  0.600E-06  0.600E-06
 -19.196  0.609E-06  0.609E-06
 -19.186  0.619E-06  0.619E-06
 -19.176  0.628E-06  0.628E-06
 -19.166  0.637E-06  0.637E-06
 -19.156  0.646E-06  0.646E-06
 -19.146  0.654E-06  0.654E-06
 -19.136  0.662E-06  0.662E-06
 -19.126  0.670E-06  0.670E-06
 -19.116  0.677E-06  0.677E-06
 -19.106  0.683E-06  0.683E-06
 -19.096  0.690E-06  0.690E-06
 -19.086  0.695E-06  0.695E-06
 -19.076  0.701E-06  0.701E-06
 -19.066  0.706E-06  0.706E-06
 -19.056  0.710E-06  0.710E-06
 -19.046  0.714E-06  0.714E-06
 -19.036  0.717E-06  0.717E-06
 -19.026  0.720E-06  0.720E-06
 -19.016  0.722E-06  0.722E-06
 -19.006  0.724E-06  0.724E-06
 -18.996  0.725E-06  0.725E-06
 -18.986  0.725E-06  0.725E-06
 -18.976  0.725E-06  0.725E-06
 -18.966  0.725E-06  0.725E-06
 -18.956  0.724E-06  0.724E-06
 -18.946  0.722E-06  0.722E-06
 -18.936  0.720E-06  0.720E-06
 -18.926  0.717E-06  0.717E-06
 -18.916  0.714E-06  0.714E-06
 -18.906  0.710E-06  0.710E-06
 -18.896  0.706E-06  0.706E-06
 -18.886  0.701E-06  0.701E-06
 -18.876  0.696E-06  0.696E-06
 -18.866  0.690E-06  0.690E-06
 -18.856  0.684E-06  0.684E-06
 -18.846  0.677E-06  0.677E-06
 -18.836  0.669E-06  0.669E-06
 -18.826  0.662E-06  0.662E-06
 -18.816  0.654E-06  0.654E-06
 -18.806  0.645E-06  0.645E-06
 -18.796  0.636E-06  0.636E-06
 -18.786  0.627E-06  0.627E-06
 -18.776  0.617E-06  0.617E-06
 -18.766  0.607E-06  0.607E-06
 -18.756  0.596E-06  0.596E-06
 -18.746  0.585E-06  0.585E-06
 -18.736  0.574E-06  0.574E-06
 -18.726  0.563E-06  0.563E-06
 -18.716  0.551E-06  0.551E-06
 -18.706  0.539E-06  0.539E-06
 -18.696  0.527E-06  0.527E-06
 -18.686  0.515E-06  0.515E-06
 -18.676  0.503E-06  0.503E-06
 -18.666  0.490E-06  0.490E-06
 -18.656  0.477E-06  0.477E-06
 -18.646  0.464E-06  0.464E-06
 -18.636  0.451E-06  0.451E-06
 -18.626  0.438E-06  0.438E-06
 -18.616  0.425E-06  0.425E-06
 -18.606  0.411E-06  0.411E-06
 -18.596  0.398E-06  0.398E-06
 -18.586  0.385E-06  0.385E-06
 -18.576  0.372E-06  0.372E-06
 -18.566  0.358E-06  0.358E-06
 -18.556  0.345E-06  0.345E-06
 -18.546  0.332E-06  0.332E-06
 -18.536  0.319E-06  0.319E-06
 -18.526  0.305E-06  0.305E-06
 -18.516  0.293E-06  0.293E-06
 -18.506  0.280E-06  0.280E-06
 -18.496  0.267E-06  0.267E-06
 -18.486  0.254E-06  0.254E-06
 -18.476  0.242E-06  0.242E-06
 -18.466  0.230E-06  0.230E-06
 -18.456  0.217E-06  0.217E-06
 -18.446  0.205E-06  0.205E-06
 -18.436  0.194E-06  0.194E-06
 -18.426  0.182E-06  0.182E-06
 -18.416  0.171E-06  0.171E-06
 -18.406  0.160E-06  0.160E-06
 -18.396  0.149E-06  0.149E-06
 -18.386  0.138E-06  0.138E-06
 -18.376  0.128E-06  0.128E-06
 -18.366  0.117E-06  0.117E-06
 -18.356  0.108E-06  0.108E-06
 -18.346  0.978E-07  0.978E-07
 -18.336  0.884E-07  0.884E-07
 -18.326  0.792E-07  0.792E-07
 -18.316  0.703E-07  0.703E-07
 -18.306  0.616E-07  0.616E-07
 -18.296  0.532E-07  0.532E-07
 -18.286  0.451E-07  0.451E-07
 -18.276  0.372E-07  0.372E-07
 -18.266  0.296E-07  0.296E-07
 -18.256  0.222E-07  0.222E-07
 -18.246  0.151E-07  0.151E-07
 -18.236  0.830E-08  0.830E-08
 -18.226  0.174E-08  0.174E-08
 -18.216 -0.457E-08 -0.457E-08
 -18.206 -0.106E-07 -0.106E-07
 -18.196 -0.164E-07 -0.164E-07
 -18.186 -0.220E-07 -0.220E-07
 -18.176 -0.272E-07 -0.272E-07
 -18.166 -0.323E-07 -0.323E-07
 -18.156 -0.371E-07 -0.371E-07
 -18.146 -0.417E-07 -0.417E-07
 -18.136 -0.460E-07 -0.460E-07
 -18.126 -0.501E-07 -0.501E-07
 -18.116 -0.539E-07 -0.539E-07
 -18.106 -0.575E-07 -0.575E-07
 -18.096 -0.609E-07 -0.609E-07
 -18.086 -0.641E-07 -0.641E-07
 -18.076 -0.671E-07 -0.671E-07
 -18.066 -0.698E-07 -0.698E-07
 -18.056 -0.723E-07 -0.723E-07
 -18.046 -0.747E-07 -0.747E-07
 -18.036 -0.768E-07 -0.768E-07
 -18.026 -0.786E-07 -0.786E-07
 -18.016 -0.803E-07 -0.803E-07
 -18.006 -0.818E-07 -0.818E-07
 -17.996 -0.831E-07 -0.831E-07
 -17.986 -0.842E-07 -0.842E-07
 -17.976 -0.851E-07 -0.851E-07
 -17.966 -0.857E-07 -0.857E-07
 -17.956 -0.862E-07 -0.862E-07
 -17.946 -0.865E-07 -0.865E-07
 -17.936 -0.866E-07 -0.866E-07
 -17.926 -0.865E-07 -0.865E-07
 -17.916 -0.862E-07 -0.862E-07
 -17.906 -0.857E-07 -0.857E-07
 -17.896 -0.849E-07 -0.849E-07
 -17.886 -0.840E-07 -0.840E-07
 -17.876 -0.829E-07 -0.829E-07
 -17.866 -0.816E-07 -0.816E-07
 -17.856 -0.801E-07 -0.801E-07
 -17.846 -0.783E-07 -0.783E-07
 -17.836 -0.764E-07 -0.764E-07
 -17.826 -0.742E-07 -0.742E-07
 -17.816 -0.718E-07 -0.718E-07
 -17.806 -0.692E-07 -0.692E-07
 -17.796 -0.664E-07 -0.664E-07
 -17.786 -0.633E-07 -0.633E-07
 -17.776 -0.600E-07 -0.600E-07
 -17.766 -0.565E-07 -0.565E-07
 -17.756 -0.527E-07 -0.527E-07
 -17.746 -0.487E-07 -0.487E-07
 -17.736 -0.444E-07 -0.444E-07
 -17.726 -0.399E-07 -0.399E-07
 -17.716 -0.352E-07 -0.352E-07
 -17.706 -0.302E-07 -0.302E-07
 -17.696 -0.249E-07 -0.249E-07
 -17.686 -0.194E-07 -0.194E-07
 -17.676 -0.136E-07 -0.136E-07
 -17.666 -0.751E-08 -0.751E-08
 -17.656 -0.117E-08 -0.117E-08
 -17.646  0.545E-08  0.545E-08
 -17.636  0.123E-07  0.123E-07
 -17.626  0.195E-07  0.195E-07
 -17.616  0.270E-07  0.270E-07
 -17.606  0.347E-07  0.347E-07
 -17.596  0.427E-07  0.427E-07
 -17.586  0.510E-07  0.510E-07
 -17.576  0.596E-07  0.596E-07
 -17.566  0.685E-07  0.685E-07
 -17.556  0.777E-07  0.777E-07
 -17.546  0.871E-07  0.871E-07
 -17.536  0.968E-07  0.968E-07
 -17.526  0.107E-06  0.107E-06
 -17.516  0.117E-06  0.117E-06
 -17.506  0.128E-06  0.128E-06
 -17.496  0.138E-06  0.138E-06
 -17.486  0.150E-06  0.150E-06
 -17.476  0.161E-06  0.161E-06
 -17.466  0.172E-06  0.172E-06
 -17.456  0.184E-06  0.184E-06
 -17.446  0.196E-06  0.196E-06
 -17.436  0.209E-06  0.209E-06
 -17.426  0.221E-06  0.221E-06
 -17.416  0.234E-06  0.234E-06
 -17.406  0.247E-06  0.247E-06
 -17.396  0.260E-06  0.260E-06
 -17.386  0.273E-06  0.273E-06
 -17.376  0.287E-06  0.287E-06
 -17.366  0.301E-06  0.301E-06
 -17.356  0.314E-06  0.314E-06
 -17.346  0.328E-06  0.328E-06
 -17.336  0.342E-06  0.342E-06
 -17.326  0.356E-06  0.356E-06
 -17.316  0.371E-06  0.371E-06
 -17.306  0.385E-06  0.385E-06
 -17.296  0.399E-06  0.399E-06
 -17.286  0.414E-06  0.414E-06
 -17.276  0.428E-06  0.428E-06
 -17.266  0.443E-06  0.443E-06
 -17.256  0.457E-06  0.457E-06
 -17.246  0.471E-06  0.471E-06
 -17.236  0.486E-06  0.486E-06
 -17.226  0.500E-06  0.500E-06
 -17.216  0.514E-06  0.514E-06
 -17.206  0.528E-06  0.528E-06
 -17.196  0.542E-06  0.542E-06
 -17.186  0.556E-06  0.556E-06
 -17.176  0.570E-06  0.570E-06
 -17.166  0.583E-06  0.583E-06
 -17.156  0.596E-06  0.596E-06
 -17.146  0.609E-06  0.609E-06
 -17.136  0.622E-06  0.622E-06
 -17.126  0.635E-06  0.635E-06
 -17.116  0.647E-06  0.647E-06
 -17.106  0.659E-06  0.659E-06
 -17.096  0.671E-06  0.671E-06
 -17.086  0.682E-06  0.682E-06
 -17.076  0.693E-06  0.693E-06
 -17.066  0.703E-06  0.703E-06
 -17.056  0.714E-06  0.714E-06
 -17.046  0.723E-06  0.723E-06
 -17.036  0.733E-06  0.733E-06
 -17.026  0.742E-06  0.742E-06
 -17.016  0.750E-06  0.750E-06
 -17.006  0.758E-06  0.758E-06
 -16.996  0.766E-06  0.766E-06
 -16.986  0.773E-06  0.773E-06
 -16.976  0.779E-06  0.779E-06
 -16.966  0.785E-06  0.785E-06
 -16.956  0.791E-06  0.791E-06
 -16.946  0.796E-06  0.796E-06
 -16.936  0.800E-06  0.800E-06
 -16.926  0.804E-06  0.804E-06
 -16.916  0.808E-06  0.808E-06
 -16.906  0.810E-06  0.810E-06
 -16.896  0.813E-06  0.813E-06
 -16.886  0.815E-06  0.815E-06
 -16.876  0.816E-06  0.816E-06
 -16.866  0.816E-06  0.816E-06
 -16.856  0.817E-06  0.817E-06
 -16.846  0.816E-06  0.816E-06
 -16.836  0.815E-06  0.815E-06
 -16.826  0.814E-06  0.814E-06
 -16.816  0.811E-06  0.811E-06
 -16.806  0.809E-06  0.809E-06
 -16.796  0.806E-06  0.806E-06
 -16.786  0.802E-06  0.802E-06
 -16.776  0.798E-06  0.798E-06
 -16.766  0.793E-06  0.793E-06
 -16.756  0.788E-06  0.788E-06
 -16.746  0.782E-06  0.782E-06
 -16.736  0.776E-06  0.776E-06
 -16.726  0.770E-06  0.770E-06
 -16.716  0.763E-06  0.763E-06
 -16.706  0.755E-06  0.755E-06
 -16.696  0.747E-06  0.747E-06
 -16.686  0.739E-06  0.739E-06
 -16.676  0.730E-06  0.730E-06
 -16.666  0.721E-06  0.721E-06
 -16.656  0.712E-06  0.712E-06
 -16.646  0.702E-06  0.702E-06
 -16.636  0.692E-06  0.692E-06
 -16.626  0.682E-06  0.682E-06
 -16.616  0.671E-06  0.671E-06
 -16.606  0.660E-06  0.660E-06
 -16.596  0.649E-06  0.649E-06
 -16.586  0.638E-06  0.638E-06
 -16.576  0.626E-06  0.626E-06
 -16.566  0.614E-06  0.614E-06
 -16.556  0.602E-06  0.602E-06
 -16.546  0.590E-06  0.590E-06
 -16.536  0.578E-06  0.578E-06
 -16.526  0.566E-06  0.566E-06
 -16.516  0.553E-06  0.553E-06
 -16.506  0.541E-06  0.541E-06
 -16.496  0.528E-06  0.528E-06
 -16.486  0.515E-06  0.515E-06
 -16.476  0.503E-06  0.503E-06
 -16.466  0.490E-06  0.490E-06
 -16.456  0.477E-06  0.477E-06
 -16.446  0.465E-06  0.465E-06
 -16.436  0.452E-06  0.452E-06
 -16.426  0.440E-06  0.440E-06
 -16.416  0.427E-06  0.427E-06
 -16.406  0.415E-06  0.415E-06
 -16.396  0.403E-06  0.403E-06
 -16.386  0.391E-06  0.391E-06
 -16.376  0.378E-06  0.378E-06
 -16.366  0.367E-06  0.367E-06
 -16.356  0.355E-06  0.355E-06
 -16.346  0.343E-06  0.343E-06
 -16.336  0.332E-06  0.332E-06
 -16.326  0.320E-06  0.320E-06
 -16.316  0.309E-06  0.309E-06
 -16.306  0.299E-06  0.299E-06
 -16.296  0.288E-06  0.288E-06
 -16.286  0.277E-06  0.277E-06
 -16.276  0.267E-06  0.267E-06
 -16.266  0.257E-06  0.257E-06
 -16.256  0.247E-06  0.247E-06
 -16.246  0.238E-06  0.238E-06
 -16.236  0.228E-06  0.228E-06
 -16.226  0.219E-06  0.219E-06
 -16.216  0.210E-06  0.210E-06
 -16.206  0.202E-06  0.202E-06
 -16.196  0.193E-06  0.193E-06
 -16.186  0.185E-06  0.185E-06
 -16.176  0.177E-06  0.177E-06
 -16.166  0.169E-06  0.169E-06
 -16.156  0.162E-06  0.162E-06
 -16.146  0.155E-06  0.155E-06
 -16.136  0.148E-06  0.148E-06
 -16.126  0.141E-06  0.141E-06
 -16.116  0.134E-06  0.134E-06
 -16.106  0.128E-06  0.128E-06
 -16.096  0.122E-06  0.122E-06
 -16.086  0.116E-06  0.116E-06
 -16.076  0.110E-06  0.110E-06
 -16.066  0.105E-06  0.105E-06
 -16.056  0.998E-07  0.998E-07
 -16.046  0.948E-07  0.948E-07
 -16.036  0.900E-07  0.900E-07
 -16.026  0.854E-07  0.854E-07
 -16.016  0.810E-07  0.810E-07
 -16.006  0.767E-07  0.767E-07
 -15.996  0.727E-07  0.727E-07
 -15.986  0.688E-07  0.688E-07
 -15.976  0.651E-07  0.651E-07
 -15.966  0.615E-07  0.615E-07
 -15.956  0.581E-07  0.581E-07
 -15.946  0.549E-07  0.549E-07
 -15.936  0.518E-07  0.518E-07
 -15.926  0.488E-07  0.488E-07
 -15.916  0.460E-07  0.460E-07
 -15.906  0.433E-07  0.433E-07
 -15.896  0.407E-07  0.407E-07
 -15.886  0.383E-07  0.383E-07
 -15.876  0.359E-07  0.359E-07
 -15.866  0.337E-07  0.337E-07
 -15.856  0.316E-07  0.316E-07
 -15.846  0.295E-07  0.295E-07
 -15.836  0.276E-07  0.276E-07
 -15.826  0.258E-07  0.258E-07
 -15.816  0.240E-07  0.240E-07
 -15.806  0.223E-07  0.223E-07
 -15.796  0.207E-07  0.207E-07
 -15.786  0.192E-07  0.192E-07
 -15.776  0.177E-07  0.177E-07
 -15.766  0.163E-07  0.163E-07
 -15.756  0.150E-07  0.150E-07
 -15.746  0.137E-07  0.137E-07
 -15.736  0.125E-07  0.125E-07
 -15.726  0.113E-07  0.113E-07
 -15.716  0.102E-07  0.102E-07
 -15.706  0.912E-08  0.912E-08
 -15.696  0.808E-08  0.808E-08
 -15.686  0.708E-08  0.708E-08
 -15.676  0.611E-08  0.611E-08
 -15.666  0.518E-08  0.518E-08
 -15.656  0.428E-08  0.428E-08
 -15.646  0.341E-08  0.341E-08
 -15.636  0.256E-08  0.256E-08
 -15.626  0.174E-08  0.174E-08
 -15.616  0.948E-09  0.948E-09
 -15.606  0.173E-09  0.173E-09
 -15.596 -0.582E-09 -0.582E-09
 -15.586 -0.132E-08 -0.132E-08
 -15.576 -0.204E-08 -0.204E-08
 -15.566 -0.275E-08 -0.275E-08
 -15.556 -0.344E-08 -0.344E-08
 -15.546 -0.412E-08 -0.412E-08
 -15.536 -0.479E-08 -0.479E-08
 -15.526 -0.545E-08 -0.545E-08
 -15.516 -0.610E-08 -0.610E-08
 -15.506 -0.674E-08 -0.674E-08
 -15.496 -0.738E-08 -0.738E-08
 -15.486 -0.801E-08 -0.801E-08
 -15.476 -0.864E-08 -0.864E-08
 -15.466 -0.927E-08 -0.927E-08
 -15.456 -0.989E-08 -0.989E-08
 -15.446 -0.105E-07 -0.105E-07
 -15.436 -0.111E-07 -0.111E-07
 -15.426 -0.118E-07 -0.118E-07
 -15.416 -0.124E-07 -0.124E-07
 -15.406 -0.130E-07 -0.130E-07
 -15.396 -0.137E-07 -0.137E-07
 -15.386 -0.143E-07 -0.143E-07
 -15.376 -0.150E-07 -0.150E-07
 -15.366 -0.156E-07 -0.156E-07
 -15.356 -0.163E-07 -0.163E-07
 -15.346 -0.170E-07 -0.170E-07
 -15.336 -0.177E-07 -0.177E-07
 -15.326 -0.184E-07 -0.184E-07
 -15.316 -0.191E-07 -0.191E-07
 -15.306 -0.198E-07 -0.198E-07
 -15.296 -0.206E-07 -0.206E-07
 -15.286 -0.213E-07 -0.213E-07
 -15.276 -0.221E-07 -0.221E-07
 -15.266 -0.229E-07 -0.229E-07
 -15.256 -0.238E-07 -0.238E-07
 -15.246 -0.246E-07 -0.246E-07
 -15.236 -0.255E-07 -0.255E-07
 -15.226 -0.264E-07 -0.264E-07
 -15.216 -0.273E-07 -0.273E-07
 -15.206 -0.283E-07 -0.283E-07
 -15.196 -0.293E-07 -0.293E-07
 -15.186 -0.303E-07 -0.303E-07
 -15.176 -0.313E-07 -0.313E-07
 -15.166 -0.324E-07 -0.324E-07
 -15.156 -0.335E-07 -0.335E-07
 -15.146 -0.347E-07 -0.347E-07
 -15.136 -0.359E-07 -0.359E-07
 -15.126 -0.371E-07 -0.371E-07
 -15.116 -0.384E-07 -0.384E-07
 -15.106 -0.397E-07 -0.397E-07
 -15.096 -0.410E-07 -0.410E-07
 -15.086 -0.424E-07 -0.424E-07
 -15.076 -0.438E-07 -0.438E-07
 -15.066 -0.453E-07 -0.453E-07
 -15.056 -0.468E-07 -0.468E-07
 -15.046 -0.484E-07 -0.484E-07
 -15.036 -0.500E-07 -0.500E-07
 -15.026 -0.516E-07 -0.516E-07
 -15.016 -0.533E-07 -0.533E-07
 -15.006 -0.551E-07 -0.551E-07
 -14.996 -0.569E-07 -0.569E-07
 -14.986 -0.587E-07 -0.587E-07
 -14.976 -0.606E-07 -0.606E-07
 -14.966 -0.625E-07 -0.625E-07
 -14.956 -0.644E-07 -0.644E-07
 -14.946 -0.664E-07 -0.664E-07
 -14.936 -0.685E-07 -0.685E-07
 -14.926 -0.706E-07 -0.706E-07
 -14.916 -0.727E-07 -0.727E-07
 -14.906 -0.748E-07 -0.748E-07
 -14.896 -0.770E-07 -0.770E-07
 -14.886 -0.792E-07 -0.792E-07
 -14.876 -0.815E-07 -0.815E-07
 -14.866 -0.837E-07 -0.837E-07
 -14.856 -0.860E-07 -0.860E-07
 -14.846 -0.883E-07 -0.883E-07
 -14.836 -0.906E-07 -0.906E-07
 -14.826 -0.930E-07 -0.930E-07
 -14.816 -0.953E-07 -0.953E-07
 -14.806 -0.976E-07 -0.976E-07
 -14.796 -0.100E-06 -0.100E-06
 -14.786 -0.102E-06 -0.102E-06
 -14.776 -0.105E-06 -0.105E-06
 -14.766 -0.107E-06 -0.107E-06
 -14.756 -0.109E-06 -0.109E-06
 -14.746 -0.111E-06 -0.111E-06
 -14.736 -0.113E-06 -0.113E-06
 -14.726 -0.116E-06 -0.116E-06
 -14.716 -0.118E-06 -0.118E-06
 -14.706 -0.120E-06 -0.120E-06
 -14.696 -0.122E-06 -0.122E-06
 -14.686 -0.123E-06 -0.123E-06
 -14.676 -0.125E-06 -0.125E-06
 -14.666 -0.127E-06 -0.127E-06
 -14.656 -0.128E-06 -0.128E-06
 -14.646 -0.130E-06 -0.130E-06
 -14.636 -0.131E-06 -0.131E-06
 -14.626 -0.132E-06 -0.132E-06
 -14.616 -0.133E-06 -0.133E-06
 -14.606 -0.133E-06 -0.133E-06
 -14.596 -0.134E-06 -0.134E-06
 -14.586 -0.134E-06 -0.134E-06
 -14.576 -0.134E-06 -0.134E-06
 -14.566 -0.134E-06 -0.134E-06
 -14.556 -0.134E-06 -0.134E-06
 -14.546 -0.133E-06 -0.133E-06
 -14.536 -0.132E-06 -0.132E-06
 -14.526 -0.131E-06 -0.131E-06
 -14.516 -0.129E-06 -0.129E-06
 -14.506 -0.127E-06 -0.127E-06
 -14.496 -0.125E-06 -0.125E-06
 -14.486 -0.122E-06 -0.122E-06
 -14.476 -0.119E-06 -0.119E-06
 -14.466 -0.116E-06 -0.116E-06
 -14.456 -0.112E-06 -0.112E-06
 -14.446 -0.108E-06 -0.108E-06
 -14.436 -0.103E-06 -0.103E-06
 -14.426 -0.975E-07 -0.975E-07
 -14.416 -0.917E-07 -0.917E-07
 -14.406 -0.853E-07 -0.853E-07
 -14.396 -0.785E-07 -0.785E-07
 -14.386 -0.710E-07 -0.710E-07
 -14.376 -0.630E-07 -0.630E-07
 -14.366 -0.543E-07 -0.543E-07
 -14.356 -0.451E-07 -0.451E-07
 -14.346 -0.351E-07 -0.351E-07
 -14.336 -0.245E-07 -0.245E-07
 -14.326 -0.133E-07 -0.133E-07
 -14.316 -0.129E-08 -0.129E-08
 -14.306  0.114E-07  0.114E-07
 -14.296  0.249E-07  0.249E-07
 -14.286  0.391E-07  0.391E-07
 -14.276  0.541E-07  0.541E-07
 -14.266  0.699E-07  0.699E-07
 -14.256  0.865E-07  0.865E-07
 -14.246  0.104E-06  0.104E-06
 -14.236  0.122E-06  0.122E-06
 -14.226  0.141E-06  0.141E-06
 -14.216  0.162E-06  0.162E-06
 -14.206  0.182E-06  0.182E-06
 -14.196  0.204E-06  0.204E-06
 -14.186  0.227E-06  0.227E-06
 -14.176  0.251E-06  0.251E-06
 -14.166  0.276E-06  0.276E-06
 -14.156  0.301E-06  0.301E-06
 -14.146  0.328E-06  0.328E-06
 -14.136  0.355E-06  0.355E-06
 -14.126  0.384E-06  0.384E-06
 -14.116  0.413E-06  0.413E-06
 -14.106  0.444E-06  0.444E-06
 -14.096  0.475E-06  0.475E-06
 -14.086  0.508E-06  0.508E-06
 -14.076  0.541E-06  0.541E-06
 -14.066  0.576E-06  0.576E-06
 -14.056  0.611E-06  0.611E-06
 -14.046  0.648E-06  0.648E-06
 -14.036  0.685E-06  0.685E-06
 -14.026  0.724E-06  0.724E-06
 -14.016  0.763E-06  0.763E-06
 -14.006  0.804E-06  0.804E-06
 -13.996  0.845E-06  0.845E-06
 -13.986  0.887E-06  0.887E-06
 -13.976  0.930E-06  0.930E-06
 -13.966  0.974E-06  0.974E-06
 -13.956  0.102E-05  0.102E-05
 -13.946  0.107E-05  0.107E-05
 -13.936  0.111E-05  0.111E-05
 -13.926  0.116E-05  0.116E-05
 -13.916  0.121E-05  0.121E-05
 -13.906  0.126E-05  0.126E-05
 -13.896  0.131E-05  0.131E-05
 -13.886  0.136E-05  0.136E-05
 -13.876  0.141E-05  0.141E-05
 -13.866  0.146E-05  0.146E-05
 -13.856  0.151E-05  0.151E-05
 -13.846  0.157E-05  0.157E-05
 -13.836  0.162E-05  0.162E-05
 -13.826  0.167E-05  0.167E-05
 -13.816  0.173E-05  0.173E-05
 -13.806  0.178E-05  0.178E-05
 -13.796  0.184E-05  0.184E-05
 -13.786  0.189E-05  0.189E-05
 -13.776  0.195E-05  0.195E-05
 -13.766  0.201E-05  0.201E-05
 -13.756  0.206E-05  0.206E-05
 -13.746  0.212E-05  0.212E-05
 -13.736  0.218E-05  0.218E-05
 -13.726  0.223E-05  0.223E-05
 -13.716  0.229E-05  0.229E-05
 -13.706  0.235E-05  0.235E-05
 -13.696  0.240E-05  0.240E-05
 -13.686  0.246E-05  0.246E-05
 -13.676  0.252E-05  0.252E-05
 -13.666  0.257E-05  0.257E-05
 -13.656  0.263E-05  0.263E-05
 -13.646  0.268E-05  0.268E-05
 -13.636  0.274E-05  0.274E-05
 -13.626  0.279E-05  0.279E-05
 -13.616  0.284E-05  0.284E-05
 -13.606  0.290E-05  0.290E-05
 -13.596  0.295E-05  0.295E-05
 -13.586  0.300E-05  0.300E-05
 -13.576  0.305E-05  0.305E-05
 -13.566  0.310E-05  0.310E-05
 -13.556  0.315E-05  0.315E-05
 -13.546  0.320E-05  0.320E-05
 -13.536  0.325E-05  0.325E-05
 -13.526  0.330E-05  0.330E-05
 -13.516  0.334E-05  0.334E-05
 -13.506  0.339E-05  0.339E-05
 -13.496  0.343E-05  0.343E-05
 -13.486  0.347E-05  0.347E-05
 -13.476  0.351E-05  0.351E-05
 -13.466  0.355E-05  0.355E-05
 -13.456  0.359E-05  0.359E-05
 -13.446  0.363E-05  0.363E-05
 -13.436  0.366E-05  0.366E-05
 -13.426  0.369E-05  0.369E-05
 -13.416  0.373E-05  0.373E-05
 -13.406  0.376E-05  0.376E-05
 -13.396  0.379E-05  0.379E-05
 -13.386  0.381E-05  0.381E-05
 -13.376  0.384E-05  0.384E-05
 -13.366  0.386E-05  0.386E-05
 -13.356  0.389E-05  0.389E-05
 -13.346  0.391E-05  0.391E-05
 -13.336  0.393E-05  0.393E-05
 -13.326  0.394E-05  0.394E-05
 -13.316  0.396E-05  0.396E-05
 -13.306  0.397E-05  0.397E-05
 -13.296  0.398E-05  0.398E-05
 -13.286  0.399E-05  0.399E-05
 -13.276  0.400E-05  0.400E-05
 -13.266  0.401E-05  0.401E-05
 -13.256  0.401E-05  0.401E-05
 -13.246  0.401E-05  0.401E-05
 -13.236  0.402E-05  0.402E-05
 -13.226  0.401E-05  0.401E-05
 -13.216  0.401E-05  0.401E-05
 -13.206  0.401E-05  0.401E-05
 -13.196  0.400E-05  0.400E-05
 -13.186  0.399E-05  0.399E-05
 -13.176  0.398E-05  0.398E-05
 -13.166  0.397E-05  0.397E-05
 -13.156  0.395E-05  0.395E-05
 -13.146  0.394E-05  0.394E-05
 -13.136  0.392E-05  0.392E-05
 -13.126  0.390E-05  0.390E-05
 -13.116  0.388E-05  0.388E-05
 -13.106  0.385E-05  0.385E-05
 -13.096  0.383E-05  0.383E-05
 -13.086  0.380E-05  0.380E-05
 -13.076  0.377E-05  0.377E-05
 -13.066  0.375E-05  0.375E-05
 -13.056  0.371E-05  0.371E-05
 -13.046  0.368E-05  0.368E-05
 -13.036  0.365E-05  0.365E-05
 -13.026  0.361E-05  0.361E-05
 -13.016  0.357E-05  0.357E-05
 -13.006  0.353E-05  0.353E-05
 -12.996  0.349E-05  0.349E-05
 -12.986  0.345E-05  0.345E-05
 -12.976  0.341E-05  0.341E-05
 -12.966  0.336E-05  0.336E-05
 -12.956  0.332E-05  0.332E-05
 -12.946  0.327E-05  0.327E-05
 -12.936  0.322E-05  0.322E-05
 -12.926  0.318E-05  0.318E-05
 -12.916  0.313E-05  0.313E-05
 -12.906  0.307E-05  0.307E-05
 -12.896  0.302E-05  0.302E-05
 -12.886  0.297E-05  0.297E-05
 -12.876  0.292E-05  0.292E-05
 -12.866  0.286E-05  0.286E-05
 -12.856  0.281E-05  0.281E-05
 -12.846  0.275E-05  0.275E-05
 -12.836  0.269E-05  0.269E-05
 -12.826  0.264E-05  0.264E-05
 -12.816  0.258E-05  0.258E-05
 -12.806  0.252E-05  0.252E-05
 -12.796  0.246E-05  0.246E-05
 -12.786  0.240E-05  0.240E-05
 -12.776  0.235E-05  0.235E-05
 -12.766  0.229E-05  0.229E-05
 -12.756  0.223E-05  0.223E-05
 -12.746  0.217E-05  0.217E-05
 -12.736  0.211E-05  0.211E-05
 -12.726  0.205E-05  0.205E-05
 -12.716  0.199E-05  0.199E-05
 -12.706  0.192E-05  0.192E-05
 -12.696  0.186E-05  0.186E-05
 -12.686  0.180E-05  0.180E-05
 -12.676  0.174E-05  0.174E-05
 -12.666  0.168E-05  0.168E-05
 -12.656  0.162E-05  0.162E-05
 -12.646  0.157E-05  0.157E-05
 -12.636  0.151E-05  0.151E-05
 -12.626  0.145E-05  0.145E-05
 -12.616  0.139E-05  0.139E-05
 -12.606  0.133E-05  0.133E-05
 -12.596  0.127E-05  0.127E-05
 -12.586  0.122E-05  0.122E-05
 -12.576  0.116E-05  0.116E-05
 -12.566  0.110E-05  0.110E-05
 -12.556  0.105E-05  0.105E-05
 -12.546  0.994E-06  0.994E-06
 -12.536  0.940E-06  0.940E-06
 -12.526  0.887E-06  0.887E-06
 -12.516  0.835E-06  0.835E-06
 -12.506  0.783E-06  0.783E-06
 -12.496  0.732E-06  0.732E-06
 -12.486  0.682E-06  0.682E-06
 -12.476  0.633E-06  0.633E-06
 -12.466  0.585E-06  0.585E-06
 -12.456  0.537E-06  0.537E-06
 -12.446  0.491E-06  0.491E-06
 -12.436  0.446E-06  0.446E-06
 -12.426  0.401E-06  0.401E-06
 -12.416  0.358E-06  0.358E-06
 -12.406  0.316E-06  0.316E-06
 -12.396  0.275E-06  0.275E-06
 -12.386  0.235E-06  0.235E-06
 -12.376  0.196E-06  0.196E-06
 -12.366  0.158E-06  0.158E-06
 -12.356  0.121E-06  0.121E-06
 -12.346  0.857E-07  0.857E-07
 -12.336  0.514E-07  0.514E-07
 -12.326  0.184E-07  0.184E-07
 -12.316 -0.134E-07 -0.134E-07
 -12.306 -0.439E-07 -0.439E-07
 -12.296 -0.731E-07 -0.731E-07
 -12.286 -0.101E-06 -0.101E-06
 -12.276 -0.127E-06 -0.127E-06
 -12.266 -0.153E-06 -0.153E-06
 -12.256 -0.177E-06 -0.177E-06
 -12.246 -0.199E-06 -0.199E-06
 -12.236 -0.220E-06 -0.220E-06
 -12.226 -0.240E-06 -0.240E-06
 -12.216 -0.258E-06 -0.258E-06
 -12.206 -0.274E-06 -0.274E-06
 -12.196 -0.290E-06 -0.290E-06
 -12.186 -0.303E-06 -0.303E-06
 -12.176 -0.315E-06 -0.315E-06
 -12.166 -0.326E-06 -0.326E-06
 -12.156 -0.335E-06 -0.335E-06
 -12.146 -0.343E-06 -0.343E-06
 -12.136 -0.348E-06 -0.348E-06
 -12.126 -0.353E-06 -0.353E-06
 -12.116 -0.355E-06 -0.355E-06
 -12.106 -0.356E-06 -0.356E-06
 -12.096 -0.356E-06 -0.356E-06
 -12.086 -0.353E-06 -0.353E-06
 -12.076 -0.349E-06 -0.349E-06
 -12.066 -0.343E-06 -0.343E-06
 -12.056 -0.336E-06 -0.336E-06
 -12.046 -0.326E-06 -0.326E-06
 -12.036 -0.315E-06 -0.315E-06
 -12.026 -0.302E-06 -0.302E-06
 -12.016 -0.288E-06 -0.288E-06
 -12.006 -0.271E-06 -0.271E-06
 -11.996 -0.253E-06 -0.253E-06
 -11.986 -0.233E-06 -0.233E-06
 -11.976 -0.211E-06 -0.211E-06
 -11.966 -0.187E-06 -0.187E-06
 -11.956 -0.162E-06 -0.162E-06
 -11.946 -0.134E-06 -0.134E-06
 -11.936 -0.105E-06 -0.105E-06
 -11.926 -0.737E-07 -0.737E-07
 -11.916 -0.407E-07 -0.407E-07
 -11.906 -0.590E-08 -0.590E-08
 -11.896  0.307E-07  0.307E-07
 -11.886  0.692E-07  0.692E-07
 -11.876  0.109E-06  0.109E-06
 -11.866  0.151E-06  0.151E-06
 -11.856  0.195E-06  0.195E-06
 -11.846  0.241E-06  0.241E-06
 -11.836  0.288E-06  0.288E-06
 -11.826  0.337E-06  0.337E-06
 -11.816  0.387E-06  0.387E-06
 -11.806  0.440E-06  0.440E-06
 -11.796  0.493E-06  0.493E-06
 -11.786  0.549E-06  0.549E-06
 -11.776  0.605E-06  0.605E-06
 -11.766  0.663E-06  0.663E-06
 -11.756  0.723E-06  0.723E-06
 -11.746  0.784E-06  0.784E-06
 -11.736  0.845E-06  0.845E-06
 -11.726  0.909E-06  0.909E-06
 -11.716  0.973E-06  0.973E-06
 -11.706  0.104E-05  0.104E-05
 -11.696  0.110E-05  0.110E-05
 -11.686  0.117E-05  0.117E-05
 -11.676  0.124E-05  0.124E-05
 -11.666  0.131E-05  0.131E-05
 -11.656  0.137E-05  0.137E-05
 -11.646  0.144E-05  0.144E-05
 -11.636  0.151E-05  0.151E-05
 -11.626  0.158E-05  0.158E-05
 -11.616  0.165E-05  0.165E-05
 -11.606  0.171E-05  0.171E-05
 -11.596  0.178E-05  0.178E-05
 -11.586  0.185E-05  0.185E-05
 -11.576  0.191E-05  0.191E-05
 -11.566  0.198E-05  0.198E-05
 -11.556  0.204E-05  0.204E-05
 -11.546  0.210E-05  0.210E-05
 -11.536  0.216E-05  0.216E-05
 -11.526  0.222E-05  0.222E-05
 -11.516  0.227E-05  0.227E-05
 -11.506  0.232E-05  0.232E-05
 -11.496  0.237E-05  0.237E-05
 -11.486  0.241E-05  0.241E-05
 -11.476  0.245E-05  0.245E-05
 -11.466  0.249E-05  0.249E-05
 -11.456  0.252E-05  0.252E-05
 -11.446  0.254E-05  0.254E-05
 -11.436  0.256E-05  0.256E-05
 -11.426  0.257E-05  0.257E-05
 -11.416  0.258E-05  0.258E-05
 -11.406  0.257E-05  0.257E-05
 -11.396  0.256E-05  0.256E-05
 -11.386  0.254E-05  0.254E-05
 -11.376  0.251E-05  0.251E-05
 -11.366  0.247E-05  0.247E-05
 -11.356  0.242E-05  0.242E-05
 -11.346  0.236E-05  0.236E-05
 -11.336  0.228E-05  0.228E-05
 -11.326  0.219E-05  0.219E-05
 -11.316  0.208E-05  0.208E-05
 -11.306  0.195E-05  0.195E-05
 -11.296  0.181E-05  0.181E-05
 -11.286  0.165E-05  0.165E-05
 -11.276  0.147E-05  0.147E-05
 -11.266  0.126E-05  0.126E-05
 -11.256  0.103E-05  0.103E-05
 -11.246  0.776E-06  0.776E-06
 -11.236  0.493E-06  0.493E-06
 -11.226  0.180E-06  0.180E-06
 -11.216 -0.164E-06 -0.164E-06
 -11.206 -0.543E-06 -0.543E-06
 -11.196 -0.958E-06 -0.958E-06
 -11.186 -0.141E-05 -0.141E-05
 -11.176 -0.191E-05 -0.191E-05
 -11.166 -0.245E-05 -0.245E-05
 -11.156 -0.304E-05 -0.304E-05
 -11.146 -0.368E-05 -0.368E-05
 -11.136 -0.437E-05 -0.437E-05
 -11.126 -0.512E-05 -0.512E-05
 -11.116 -0.594E-05 -0.594E-05
 -11.106 -0.682E-05 -0.682E-05
 -11.096 -0.777E-05 -0.777E-05
 -11.086 -0.880E-05 -0.880E-05
 -11.076 -0.990E-05 -0.990E-05
 -11.066 -0.111E-04 -0.111E-04
 -11.056 -0.124E-04 -0.124E-04
 -11.046 -0.138E-04 -0.138E-04
 -11.036 -0.152E-04 -0.152E-04
 -11.026 -0.168E-04 -0.168E-04
 -11.016 -0.185E-04 -0.185E-04
 -11.006 -0.204E-04 -0.204E-04
 -10.996 -0.223E-04 -0.223E-04
 -10.986 -0.244E-04 -0.244E-04
 -10.976 -0.267E-04 -0.267E-04
 -10.966 -0.291E-04 -0.291E-04
 -10.956 -0.316E-04 -0.316E-04
 -10.946 -0.344E-04 -0.344E-04
 -10.936 -0.373E-04 -0.373E-04
 -10.926 -0.404E-04 -0.404E-04
 -10.916 -0.437E-04 -0.437E-04
 -10.906 -0.473E-04 -0.473E-04
 -10.896 -0.510E-04 -0.510E-04
 -10.886 -0.550E-04 -0.550E-04
 -10.876 -0.593E-04 -0.593E-04
 -10.866 -0.638E-04 -0.638E-04
 -10.856 -0.686E-04 -0.686E-04
 -10.846 -0.737E-04 -0.737E-04
 -10.836 -0.791E-04 -0.791E-04
 -10.826 -0.848E-04 -0.848E-04
 -10.816 -0.909E-04 -0.909E-04
 -10.806 -0.973E-04 -0.973E-04
 -10.796 -0.104E-03 -0.104E-03
 -10.786 -0.111E-03 -0.111E-03
 -10.776 -0.119E-03 -0.119E-03
 -10.766 -0.127E-03 -0.127E-03
 -10.756 -0.135E-03 -0.135E-03
 -10.746 -0.144E-03 -0.144E-03
 -10.736 -0.154E-03 -0.154E-03
 -10.726 -0.164E-03 -0.164E-03
 -10.716 -0.174E-03 -0.174E-03
 -10.706 -0.185E-03 -0.185E-03
 -10.696 -0.197E-03 -0.197E-03
 -10.686 -0.209E-03 -0.209E-03
 -10.676 -0.221E-03 -0.221E-03
 -10.666 -0.235E-03 -0.235E-03
 -10.656 -0.249E-03 -0.249E-03
 -10.646 -0.264E-03 -0.264E-03
 -10.636 -0.279E-03 -0.279E-03
 -10.626 -0.295E-03 -0.295E-03
 -10.616 -0.312E-03 -0.312E-03
 -10.606 -0.329E-03 -0.329E-03
 -10.596 -0.348E-03 -0.348E-03
 -10.586 -0.367E-03 -0.367E-03
 -10.576 -0.387E-03 -0.387E-03
 -10.566 -0.408E-03 -0.408E-03
 -10.556 -0.430E-03 -0.430E-03
 -10.546 -0.452E-03 -0.452E-03
 -10.536 -0.476E-03 -0.476E-03
 -10.526 -0.500E-03 -0.500E-03
 -10.516 -0.526E-03 -0.526E-03
 -10.506 -0.552E-03 -0.552E-03
 -10.496 -0.579E-03 -0.579E-03
 -10.486 -0.607E-03 -0.607E-03
 -10.476 -0.636E-03 -0.636E-03
 -10.466 -0.667E-03 -0.667E-03
 -10.456 -0.698E-03 -0.698E-03
 -10.446 -0.730E-03 -0.730E-03
 -10.436 -0.763E-03 -0.763E-03
 -10.426 -0.797E-03 -0.797E-03
 -10.416 -0.832E-03 -0.832E-03
 -10.406 -0.868E-03 -0.868E-03
 -10.396 -0.906E-03 -0.906E-03
 -10.386 -0.944E-03 -0.944E-03
 -10.376 -0.982E-03 -0.982E-03
 -10.366 -0.102E-02 -0.102E-02
 -10.356 -0.106E-02 -0.106E-02
 -10.346 -0.110E-02 -0.110E-02
 -10.336 -0.115E-02 -0.115E-02
 -10.326 -0.119E-02 -0.119E-02
 -10.316 -0.123E-02 -0.123E-02
 -10.306 -0.128E-02 -0.128E-02
 -10.296 -0.132E-02 -0.132E-02
 -10.286 -0.137E-02 -0.137E-02
 -10.276 -0.142E-02 -0.142E-02
 -10.266 -0.146E-02 -0.146E-02
 -10.256 -0.151E-02 -0.151E-02
 -10.246 -0.156E-02 -0.156E-02
 -10.236 -0.160E-02 -0.160E-02
 -10.226 -0.165E-02 -0.165E-02
 -10.216 -0.170E-02 -0.170E-02
 -10.206 -0.175E-02 -0.175E-02
 -10.196 -0.179E-02 -0.179E-02
 -10.186 -0.184E-02 -0.184E-02
 -10.176 -0.189E-02 -0.189E-02
 -10.166 -0.193E-02 -0.193E-02
 -10.156 -0.197E-02 -0.197E-02
 -10.146 -0.202E-02 -0.202E-02
 -10.136 -0.206E-02 -0.206E-02
 -10.126 -0.210E-02 -0.210E-02
 -10.116 -0.214E-02 -0.214E-02
 -10.106 -0.218E-02 -0.218E-02
 -10.096 -0.221E-02 -0.221E-02
 -10.086 -0.225E-02 -0.225E-02
 -10.076 -0.228E-02 -0.228E-02
 -10.066 -0.230E-02 -0.230E-02
 -10.056 -0.233E-02 -0.233E-02
 -10.046 -0.235E-02 -0.235E-02
 -10.036 -0.237E-02 -0.237E-02
 -10.026 -0.238E-02 -0.238E-02
 -10.016 -0.239E-02 -0.239E-02
 -10.006 -0.240E-02 -0.240E-02
  -9.996 -0.240E-02 -0.240E-02
  -9.986 -0.240E-02 -0.240E-02
  -9.976 -0.239E-02 -0.239E-02
  -9.966 -0.238E-02 -0.238E-02
  -9.956 -0.236E-02 -0.236E-02
  -9.946 -0.233E-02 -0.233E-02
  -9.936 -0.230E-02 -0.230E-02
  -9.926 -0.227E-02 -0.227E-02
  -9.916 -0.222E-02 -0.222E-02
  -9.906 -0.217E-02 -0.217E-02
  -9.896 -0.211E-02 -0.211E-02
  -9.886 -0.204E-02 -0.204E-02
  -9.876 -0.196E-02 -0.196E-02
  -9.866 -0.188E-02 -0.188E-02
  -9.856 -0.178E-02 -0.178E-02
  -9.846 -0.168E-02 -0.168E-02
  -9.836 -0.156E-02 -0.156E-02
  -9.826 -0.144E-02 -0.144E-02
  -9.816 -0.131E-02 -0.131E-02
  -9.806 -0.116E-02 -0.116E-02
  -9.796 -0.100E-02 -0.100E-02
  -9.786 -0.837E-03 -0.837E-03
  -9.776 -0.658E-03 -0.658E-03
  -9.766 -0.467E-03 -0.467E-03
  -9.756 -0.264E-03 -0.264E-03
  -9.746 -0.487E-04 -0.487E-04
  -9.736  0.180E-03  0.180E-03
  -9.726  0.421E-03  0.421E-03
  -9.716  0.676E-03  0.676E-03
  -9.706  0.944E-03  0.944E-03
  -9.696  0.123E-02  0.123E-02
  -9.686  0.152E-02  0.152E-02
  -9.676  0.183E-02  0.183E-02
  -9.666  0.216E-02  0.216E-02
  -9.656  0.249E-02  0.249E-02
  -9.646  0.285E-02  0.285E-02
  -9.636  0.321E-02  0.321E-02
  -9.626  0.360E-02  0.360E-02
  -9.616  0.399E-02  0.399E-02
  -9.606  0.441E-02  0.441E-02
  -9.596  0.483E-02  0.483E-02
  -9.586  0.527E-02  0.527E-02
  -9.576  0.573E-02  0.573E-02
  -9.566  0.620E-02  0.620E-02
  -9.556  0.668E-02  0.668E-02
  -9.546  0.718E-02  0.718E-02
  -9.536  0.770E-02  0.770E-02
  -9.526  0.822E-02  0.822E-02
  -9.516  0.876E-02  0.876E-02
  -9.506  0.932E-02  0.932E-02
  -9.496  0.989E-02  0.989E-02
  -9.486  0.105E-01  0.105E-01
  -9.476  0.111E-01  0.111E-01
  -9.466  0.117E-01  0.117E-01
  -9.456  0.123E-01  0.123E-01
  -9.446  0.129E-01  0.129E-01
  -9.436  0.136E-01  0.136E-01
  -9.426  0.142E-01  0.142E-01
  -9.416  0.149E-01  0.149E-01
  -9.406  0.156E-01  0.156E-01
  -9.396  0.162E-01  0.162E-01
  -9.386  0.169E-01  0.169E-01
  -9.376  0.176E-01  0.176E-01
  -9.366  0.183E-01  0.183E-01
  -9.356  0.190E-01  0.190E-01
  -9.346  0.198E-01  0.198E-01
  -9.336  0.205E-01  0.205E-01
  -9.326  0.212E-01  0.212E-01
  -9.316  0.220E-01  0.220E-01
  -9.306  0.227E-01  0.227E-01
  -9.296  0.235E-01  0.235E-01
  -9.286  0.242E-01  0.242E-01
  -9.276  0.250E-01  0.250E-01
  -9.266  0.257E-01  0.257E-01
  -9.256  0.265E-01  0.265E-01
  -9.246  0.272E-01  0.272E-01
  -9.236  0.280E-01  0.280E-01
  -9.226  0.287E-01  0.287E-01
  -9.216  0.294E-01  0.294E-01
  -9.206  0.302E-01  0.302E-01
  -9.196  0.309E-01  0.309E-01
  -9.186  0.317E-01  0.317E-01
  -9.176  0.324E-01  0.324E-01
  -9.166  0.331E-01  0.331E-01
  -9.156  0.338E-01  0.338E-01
  -9.146  0.345E-01  0.345E-01
  -9.136  0.352E-01  0.352E-01
  -9.126  0.359E-01  0.359E-01
  -9.116  0.366E-01  0.366E-01
  -9.106  0.373E-01  0.373E-01
  -9.096  0.380E-01  0.380E-01
  -9.086  0.386E-01  0.386E-01
  -9.076  0.393E-01  0.393E-01
  -9.066  0.399E-01  0.399E-01
  -9.056  0.405E-01  0.405E-01
  -9.046  0.411E-01  0.411E-01
  -9.036  0.417E-01  0.417E-01
  -9.026  0.423E-01  0.423E-01
  -9.016  0.429E-01  0.429E-01
  -9.006  0.434E-01  0.434E-01
  -8.996  0.439E-01  0.439E-01
  -8.986  0.445E-01  0.445E-01
  -8.976  0.450E-01  0.450E-01
  -8.966  0.455E-01  0.455E-01
  -8.956  0.459E-01  0.459E-01
  -8.946  0.464E-01  0.464E-01
  -8.936  0.468E-01  0.468E-01
  -8.926  0.473E-01  0.473E-01
  -8.916  0.477E-01  0.477E-01
  -8.906  0.481E-01  0.481E-01
  -8.896  0.484E-01  0.484E-01
  -8.886  0.488E-01  0.488E-01
  -8.876  0.491E-01  0.491E-01
  -8.866  0.495E-01  0.495E-01
  -8.856  0.498E-01  0.498E-01
  -8.846  0.501E-01  0.501E-01
  -8.836  0.503E-01  0.503E-01
  -8.826  0.506E-01  0.506E-01
  -8.816  0.509E-01  0.509E-01
  -8.806  0.511E-01  0.511E-01
  -8.796  0.513E-01  0.513E-01
  -8.786  0.515E-01  0.515E-01
  -8.776  0.517E-01  0.517E-01
  -8.766  0.519E-01  0.519E-01
  -8.756  0.520E-01  0.520E-01
  -8.746  0.521E-01  0.521E-01
  -8.736  0.523E-01  0.523E-01
  -8.726  0.524E-01  0.524E-01
  -8.716  0.525E-01  0.525E-01
  -8.706  0.526E-01  0.526E-01
  -8.696  0.526E-01  0.526E-01
  -8.686  0.527E-01  0.527E-01
  -8.676  0.528E-01  0.528E-01
  -8.666  0.528E-01  0.528E-01
  -8.656  0.528E-01  0.528E-01
  -8.646  0.528E-01  0.528E-01
  -8.636  0.528E-01  0.528E-01
  -8.626  0.528E-01  0.528E-01
  -8.616  0.528E-01  0.528E-01
  -8.606  0.528E-01  0.528E-01
  -8.596  0.528E-01  0.528E-01
  -8.586  0.527E-01  0.527E-01
  -8.576  0.527E-01  0.527E-01
  -8.566  0.526E-01  0.526E-01
  -8.556  0.526E-01  0.526E-01
  -8.546  0.525E-01  0.525E-01
  -8.536  0.524E-01  0.524E-01
  -8.526  0.524E-01  0.524E-01
  -8.516  0.523E-01  0.523E-01
  -8.506  0.522E-01  0.522E-01
  -8.496  0.521E-01  0.521E-01
  -8.486  0.520E-01  0.520E-01
  -8.476  0.519E-01  0.519E-01
  -8.466  0.519E-01  0.519E-01
  -8.456  0.518E-01  0.518E-01
  -8.446  0.517E-01  0.517E-01
  -8.436  0.516E-01  0.516E-01
  -8.426  0.515E-01  0.515E-01
  -8.416  0.514E-01  0.514E-01
  -8.406  0.513E-01  0.513E-01
  -8.396  0.512E-01  0.512E-01
  -8.386  0.512E-01  0.512E-01
  -8.376  0.511E-01  0.511E-01
  -8.366  0.510E-01  0.510E-01
  -8.356  0.509E-01  0.509E-01
  -8.346  0.509E-01  0.509E-01
  -8.336  0.508E-01  0.508E-01
  -8.326  0.508E-01  0.508E-01
  -8.316  0.508E-01  0.508E-01
  -8.306  0.508E-01  0.508E-01
  -8.296  0.508E-01  0.508E-01
  -8.286  0.508E-01  0.508E-01
  -8.276  0.508E-01  0.508E-01
  -8.266  0.508E-01  0.508E-01
  -8.256  0.509E-01  0.509E-01
  -8.246  0.509E-01  0.509E-01
  -8.236  0.510E-01  0.510E-01
  -8.226  0.511E-01  0.511E-01
  -8.216  0.513E-01  0.513E-01
  -8.206  0.514E-01  0.514E-01
  -8.196  0.516E-01  0.516E-01
  -8.186  0.518E-01  0.518E-01
  -8.176  0.520E-01  0.520E-01
  -8.166  0.522E-01  0.522E-01
  -8.156  0.525E-01  0.525E-01
  -8.146  0.528E-01  0.528E-01
  -8.136  0.531E-01  0.531E-01
  -8.126  0.535E-01  0.535E-01
  -8.116  0.539E-01  0.539E-01
  -8.106  0.543E-01  0.543E-01
  -8.096  0.547E-01  0.547E-01
  -8.086  0.552E-01  0.552E-01
  -8.076  0.557E-01  0.557E-01
  -8.066  0.563E-01  0.563E-01
  -8.056  0.569E-01  0.569E-01
  -8.046  0.576E-01  0.576E-01
  -8.036  0.582E-01  0.582E-01
  -8.026  0.590E-01  0.590E-01
  -8.016  0.597E-01  0.597E-01
  -8.006  0.605E-01  0.605E-01
  -7.996  0.614E-01  0.614E-01
  -7.986  0.623E-01  0.623E-01
  -7.976  0.633E-01  0.633E-01
  -7.966  0.643E-01  0.643E-01
  -7.956  0.653E-01  0.653E-01
  -7.946  0.664E-01  0.664E-01
  -7.936  0.676E-01  0.676E-01
  -7.926  0.688E-01  0.688E-01
  -7.916  0.700E-01  0.700E-01
  -7.906  0.713E-01  0.713E-01
  -7.896  0.727E-01  0.727E-01
  -7.886  0.741E-01  0.741E-01
  -7.876  0.756E-01  0.756E-01
  -7.866  0.771E-01  0.771E-01
  -7.856  0.786E-01  0.786E-01
  -7.846  0.803E-01  0.803E-01
  -7.836  0.819E-01  0.819E-01
  -7.826  0.837E-01  0.837E-01
  -7.816  0.855E-01  0.855E-01
  -7.806  0.873E-01  0.873E-01
  -7.796  0.892E-01  0.892E-01
  -7.786  0.911E-01  0.911E-01
  -7.776  0.931E-01  0.931E-01
  -7.766  0.952E-01  0.952E-01
  -7.756  0.972E-01  0.972E-01
  -7.746  0.994E-01  0.994E-01
  -7.736  0.102E+00  0.102E+00
  -7.726  0.104E+00  0.104E+00
  -7.716  0.106E+00  0.106E+00
  -7.706  0.108E+00  0.108E+00
  -7.696  0.111E+00  0.111E+00
  -7.686  0.113E+00  0.113E+00
  -7.676  0.116E+00  0.116E+00
  -7.666  0.118E+00  0.118E+00
  -7.656  0.120E+00  0.120E+00
  -7.646  0.123E+00  0.123E+00
  -7.636  0.126E+00  0.126E+00
  -7.626  0.128E+00  0.128E+00
  -7.616  0.131E+00  0.131E+00
  -7.606  0.133E+00  0.133E+00
  -7.596  0.136E+00  0.136E+00
  -7.586  0.139E+00  0.139E+00
  -7.576  0.141E+00  0.141E+00
  -7.566  0.144E+00  0.144E+00
  -7.556  0.147E+00  0.147E+00
  -7.546  0.149E+00  0.149E+00
  -7.536  0.152E+00  0.152E+00
  -7.526  0.155E+00  0.155E+00
  -7.516  0.157E+00  0.157E+00
  -7.506  0.160E+00  0.160E+00
  -7.496  0.163E+00  0.163E+00
  -7.486  0.165E+00  0.165E+00
  -7.476  0.168E+00  0.168E+00
  -7.466  0.170E+00  0.170E+00
  -7.456  0.173E+00  0.173E+00
  -7.446  0.175E+00  0.175E+00
  -7.436  0.178E+00  0.178E+00
  -7.426  0.180E+00  0.180E+00
  -7.416  0.182E+00  0.182E+00
  -7.406  0.185E+00  0.185E+00
  -7.396  0.187E+00  0.187E+00
  -7.386  0.189E+00  0.189E+00
  -7.376  0.191E+00  0.191E+00
  -7.366  0.193E+00  0.193E+00
  -7.356  0.195E+00  0.195E+00
  -7.346  0.197E+00  0.197E+00
  -7.336  0.199E+00  0.199E+00
  -7.326  0.201E+00  0.201E+00
  -7.316  0.203E+00  0.203E+00
  -7.306  0.204E+00  0.204E+00
  -7.296  0.206E+00  0.206E+00
  -7.286  0.207E+00  0.207E+00
  -7.276  0.208E+00  0.208E+00
  -7.266  0.210E+00  0.210E+00
  -7.256  0.211E+00  0.211E+00
  -7.246  0.212E+00  0.212E+00
  -7.236  0.213E+00  0.213E+00
  -7.226  0.214E+00  0.214E+00
  -7.216  0.214E+00  0.214E+00
  -7.206  0.215E+00  0.215E+00
  -7.196  0.215E+00  0.215E+00
  -7.186  0.216E+00  0.216E+00
  -7.176  0.216E+00  0.216E+00
  -7.166  0.216E+00  0.216E+00
  -7.156  0.216E+00  0.216E+00
  -7.146  0.216E+00  0.216E+00
  -7.136  0.216E+00  0.216E+00
  -7.126  0.215E+00  0.215E+00
  -7.116  0.215E+00  0.215E+00
  -7.106  0.214E+00  0.214E+00
  -7.096  0.213E+00  0.213E+00
  -7.086  0.213E+00  0.213E+00
  -7.076  0.212E+00  0.212E+00
  -7.066  0.211E+00  0.211E+00
  -7.056  0.209E+00  0.209E+00
  -7.046  0.208E+00  0.208E+00
  -7.036  0.207E+00  0.207E+00
  -7.026  0.205E+00  0.205E+00
  -7.016  0.203E+00  0.203E+00
  -7.006  0.202E+00  0.202E+00
  -6.996  0.200E+00  0.200E+00
  -6.986  0.198E+00  0.198E+00
  -6.976  0.196E+00  0.196E+00
  -6.966  0.193E+00  0.193E+00
  -6.956  0.191E+00  0.191E+00
  -6.946  0.189E+00  0.189E+00
  -6.936  0.186E+00  0.186E+00
  -6.926  0.184E+00  0.184E+00
  -6.916  0.181E+00  0.181E+00
  -6.906  0.178E+00  0.178E+00
  -6.896  0.175E+00  0.175E+00
  -6.886  0.172E+00  0.172E+00
  -6.876  0.169E+00  0.169E+00
  -6.866  0.166E+00  0.166E+00
  -6.856  0.163E+00  0.163E+00
  -6.846  0.160E+00  0.160E+00
  -6.836  0.157E+00  0.157E+00
  -6.826  0.153E+00  0.153E+00
  -6.816  0.150E+00  0.150E+00
  -6.806  0.147E+00  0.147E+00
  -6.796  0.143E+00  0.143E+00
  -6.786  0.140E+00  0.140E+00
  -6.776  0.136E+00  0.136E+00
  -6.766  0.133E+00  0.133E+00
  -6.756  0.129E+00  0.129E+00
  -6.746  0.126E+00  0.126E+00
  -6.736  0.122E+00  0.122E+00
  -6.726  0.118E+00  0.118E+00
  -6.716  0.115E+00  0.115E+00
  -6.706  0.111E+00  0.111E+00
  -6.696  0.108E+00  0.108E+00
  -6.686  0.104E+00  0.104E+00
  -6.676  0.101E+00  0.101E+00
  -6.666  0.971E-01  0.971E-01
  -6.656  0.936E-01  0.936E-01
  -6.646  0.901E-01  0.901E-01
  -6.636  0.867E-01  0.867E-01
  -6.626  0.833E-01  0.833E-01
  -6.616  0.799E-01  0.799E-01
  -6.606  0.766E-01  0.766E-01
  -6.596  0.734E-01  0.734E-01
  -6.586  0.702E-01  0.702E-01
  -6.576  0.671E-01  0.671E-01
  -6.566  0.640E-01  0.640E-01
  -6.556  0.610E-01  0.610E-01
  -6.546  0.581E-01  0.581E-01
  -6.536  0.552E-01  0.552E-01
  -6.526  0.525E-01  0.525E-01
  -6.516  0.498E-01  0.498E-01
  -6.506  0.472E-01  0.472E-01
  -6.496  0.447E-01  0.447E-01
  -6.486  0.423E-01  0.423E-01
  -6.476  0.400E-01  0.400E-01
  -6.466  0.378E-01  0.378E-01
  -6.456  0.357E-01  0.357E-01
  -6.446  0.338E-01  0.338E-01
  -6.436  0.319E-01  0.319E-01
  -6.426  0.301E-01  0.301E-01
  -6.416  0.285E-01  0.285E-01
  -6.406  0.270E-01  0.270E-01
  -6.396  0.256E-01  0.256E-01
  -6.386  0.243E-01  0.243E-01
  -6.376  0.232E-01  0.232E-01
  -6.366  0.221E-01  0.221E-01
  -6.356  0.213E-01  0.213E-01
  -6.346  0.205E-01  0.205E-01
  -6.336  0.199E-01  0.199E-01
  -6.326  0.194E-01  0.194E-01
  -6.316  0.190E-01  0.190E-01
  -6.306  0.188E-01  0.188E-01
  -6.296  0.188E-01  0.188E-01
  -6.286  0.188E-01  0.188E-01
  -6.276  0.190E-01  0.190E-01
  -6.266  0.194E-01  0.194E-01
  -6.256  0.199E-01  0.199E-01
  -6.246  0.205E-01  0.205E-01
  -6.236  0.213E-01  0.213E-01
  -6.226  0.222E-01  0.222E-01
  -6.216  0.233E-01  0.233E-01
  -6.206  0.245E-01  0.245E-01
  -6.196  0.258E-01  0.258E-01
  -6.186  0.273E-01  0.273E-01
  -6.176  0.290E-01  0.290E-01
  -6.166  0.307E-01  0.307E-01
  -6.156  0.326E-01  0.326E-01
  -6.146  0.347E-01  0.347E-01
  -6.136  0.369E-01  0.369E-01
  -6.126  0.392E-01  0.392E-01
  -6.116  0.416E-01  0.416E-01
  -6.106  0.442E-01  0.442E-01
  -6.096  0.469E-01  0.469E-01
  -6.086  0.497E-01  0.497E-01
  -6.076  0.527E-01  0.527E-01
  -6.066  0.558E-01  0.558E-01
  -6.056  0.590E-01  0.590E-01
  -6.046  0.623E-01  0.623E-01
  -6.036  0.657E-01  0.657E-01
  -6.026  0.692E-01  0.692E-01
  -6.016  0.729E-01  0.729E-01
  -6.006  0.766E-01  0.766E-01
  -5.996  0.804E-01  0.804E-01
  -5.986  0.844E-01  0.844E-01
  -5.976  0.884E-01  0.884E-01
  -5.966  0.925E-01  0.925E-01
  -5.956  0.967E-01  0.967E-01
  -5.946  0.101E+00  0.101E+00
  -5.936  0.105E+00  0.105E+00
  -5.926  0.110E+00  0.110E+00
  -5.916  0.114E+00  0.114E+00
  -5.906  0.119E+00  0.119E+00
  -5.896  0.123E+00  0.123E+00
  -5.886  0.128E+00  0.128E+00
  -5.876  0.133E+00  0.133E+00
  -5.866  0.137E+00  0.137E+00
  -5.856  0.142E+00  0.142E+00
  -5.846  0.147E+00  0.147E+00
  -5.836  0.152E+00  0.152E+00
  -5.826  0.156E+00  0.156E+00
  -5.816  0.161E+00  0.161E+00
  -5.806  0.166E+00  0.166E+00
  -5.796  0.171E+00  0.171E+00
  -5.786  0.175E+00  0.175E+00
  -5.776  0.180E+00  0.180E+00
  -5.766  0.185E+00  0.185E+00
  -5.756  0.190E+00  0.190E+00
  -5.746  0.194E+00  0.194E+00
  -5.736  0.199E+00  0.199E+00
  -5.726  0.203E+00  0.203E+00
  -5.716  0.208E+00  0.208E+00
  -5.706  0.212E+00  0.212E+00
  -5.696  0.217E+00  0.217E+00
  -5.686  0.221E+00  0.221E+00
  -5.676  0.225E+00  0.225E+00
  -5.666  0.229E+00  0.229E+00
  -5.656  0.233E+00  0.233E+00
  -5.646  0.237E+00  0.237E+00
  -5.636  0.241E+00  0.241E+00
  -5.626  0.245E+00  0.245E+00
  -5.616  0.248E+00  0.248E+00
  -5.606  0.252E+00  0.252E+00
  -5.596  0.255E+00  0.255E+00
  -5.586  0.258E+00  0.258E+00
  -5.576  0.261E+00  0.261E+00
  -5.566  0.264E+00  0.264E+00
  -5.556  0.267E+00  0.267E+00
  -5.546  0.270E+00  0.270E+00
  -5.536  0.272E+00  0.272E+00
  -5.526  0.275E+00  0.275E+00
  -5.516  0.277E+00  0.277E+00
  -5.506  0.279E+00  0.279E+00
  -5.496  0.281E+00  0.281E+00
  -5.486  0.282E+00  0.282E+00
  -5.476  0.284E+00  0.284E+00
  -5.466  0.285E+00  0.285E+00
  -5.456  0.286E+00  0.286E+00
  -5.446  0.287E+00  0.287E+00
  -5.436  0.288E+00  0.288E+00
  -5.426  0.288E+00  0.288E+00
  -5.416  0.289E+00  0.289E+00
  -5.406  0.289E+00  0.289E+00
  -5.396  0.289E+00  0.289E+00
  -5.386  0.289E+00  0.289E+00
  -5.376  0.289E+00  0.289E+00
  -5.366  0.288E+00  0.288E+00
  -5.356  0.288E+00  0.288E+00
  -5.346  0.287E+00  0.287E+00
  -5.336  0.286E+00  0.286E+00
  -5.326  0.284E+00  0.284E+00
  -5.316  0.283E+00  0.283E+00
  -5.306  0.282E+00  0.282E+00
  -5.296  0.280E+00  0.280E+00
  -5.286  0.278E+00  0.278E+00
  -5.276  0.276E+00  0.276E+00
  -5.266  0.274E+00  0.274E+00
  -5.256  0.271E+00  0.271E+00
  -5.246  0.269E+00  0.269E+00
  -5.236  0.266E+00  0.266E+00
  -5.226  0.264E+00  0.264E+00
  -5.216  0.261E+00  0.261E+00
  -5.206  0.258E+00  0.258E+00
  -5.196  0.254E+00  0.254E+00
  -5.186  0.251E+00  0.251E+00
  -5.176  0.248E+00  0.248E+00
  -5.166  0.244E+00  0.244E+00
  -5.156  0.241E+00  0.241E+00
  -5.146  0.237E+00  0.237E+00
  -5.136  0.233E+00  0.233E+00
  -5.126  0.229E+00  0.229E+00
  -5.116  0.225E+00  0.225E+00
  -5.106  0.221E+00  0.221E+00
  -5.096  0.217E+00  0.217E+00
  -5.086  0.213E+00  0.213E+00
  -5.076  0.209E+00  0.209E+00
  -5.066  0.205E+00  0.205E+00
  -5.056  0.200E+00  0.200E+00
  -5.046  0.196E+00  0.196E+00
  -5.036  0.191E+00  0.191E+00
  -5.026  0.187E+00  0.187E+00
  -5.016  0.183E+00  0.183E+00
  -5.006  0.178E+00  0.178E+00
  -4.996  0.174E+00  0.174E+00
  -4.986  0.169E+00  0.169E+00
  -4.976  0.165E+00  0.165E+00
  -4.966  0.161E+00  0.161E+00
  -4.956  0.156E+00  0.156E+00
  -4.946  0.152E+00  0.152E+00
  -4.936  0.147E+00  0.147E+00
  -4.926  0.143E+00  0.143E+00
  -4.916  0.139E+00  0.139E+00
  -4.906  0.135E+00  0.135E+00
  -4.896  0.130E+00  0.130E+00
  -4.886  0.126E+00  0.126E+00
  -4.876  0.122E+00  0.122E+00
  -4.866  0.118E+00  0.118E+00
  -4.856  0.114E+00  0.114E+00
  -4.846  0.110E+00  0.110E+00
  -4.836  0.106E+00  0.106E+00
  -4.826  0.103E+00  0.103E+00
  -4.816  0.990E-01  0.990E-01
  -4.806  0.955E-01  0.955E-01
  -4.796  0.919E-01  0.919E-01
  -4.786  0.885E-01  0.885E-01
  -4.776  0.852E-01  0.852E-01
  -4.766  0.819E-01  0.819E-01
  -4.756  0.788E-01  0.788E-01
  -4.746  0.757E-01  0.757E-01
  -4.736  0.728E-01  0.728E-01
  -4.726  0.699E-01  0.699E-01
  -4.716  0.671E-01  0.671E-01
  -4.706  0.645E-01  0.645E-01
  -4.696  0.619E-01  0.619E-01
  -4.686  0.594E-01  0.594E-01
  -4.676  0.570E-01  0.570E-01
  -4.666  0.547E-01  0.547E-01
  -4.656  0.526E-01  0.526E-01
  -4.646  0.505E-01  0.505E-01
  -4.636  0.485E-01  0.485E-01
  -4.626  0.466E-01  0.466E-01
  -4.616  0.449E-01  0.449E-01
  -4.606  0.432E-01  0.432E-01
  -4.596  0.416E-01  0.416E-01
  -4.586  0.401E-01  0.401E-01
  -4.576  0.387E-01  0.387E-01
  -4.566  0.374E-01  0.374E-01
  -4.556  0.362E-01  0.362E-01
  -4.546  0.351E-01  0.351E-01
  -4.536  0.341E-01  0.341E-01
  -4.526  0.331E-01  0.331E-01
  -4.516  0.323E-01  0.323E-01
  -4.506  0.315E-01  0.315E-01
  -4.496  0.308E-01  0.308E-01
  -4.486  0.302E-01  0.302E-01
  -4.476  0.297E-01  0.297E-01
  -4.466  0.293E-01  0.293E-01
  -4.456  0.289E-01  0.289E-01
  -4.446  0.287E-01  0.287E-01
  -4.436  0.284E-01  0.284E-01
  -4.426  0.283E-01  0.283E-01
  -4.416  0.282E-01  0.282E-01
  -4.406  0.282E-01  0.282E-01
  -4.396  0.283E-01  0.283E-01
  -4.386  0.284E-01  0.284E-01
  -4.376  0.286E-01  0.286E-01
  -4.366  0.289E-01  0.289E-01
  -4.356  0.292E-01  0.292E-01
  -4.346  0.295E-01  0.295E-01
  -4.336  0.300E-01  0.300E-01
  -4.326  0.304E-01  0.304E-01
  -4.316  0.309E-01  0.309E-01
  -4.306  0.315E-01  0.315E-01
  -4.296  0.321E-01  0.321E-01
  -4.286  0.328E-01  0.328E-01
  -4.276  0.335E-01  0.335E-01
  -4.266  0.343E-01  0.343E-01
  -4.256  0.351E-01  0.351E-01
  -4.246  0.359E-01  0.359E-01
  -4.236  0.368E-01  0.368E-01
  -4.226  0.377E-01  0.377E-01
  -4.216  0.386E-01  0.386E-01
  -4.206  0.396E-01  0.396E-01
  -4.196  0.406E-01  0.406E-01
  -4.186  0.417E-01  0.417E-01
  -4.176  0.427E-01  0.427E-01
  -4.166  0.438E-01  0.438E-01
  -4.156  0.450E-01  0.450E-01
  -4.146  0.461E-01  0.461E-01
  -4.136  0.473E-01  0.473E-01
  -4.126  0.485E-01  0.485E-01
  -4.116  0.497E-01  0.497E-01
  -4.106  0.510E-01  0.510E-01
  -4.096  0.523E-01  0.523E-01
  -4.086  0.535E-01  0.535E-01
  -4.076  0.548E-01  0.548E-01
  -4.066  0.562E-01  0.562E-01
  -4.056  0.575E-01  0.575E-01
  -4.046  0.589E-01  0.589E-01
  -4.036  0.602E-01  0.602E-01
  -4.026  0.616E-01  0.616E-01
  -4.016  0.630E-01  0.630E-01
  -4.006  0.644E-01  0.644E-01
  -3.996  0.658E-01  0.658E-01
  -3.986  0.672E-01  0.672E-01
  -3.976  0.687E-01  0.687E-01
  -3.966  0.701E-01  0.701E-01
  -3.956  0.715E-01  0.715E-01
  -3.946  0.730E-01  0.730E-01
  -3.936  0.744E-01  0.744E-01
  -3.926  0.759E-01  0.759E-01
  -3.916  0.773E-01  0.773E-01
  -3.906  0.787E-01  0.787E-01
  -3.896  0.802E-01  0.802E-01
  -3.886  0.816E-01  0.816E-01
  -3.876  0.831E-01  0.831E-01
  -3.866  0.845E-01  0.845E-01
  -3.856  0.859E-01  0.859E-01
  -3.846  0.873E-01  0.873E-01
  -3.836  0.887E-01  0.887E-01
  -3.826  0.901E-01  0.901E-01
  -3.816  0.915E-01  0.915E-01
  -3.806  0.929E-01  0.929E-01
  -3.796  0.942E-01  0.942E-01
  -3.786  0.956E-01  0.956E-01
  -3.776  0.969E-01  0.969E-01
  -3.766  0.982E-01  0.982E-01
  -3.756  0.995E-01  0.995E-01
  -3.746  0.101E+00  0.101E+00
  -3.736  0.102E+00  0.102E+00
  -3.726  0.103E+00  0.103E+00
  -3.716  0.104E+00  0.104E+00
  -3.706  0.106E+00  0.106E+00
  -3.696  0.107E+00  0.107E+00
  -3.686  0.108E+00  0.108E+00
  -3.676  0.109E+00  0.109E+00
  -3.666  0.110E+00  0.110E+00
  -3.656  0.111E+00  0.111E+00
  -3.646  0.112E+00  0.112E+00
  -3.636  0.113E+00  0.113E+00
  -3.626  0.114E+00  0.114E+00
  -3.616  0.115E+00  0.115E+00
  -3.606  0.115E+00  0.115E+00
  -3.596  0.116E+00  0.116E+00
  -3.586  0.117E+00  0.117E+00
  -3.576  0.118E+00  0.118E+00
  -3.566  0.118E+00  0.118E+00
  -3.556  0.119E+00  0.119E+00
  -3.546  0.120E+00  0.120E+00
  -3.536  0.120E+00  0.120E+00
  -3.526  0.121E+00  0.121E+00
  -3.516  0.121E+00  0.121E+00
  -3.506  0.121E+00  0.121E+00
  -3.496  0.122E+00  0.122E+00
  -3.486  0.122E+00  0.122E+00
  -3.476  0.122E+00  0.122E+00
  -3.466  0.123E+00  0.123E+00
  -3.456  0.123E+00  0.123E+00
  -3.446  0.123E+00  0.123E+00
  -3.436  0.123E+00  0.123E+00
  -3.426  0.123E+00  0.123E+00
  -3.416  0.123E+00  0.123E+00
  -3.406  0.123E+00  0.123E+00
  -3.396  0.123E+00  0.123E+00
  -3.386  0.123E+00  0.123E+00
  -3.376  0.122E+00  0.122E+00
  -3.366  0.122E+00  0.122E+00
  -3.356  0.122E+00  0.122E+00
  -3.346  0.121E+00  0.121E+00
  -3.336  0.121E+00  0.121E+00
  -3.326  0.121E+00  0.121E+00
  -3.316  0.120E+00  0.120E+00
  -3.306  0.119E+00  0.119E+00
  -3.296  0.119E+00  0.119E+00
  -3.286  0.118E+00  0.118E+00
  -3.276  0.118E+00  0.118E+00
  -3.266  0.117E+00  0.117E+00
  -3.256  0.116E+00  0.116E+00
  -3.246  0.115E+00  0.115E+00
  -3.236  0.115E+00  0.115E+00
  -3.226  0.114E+00  0.114E+00
  -3.216  0.113E+00  0.113E+00
  -3.206  0.112E+00  0.112E+00
  -3.196  0.111E+00  0.111E+00
  -3.186  0.110E+00  0.110E+00
  -3.176  0.109E+00  0.109E+00
  -3.166  0.108E+00  0.108E+00
  -3.156  0.107E+00  0.107E+00
  -3.146  0.106E+00  0.106E+00
  -3.136  0.105E+00  0.105E+00
  -3.126  0.103E+00  0.103E+00
  -3.116  0.102E+00  0.102E+00
  -3.106  0.101E+00  0.101E+00
  -3.096  0.999E-01  0.999E-01
  -3.086  0.987E-01  0.987E-01
  -3.076  0.975E-01  0.975E-01
  -3.066  0.963E-01  0.963E-01
  -3.056  0.951E-01  0.951E-01
  -3.046  0.938E-01  0.938E-01
  -3.036  0.926E-01  0.926E-01
  -3.026  0.914E-01  0.914E-01
  -3.016  0.902E-01  0.902E-01
  -3.006  0.890E-01  0.890E-01
  -2.996  0.878E-01  0.878E-01
  -2.986  0.866E-01  0.866E-01
  -2.976  0.855E-01  0.855E-01
  -2.966  0.843E-01  0.843E-01
  -2.956  0.832E-01  0.832E-01
  -2.946  0.821E-01  0.821E-01
  -2.936  0.810E-01  0.810E-01
  -2.926  0.799E-01  0.799E-01
  -2.916  0.789E-01  0.789E-01
  -2.906  0.779E-01  0.779E-01
  -2.896  0.769E-01  0.769E-01
  -2.886  0.760E-01  0.760E-01
  -2.876  0.751E-01  0.751E-01
  -2.866  0.742E-01  0.742E-01
  -2.856  0.734E-01  0.734E-01
  -2.846  0.726E-01  0.726E-01
  -2.836  0.719E-01  0.719E-01
  -2.826  0.713E-01  0.713E-01
  -2.816  0.706E-01  0.706E-01
  -2.806  0.701E-01  0.701E-01
  -2.796  0.696E-01  0.696E-01
  -2.786  0.691E-01  0.691E-01
  -2.776  0.688E-01  0.688E-01
  -2.766  0.684E-01  0.684E-01
  -2.756  0.682E-01  0.682E-01
  -2.746  0.680E-01  0.680E-01
  -2.736  0.679E-01  0.679E-01
  -2.726  0.679E-01  0.679E-01
  -2.716  0.679E-01  0.679E-01
  -2.706  0.680E-01  0.680E-01
  -2.696  0.682E-01  0.682E-01
  -2.686  0.684E-01  0.684E-01
  -2.676  0.688E-01  0.688E-01
  -2.666  0.692E-01  0.692E-01
  -2.656  0.697E-01  0.697E-01
  -2.646  0.702E-01  0.702E-01
  -2.636  0.709E-01  0.709E-01
  -2.626  0.717E-01  0.717E-01
  -2.616  0.725E-01  0.725E-01
  -2.606  0.734E-01  0.734E-01
  -2.596  0.744E-01  0.744E-01
  -2.586  0.755E-01  0.755E-01
  -2.576  0.766E-01  0.766E-01
  -2.566  0.779E-01  0.779E-01
  -2.556  0.792E-01  0.792E-01
  -2.546  0.806E-01  0.806E-01
  -2.536  0.821E-01  0.821E-01
  -2.526  0.837E-01  0.837E-01
  -2.516  0.854E-01  0.854E-01
  -2.506  0.871E-01  0.871E-01
  -2.496  0.890E-01  0.890E-01
  -2.486  0.909E-01  0.909E-01
  -2.476  0.929E-01  0.929E-01
  -2.466  0.949E-01  0.949E-01
  -2.456  0.971E-01  0.971E-01
  -2.446  0.993E-01  0.993E-01
  -2.436  0.102E+00  0.102E+00
  -2.426  0.104E+00  0.104E+00
  -2.416  0.106E+00  0.106E+00
  -2.406  0.109E+00  0.109E+00
  -2.396  0.111E+00  0.111E+00
  -2.386  0.114E+00  0.114E+00
  -2.376  0.117E+00  0.117E+00
  -2.366  0.119E+00  0.119E+00
  -2.356  0.122E+00  0.122E+00
  -2.346  0.125E+00  0.125E+00
  -2.336  0.128E+00  0.128E+00
  -2.326  0.130E+00  0.130E+00
  -2.316  0.133E+00  0.133E+00
  -2.306  0.136E+00  0.136E+00
  -2.296  0.139E+00  0.139E+00
  -2.286  0.142E+00  0.142E+00
  -2.276  0.145E+00  0.145E+00
  -2.266  0.148E+00  0.148E+00
  -2.256  0.151E+00  0.151E+00
  -2.246  0.154E+00  0.154E+00
  -2.236  0.157E+00  0.157E+00
  -2.226  0.160E+00  0.160E+00
  -2.216  0.163E+00  0.163E+00
  -2.206  0.166E+00  0.166E+00
  -2.196  0.169E+00  0.169E+00
  -2.186  0.172E+00  0.172E+00
  -2.176  0.175E+00  0.175E+00
  -2.166  0.178E+00  0.178E+00
  -2.156  0.181E+00  0.181E+00
  -2.146  0.184E+00  0.184E+00
  -2.136  0.186E+00  0.186E+00
  -2.126  0.189E+00  0.189E+00
  -2.116  0.192E+00  0.192E+00
  -2.106  0.194E+00  0.194E+00
  -2.096  0.197E+00  0.197E+00
  -2.086  0.199E+00  0.199E+00
  -2.076  0.202E+00  0.202E+00
  -2.066  0.204E+00  0.204E+00
  -2.056  0.206E+00  0.206E+00
  -2.046  0.208E+00  0.208E+00
  -2.036  0.210E+00  0.210E+00
  -2.026  0.212E+00  0.212E+00
  -2.016  0.214E+00  0.214E+00
  -2.006  0.216E+00  0.216E+00
  -1.996  0.217E+00  0.217E+00
  -1.986  0.219E+00  0.219E+00
  -1.976  0.220E+00  0.220E+00
  -1.966  0.222E+00  0.222E+00
  -1.956  0.223E+00  0.223E+00
  -1.946  0.224E+00  0.224E+00
  -1.936  0.225E+00  0.225E+00
  -1.926  0.226E+00  0.226E+00
  -1.916  0.226E+00  0.226E+00
  -1.906  0.227E+00  0.227E+00
  -1.896  0.227E+00  0.227E+00
  -1.886  0.228E+00  0.228E+00
  -1.876  0.228E+00  0.228E+00
  -1.866  0.228E+00  0.228E+00
  -1.856  0.228E+00  0.228E+00
  -1.846  0.228E+00  0.228E+00
  -1.836  0.228E+00  0.228E+00
  -1.826  0.227E+00  0.227E+00
  -1.816  0.227E+00  0.227E+00
  -1.806  0.226E+00  0.226E+00
  -1.796  0.225E+00  0.225E+00
  -1.786  0.224E+00  0.224E+00
  -1.776  0.223E+00  0.223E+00
  -1.766  0.222E+00  0.222E+00
  -1.756  0.221E+00  0.221E+00
  -1.746  0.219E+00  0.219E+00
  -1.736  0.218E+00  0.218E+00
  -1.726  0.216E+00  0.216E+00
  -1.716  0.214E+00  0.214E+00
  -1.706  0.212E+00  0.212E+00
  -1.696  0.211E+00  0.211E+00
  -1.686  0.208E+00  0.208E+00
  -1.676  0.206E+00  0.206E+00
  -1.666  0.204E+00  0.204E+00
  -1.656  0.202E+00  0.202E+00
  -1.646  0.199E+00  0.199E+00
  -1.636  0.197E+00  0.197E+00
  -1.626  0.194E+00  0.194E+00
  -1.616  0.191E+00  0.191E+00
  -1.606  0.189E+00  0.189E+00
  -1.596  0.186E+00  0.186E+00
  -1.586  0.183E+00  0.183E+00
  -1.576  0.180E+00  0.180E+00
  -1.566  0.177E+00  0.177E+00
  -1.556  0.174E+00  0.174E+00
  -1.546  0.171E+00  0.171E+00
  -1.536  0.167E+00  0.167E+00
  -1.526  0.164E+00  0.164E+00
  -1.516  0.161E+00  0.161E+00
  -1.506  0.157E+00  0.157E+00
  -1.496  0.154E+00  0.154E+00
  -1.486  0.151E+00  0.151E+00
  -1.476  0.147E+00  0.147E+00
  -1.466  0.144E+00  0.144E+00
  -1.456  0.140E+00  0.140E+00
  -1.446  0.137E+00  0.137E+00
  -1.436  0.134E+00  0.134E+00
  -1.426  0.130E+00  0.130E+00
  -1.416  0.127E+00  0.127E+00
  -1.406  0.123E+00  0.123E+00
  -1.396  0.120E+00  0.120E+00
  -1.386  0.116E+00  0.116E+00
  -1.376  0.113E+00  0.113E+00
  -1.366  0.109E+00  0.109E+00
  -1.356  0.106E+00  0.106E+00
  -1.346  0.103E+00  0.103E+00
  -1.336  0.992E-01  0.992E-01
  -1.326  0.958E-01  0.958E-01
  -1.316  0.925E-01  0.925E-01
  -1.306  0.892E-01  0.892E-01
  -1.296  0.860E-01  0.860E-01
  -1.286  0.828E-01  0.828E-01
  -1.276  0.796E-01  0.796E-01
  -1.266  0.765E-01  0.765E-01
  -1.256  0.734E-01  0.734E-01
  -1.246  0.704E-01  0.704E-01
  -1.236  0.674E-01  0.674E-01
  -1.226  0.645E-01  0.645E-01
  -1.216  0.616E-01  0.616E-01
  -1.206  0.588E-01  0.588E-01
  -1.196  0.560E-01  0.560E-01
  -1.186  0.533E-01  0.533E-01
  -1.176  0.506E-01  0.506E-01
  -1.166  0.480E-01  0.480E-01
  -1.156  0.454E-01  0.454E-01
  -1.146  0.429E-01  0.429E-01
  -1.136  0.405E-01  0.405E-01
  -1.126  0.381E-01  0.381E-01
  -1.116  0.358E-01  0.358E-01
  -1.106  0.335E-01  0.335E-01
  -1.096  0.314E-01  0.314E-01
  -1.086  0.292E-01  0.292E-01
  -1.076  0.271E-01  0.271E-01
  -1.066  0.251E-01  0.251E-01
  -1.056  0.232E-01  0.232E-01
  -1.046  0.213E-01  0.213E-01
  -1.036  0.195E-01  0.195E-01
  -1.026  0.177E-01  0.177E-01
  -1.016  0.160E-01  0.160E-01
  -1.006  0.144E-01  0.144E-01
  -0.996  0.129E-01  0.129E-01
  -0.986  0.114E-01  0.114E-01
  -0.976  0.992E-02  0.992E-02
  -0.966  0.855E-02  0.855E-02
  -0.956  0.725E-02  0.725E-02
  -0.946  0.600E-02  0.600E-02
  -0.936  0.482E-02  0.482E-02
  -0.926  0.371E-02  0.371E-02
  -0.916  0.266E-02  0.266E-02
  -0.906  0.168E-02  0.168E-02
  -0.896  0.756E-03  0.756E-03
  -0.886 -0.994E-04 -0.994E-04
  -0.876 -0.890E-03 -0.890E-03
  -0.866 -0.161E-02 -0.161E-02
  -0.856 -0.227E-02 -0.227E-02
  -0.846 -0.287E-02 -0.287E-02
  -0.836 -0.340E-02 -0.340E-02
  -0.826 -0.386E-02 -0.386E-02
  -0.816 -0.425E-02 -0.425E-02
  -0.806 -0.458E-02 -0.458E-02
  -0.796 -0.484E-02 -0.484E-02
  -0.786 -0.503E-02 -0.503E-02
  -0.776 -0.516E-02 -0.516E-02
  -0.766 -0.521E-02 -0.521E-02
  -0.756 -0.520E-02 -0.520E-02
  -0.746 -0.512E-02 -0.512E-02
  -0.736 -0.496E-02 -0.496E-02
  -0.726 -0.474E-02 -0.474E-02
  -0.716 -0.444E-02 -0.444E-02
  -0.706 -0.408E-02 -0.408E-02
  -0.696 -0.364E-02 -0.364E-02
  -0.686 -0.312E-02 -0.312E-02
  -0.676 -0.254E-02 -0.254E-02
  -0.666 -0.188E-02 -0.188E-02
  -0.656 -0.114E-02 -0.114E-02
  -0.646 -0.327E-03 -0.327E-03
  -0.636  0.561E-03  0.561E-03
  -0.626  0.153E-02  0.153E-02
  -0.616  0.257E-02  0.257E-02
  -0.606  0.369E-02  0.369E-02
  -0.596  0.488E-02  0.488E-02
  -0.586  0.616E-02  0.616E-02
  -0.576  0.752E-02  0.752E-02
  -0.566  0.895E-02  0.895E-02
  -0.556  0.105E-01  0.105E-01
  -0.546  0.121E-01  0.121E-01
  -0.536  0.137E-01  0.137E-01
  -0.526  0.155E-01  0.155E-01
  -0.516  0.173E-01  0.173E-01
  -0.506  0.192E-01  0.192E-01
  -0.496  0.212E-01  0.212E-01
  -0.486  0.233E-01  0.233E-01
  -0.476  0.254E-01  0.254E-01
  -0.466  0.277E-01  0.277E-01
  -0.456  0.300E-01  0.300E-01
  -0.446  0.323E-01  0.323E-01
  -0.436  0.348E-01  0.348E-01
  -0.426  0.373E-01  0.373E-01
  -0.416  0.399E-01  0.399E-01
  -0.406  0.426E-01  0.426E-01
  -0.396  0.454E-01  0.454E-01
  -0.386  0.482E-01  0.482E-01
  -0.376  0.511E-01  0.511E-01
  -0.366  0.540E-01  0.540E-01
  -0.356  0.570E-01  0.570E-01
  -0.346  0.601E-01  0.601E-01
  -0.336  0.632E-01  0.632E-01
  -0.326  0.664E-01  0.664E-01
  -0.316  0.696E-01  0.696E-01
  -0.306  0.729E-01  0.729E-01
  -0.296  0.763E-01  0.763E-01
  -0.286  0.797E-01  0.797E-01
  -0.276  0.831E-01  0.831E-01
  -0.266  0.865E-01  0.865E-01
  -0.256  0.900E-01  0.900E-01
  -0.246  0.936E-01  0.936E-01
  -0.236  0.971E-01  0.971E-01
  -0.226  0.101E+00  0.101E+00
  -0.216  0.104E+00  0.104E+00
  -0.206  0.108E+00  0.108E+00
  -0.196  0.112E+00  0.112E+00
  -0.186  0.115E+00  0.115E+00
  -0.176  0.119E+00  0.119E+00
  -0.166  0.122E+00  0.122E+00
  -0.156  0.126E+00  0.126E+00
  -0.146  0.130E+00  0.130E+00
  -0.136  0.133E+00  0.133E+00
  -0.126  0.137E+00  0.137E+00
  -0.116  0.140E+00  0.140E+00
  -0.106  0.144E+00  0.144E+00
  -0.096  0.147E+00  0.147E+00
  -0.086  0.151E+00  0.151E+00
  -0.076  0.154E+00  0.154E+00
  -0.066  0.158E+00  0.158E+00
  -0.056  0.161E+00  0.161E+00
  -0.046  0.164E+00  0.164E+00
  -0.036  0.167E+00  0.167E+00
  -0.026  0.170E+00  0.170E+00
  -0.016  0.173E+00  0.173E+00
  -0.006  0.176E+00  0.176E+00
   0.004  0.179E+00  0.179E+00
   0.014  0.182E+00  0.182E+00
   0.024  0.185E+00  0.185E+00
   0.034  0.187E+00  0.187E+00
   0.044  0.190E+00  0.190E+00
   0.054  0.192E+00  0.192E+00
   0.064  0.194E+00  0.194E+00
   0.074  0.196E+00  0.196E+00
   0.084  0.198E+00  0.198E+00
   0.094  0.200E+00  0.200E+00
   0.104  0.202E+00  0.202E+00
   0.114  0.204E+00  0.204E+00
   0.124  0.205E+00  0.205E+00
   0.134  0.207E+00  0.207E+00
   0.144  0.208E+00  0.208E+00
   0.154  0.209E+00  0.209E+00
   0.164  0.210E+00  0.210E+00
   0.174  0.211E+00  0.211E+00
   0.184  0.212E+00  0.212E+00
   0.194  0.212E+00  0.212E+00
   0.204  0.213E+00  0.213E+00
   0.214  0.213E+00  0.213E+00
   0.224  0.213E+00  0.213E+00
   0.234  0.213E+00  0.213E+00
   0.244  0.213E+00  0.213E+00
   0.254  0.213E+00  0.213E+00
   0.264  0.212E+00  0.212E+00
   0.274  0.212E+00  0.212E+00
   0.284  0.211E+00  0.211E+00
   0.294  0.210E+00  0.210E+00
   0.304  0.209E+00  0.209E+00
   0.314  0.208E+00  0.208E+00
   0.324  0.207E+00  0.207E+00
   0.334  0.206E+00  0.206E+00
   0.344  0.204E+00  0.204E+00
   0.354  0.203E+00  0.203E+00
   0.364  0.201E+00  0.201E+00
   0.374  0.199E+00  0.199E+00
   0.384  0.197E+00  0.197E+00
   0.394  0.195E+00  0.195E+00
   0.404  0.193E+00  0.193E+00
   0.414  0.191E+00  0.191E+00
   0.424  0.188E+00  0.188E+00
   0.434  0.186E+00  0.186E+00
   0.444  0.183E+00  0.183E+00
   0.454  0.180E+00  0.180E+00
   0.464  0.178E+00  0.178E+00
   0.474  0.175E+00  0.175E+00
   0.484  0.172E+00  0.172E+00
   0.494  0.169E+00  0.169E+00
   0.504  0.166E+00  0.166E+00
   0.514  0.163E+00  0.163E+00
   0.524  0.160E+00  0.160E+00
   0.534  0.157E+00  0.157E+00
   0.544  0.153E+00  0.153E+00
   0.554  0.150E+00  0.150E+00
   0.564  0.147E+00  0.147E+00
   0.574  0.144E+00  0.144E+00
   0.584  0.140E+00  0.140E+00
   0.594  0.137E+00  0.137E+00
   0.604  0.134E+00  0.134E+00
   0.614  0.130E+00  0.130E+00
   0.624  0.127E+00  0.127E+00
   0.634  0.124E+00  0.124E+00
   0.644  0.120E+00  0.120E+00
   0.654  0.117E+00  0.117E+00
   0.664  0.113E+00  0.113E+00
   0.674  0.110E+00  0.110E+00
   0.684  0.107E+00  0.107E+00
   0.694  0.104E+00  0.104E+00
   0.704  0.100E+00  0.100E+00
   0.714  0.972E-01  0.972E-01
   0.724  0.940E-01  0.940E-01
   0.734  0.909E-01  0.909E-01
   0.744  0.878E-01  0.878E-01
   0.754  0.848E-01  0.848E-01
   0.764  0.818E-01  0.818E-01
   0.774  0.789E-01  0.789E-01
   0.784  0.761E-01  0.761E-01
   0.794  0.732E-01  0.732E-01
   0.804  0.705E-01  0.705E-01
   0.814  0.678E-01  0.678E-01
   0.824  0.652E-01  0.652E-01
   0.834  0.626E-01  0.626E-01
   0.844  0.602E-01  0.602E-01
   0.854  0.577E-01  0.577E-01
   0.864  0.554E-01  0.554E-01
   0.874  0.531E-01  0.531E-01
   0.884  0.509E-01  0.509E-01
   0.894  0.488E-01  0.488E-01
   0.904  0.467E-01  0.467E-01
   0.914  0.447E-01  0.447E-01
   0.924  0.428E-01  0.428E-01
   0.934  0.409E-01  0.409E-01
   0.944  0.391E-01  0.391E-01
   0.954  0.374E-01  0.374E-01
   0.964  0.358E-01  0.358E-01
   0.974  0.342E-01  0.342E-01
   0.984  0.327E-01  0.327E-01
   0.994  0.313E-01  0.313E-01
   1.004  0.299E-01  0.299E-01
   1.014  0.286E-01  0.286E-01
   1.024  0.274E-01  0.274E-01
   1.034  0.262E-01  0.262E-01
   1.044  0.251E-01  0.251E-01
   1.054  0.240E-01  0.240E-01
   1.064  0.230E-01  0.230E-01
   1.074  0.221E-01  0.221E-01
   1.084  0.212E-01  0.212E-01
   1.094  0.204E-01  0.204E-01
   1.104  0.196E-01  0.196E-01
   1.114  0.189E-01  0.189E-01
   1.124  0.182E-01  0.182E-01
   1.134  0.176E-01  0.176E-01
   1.144  0.170E-01  0.170E-01
   1.154  0.164E-01  0.164E-01
   1.164  0.159E-01  0.159E-01
   1.174  0.155E-01  0.155E-01
   1.184  0.150E-01  0.150E-01
   1.194  0.146E-01  0.146E-01
   1.204  0.143E-01  0.143E-01
   1.214  0.139E-01  0.139E-01
   1.224  0.136E-01  0.136E-01
   1.234  0.134E-01  0.134E-01
   1.244  0.131E-01  0.131E-01
   1.254  0.129E-01  0.129E-01
   1.264  0.127E-01  0.127E-01
   1.274  0.125E-01  0.125E-01
   1.284  0.123E-01  0.123E-01
   1.294  0.122E-01  0.122E-01
   1.304  0.120E-01  0.120E-01
   1.314  0.119E-01  0.119E-01
   1.324  0.118E-01  0.118E-01
   1.334  0.117E-01  0.117E-01
   1.344  0.116E-01  0.116E-01
   1.354  0.115E-01  0.115E-01
   1.364  0.114E-01  0.114E-01
   1.374  0.113E-01  0.113E-01
   1.384  0.113E-01  0.113E-01
   1.394  0.112E-01  0.112E-01
   1.404  0.112E-01  0.112E-01
   1.414  0.111E-01  0.111E-01
   1.424  0.110E-01  0.110E-01
   1.434  0.110E-01  0.110E-01
   1.444  0.109E-01  0.109E-01
   1.454  0.109E-01  0.109E-01
   1.464  0.108E-01  0.108E-01
   1.474  0.108E-01  0.108E-01
   1.484  0.107E-01  0.107E-01
   1.494  0.106E-01  0.106E-01
   1.504  0.106E-01  0.106E-01
   1.514  0.105E-01  0.105E-01
   1.524  0.104E-01  0.104E-01
   1.534  0.104E-01  0.104E-01
   1.544  0.103E-01  0.103E-01
   1.554  0.102E-01  0.102E-01
   1.564  0.101E-01  0.101E-01
   1.574  0.101E-01  0.101E-01
   1.584  0.100E-01  0.100E-01
   1.594  0.992E-02  0.992E-02
   1.604  0.985E-02  0.985E-02
   1.614  0.977E-02  0.977E-02
   1.624  0.970E-02  0.970E-02
   1.634  0.963E-02  0.963E-02
   1.644  0.956E-02  0.956E-02
   1.654  0.950E-02  0.950E-02
   1.664  0.943E-02  0.943E-02
   1.674  0.938E-02  0.938E-02
   1.684  0.933E-02  0.933E-02
   1.694  0.929E-02  0.929E-02
   1.704  0.926E-02  0.926E-02
   1.714  0.923E-02  0.923E-02
   1.724  0.922E-02  0.922E-02
   1.734  0.921E-02  0.921E-02
   1.744  0.922E-02  0.922E-02
   1.754  0.924E-02  0.924E-02
   1.764  0.928E-02  0.928E-02
   1.774  0.933E-02  0.933E-02
   1.784  0.940E-02  0.940E-02
   1.794  0.949E-02  0.949E-02
   1.804  0.960E-02  0.960E-02
   1.814  0.973E-02  0.973E-02
   1.824  0.988E-02  0.988E-02
   1.834  0.101E-01  0.101E-01
   1.844  0.102E-01  0.102E-01
   1.854  0.105E-01  0.105E-01
   1.864  0.107E-01  0.107E-01
   1.874  0.110E-01  0.110E-01
   1.884  0.113E-01  0.113E-01
   1.894  0.116E-01  0.116E-01
   1.904  0.120E-01  0.120E-01
   1.914  0.124E-01  0.124E-01
   1.924  0.129E-01  0.129E-01
   1.934  0.133E-01  0.133E-01
   1.944  0.138E-01  0.138E-01
   1.954  0.144E-01  0.144E-01
   1.964  0.150E-01  0.150E-01
   1.974  0.156E-01  0.156E-01
   1.984  0.163E-01  0.163E-01
   1.994  0.170E-01  0.170E-01
   2.004  0.177E-01  0.177E-01
   2.014  0.185E-01  0.185E-01
   2.024  0.194E-01  0.194E-01
   2.034  0.202E-01  0.202E-01
   2.044  0.212E-01  0.212E-01
   2.054  0.221E-01  0.221E-01
   2.064  0.232E-01  0.232E-01
   2.074  0.242E-01  0.242E-01
   2.084  0.253E-01  0.253E-01
   2.094  0.265E-01  0.265E-01
   2.104  0.277E-01  0.277E-01
   2.114  0.290E-01  0.290E-01
   2.124  0.303E-01  0.303E-01
   2.134  0.316E-01  0.316E-01
   2.144  0.331E-01  0.331E-01
   2.154  0.345E-01  0.345E-01
   2.164  0.360E-01  0.360E-01
   2.174  0.376E-01  0.376E-01
   2.184  0.392E-01  0.392E-01
   2.194  0.408E-01  0.408E-01
   2.204  0.425E-01  0.425E-01
   2.214  0.442E-01  0.442E-01
   2.224  0.460E-01  0.460E-01
   2.234  0.478E-01  0.478E-01
   2.244  0.497E-01  0.497E-01
   2.254  0.516E-01  0.516E-01
   2.264  0.536E-01  0.536E-01
   2.274  0.556E-01  0.556E-01
   2.284  0.576E-01  0.576E-01
   2.294  0.596E-01  0.596E-01
   2.304  0.617E-01  0.617E-01
   2.314  0.639E-01  0.639E-01
   2.324  0.660E-01  0.660E-01
   2.334  0.682E-01  0.682E-01
   2.344  0.704E-01  0.704E-01
   2.354  0.727E-01  0.727E-01
   2.364  0.750E-01  0.750E-01
   2.374  0.772E-01  0.772E-01
   2.384  0.795E-01  0.795E-01
   2.394  0.819E-01  0.819E-01
   2.404  0.842E-01  0.842E-01
   2.414  0.865E-01  0.865E-01
   2.424  0.889E-01  0.889E-01
   2.434  0.912E-01  0.912E-01
   2.444  0.936E-01  0.936E-01
   2.454  0.960E-01  0.960E-01
   2.464  0.983E-01  0.983E-01
   2.474  0.101E+00  0.101E+00
   2.484  0.103E+00  0.103E+00
   2.494  0.105E+00  0.105E+00
   2.504  0.108E+00  0.108E+00
   2.514  0.110E+00  0.110E+00
   2.524  0.112E+00  0.112E+00
   2.534  0.114E+00  0.114E+00
   2.544  0.117E+00  0.117E+00
   2.554  0.119E+00  0.119E+00
   2.564  0.121E+00  0.121E+00
   2.574  0.123E+00  0.123E+00
   2.584  0.125E+00  0.125E+00
   2.594  0.127E+00  0.127E+00
   2.604  0.129E+00  0.129E+00
   2.614  0.131E+00  0.131E+00
   2.624  0.133E+00  0.133E+00
   2.634  0.135E+00  0.135E+00
   2.644  0.137E+00  0.137E+00
   2.654  0.138E+00  0.138E+00
   2.664  0.140E+00  0.140E+00
   2.674  0.142E+00  0.142E+00
   2.684  0.143E+00  0.143E+00
   2.694  0.144E+00  0.144E+00
   2.704  0.146E+00  0.146E+00
   2.714  0.147E+00  0.147E+00
   2.724  0.148E+00  0.148E+00
   2.734  0.149E+00  0.149E+00
   2.744  0.150E+00  0.150E+00
   2.754  0.151E+00  0.151E+00
   2.764  0.152E+00  0.152E+00
   2.774  0.153E+00  0.153E+00
   2.784  0.154E+00  0.154E+00
   2.794  0.154E+00  0.154E+00
   2.804  0.155E+00  0.155E+00
   2.814  0.155E+00  0.155E+00
   2.824  0.156E+00  0.156E+00
   2.834  0.156E+00  0.156E+00
   2.844  0.156E+00  0.156E+00
   2.854  0.156E+00  0.156E+00
   2.864  0.156E+00  0.156E+00
   2.874  0.156E+00  0.156E+00
   2.884  0.156E+00  0.156E+00
   2.894  0.155E+00  0.155E+00
   2.904  0.155E+00  0.155E+00
   2.914  0.154E+00  0.154E+00
   2.924  0.154E+00  0.154E+00
   2.934  0.153E+00  0.153E+00
   2.944  0.152E+00  0.152E+00
   2.954  0.151E+00  0.151E+00
   2.964  0.150E+00  0.150E+00
   2.974  0.149E+00  0.149E+00
   2.984  0.148E+00  0.148E+00
   2.994  0.147E+00  0.147E+00
   3.004  0.146E+00  0.146E+00
   3.014  0.144E+00  0.144E+00
   3.024  0.143E+00  0.143E+00
   3.034  0.141E+00  0.141E+00
   3.044  0.140E+00  0.140E+00
   3.054  0.138E+00  0.138E+00
   3.064  0.136E+00  0.136E+00
   3.074  0.135E+00  0.135E+00
   3.084  0.133E+00  0.133E+00
   3.094  0.131E+00  0.131E+00
   3.104  0.129E+00  0.129E+00
   3.114  0.127E+00  0.127E+00
   3.124  0.125E+00  0.125E+00
   3.134  0.122E+00  0.122E+00
   3.144  0.120E+00  0.120E+00
   3.154  0.118E+00  0.118E+00
   3.164  0.116E+00  0.116E+00
   3.174  0.113E+00  0.113E+00
   3.184  0.111E+00  0.111E+00
   3.194  0.109E+00  0.109E+00
   3.204  0.106E+00  0.106E+00
   3.214  0.104E+00  0.104E+00
   3.224  0.101E+00  0.101E+00
   3.234  0.989E-01  0.989E-01
   3.244  0.964E-01  0.964E-01
   3.254  0.939E-01  0.939E-01
   3.264  0.914E-01  0.914E-01
   3.274  0.889E-01  0.889E-01
   3.284  0.863E-01  0.863E-01
   3.294  0.838E-01  0.838E-01
   3.304  0.813E-01  0.813E-01
   3.314  0.788E-01  0.788E-01
   3.324  0.763E-01  0.763E-01
   3.334  0.738E-01  0.738E-01
   3.344  0.714E-01  0.714E-01
   3.354  0.689E-01  0.689E-01
   3.364  0.665E-01  0.665E-01
   3.374  0.641E-01  0.641E-01
   3.384  0.617E-01  0.617E-01
   3.394  0.593E-01  0.593E-01
   3.404  0.570E-01  0.570E-01
   3.414  0.547E-01  0.547E-01
   3.424  0.524E-01  0.524E-01
   3.434  0.502E-01  0.502E-01
   3.444  0.480E-01  0.480E-01
   3.454  0.458E-01  0.458E-01
   3.464  0.437E-01  0.437E-01
   3.474  0.416E-01  0.416E-01
   3.484  0.395E-01  0.395E-01
   3.494  0.375E-01  0.375E-01
   3.504  0.356E-01  0.356E-01
   3.514  0.337E-01  0.337E-01
   3.524  0.318E-01  0.318E-01
   3.534  0.300E-01  0.300E-01
   3.544  0.282E-01  0.282E-01
   3.554  0.265E-01  0.265E-01
   3.564  0.248E-01  0.248E-01
   3.574  0.231E-01  0.231E-01
   3.584  0.216E-01  0.216E-01
   3.594  0.200E-01  0.200E-01
   3.604  0.185E-01  0.185E-01
   3.614  0.171E-01  0.171E-01
   3.624  0.157E-01  0.157E-01
   3.634  0.144E-01  0.144E-01
   3.644  0.131E-01  0.131E-01
   3.654  0.118E-01  0.118E-01
   3.664  0.106E-01  0.106E-01
   3.674  0.948E-02  0.948E-02
   3.684  0.838E-02  0.838E-02
   3.694  0.733E-02  0.733E-02
   3.704  0.632E-02  0.632E-02
   3.714  0.536E-02  0.536E-02
   3.724  0.445E-02  0.445E-02
   3.734  0.358E-02  0.358E-02
   3.744  0.275E-02  0.275E-02
   3.754  0.196E-02  0.196E-02
   3.764  0.122E-02  0.122E-02
   3.774  0.514E-03  0.514E-03
   3.784 -0.150E-03 -0.150E-03
   3.794 -0.775E-03 -0.775E-03
   3.804 -0.136E-02 -0.136E-02
   3.814 -0.191E-02 -0.191E-02
   3.824 -0.242E-02 -0.242E-02
   3.834 -0.290E-02 -0.290E-02
   3.844 -0.335E-02 -0.335E-02
   3.854 -0.376E-02 -0.376E-02
   3.864 -0.414E-02 -0.414E-02
   3.874 -0.449E-02 -0.449E-02
   3.884 -0.481E-02 -0.481E-02
   3.894 -0.511E-02 -0.511E-02
   3.904 -0.537E-02 -0.537E-02
   3.914 -0.561E-02 -0.561E-02
   3.924 -0.582E-02 -0.582E-02
   3.934 -0.601E-02 -0.601E-02
   3.944 -0.618E-02 -0.618E-02
   3.954 -0.632E-02 -0.632E-02
   3.964 -0.644E-02 -0.644E-02
   3.974 -0.655E-02 -0.655E-02
   3.984 -0.663E-02 -0.663E-02
   3.994 -0.670E-02 -0.670E-02
   4.004 -0.675E-02 -0.675E-02
   4.014 -0.678E-02 -0.678E-02
   4.024 -0.680E-02 -0.680E-02
   4.034 -0.680E-02 -0.680E-02
   4.044 -0.679E-02 -0.679E-02
   4.054 -0.677E-02 -0.677E-02
   4.064 -0.674E-02 -0.674E-02
   4.074 -0.669E-02 -0.669E-02
   4.084 -0.664E-02 -0.664E-02
   4.094 -0.657E-02 -0.657E-02
   4.104 -0.650E-02 -0.650E-02
   4.114 -0.642E-02 -0.642E-02
   4.124 -0.633E-02 -0.633E-02
   4.134 -0.624E-02 -0.624E-02
   4.144 -0.614E-02 -0.614E-02
   4.154 -0.603E-02 -0.603E-02
   4.164 -0.592E-02 -0.592E-02
   4.174 -0.580E-02 -0.580E-02
   4.184 -0.569E-02 -0.569E-02
   4.194 -0.556E-02 -0.556E-02
   4.204 -0.544E-02 -0.544E-02
   4.214 -0.531E-02 -0.531E-02
   4.224 -0.518E-02 -0.518E-02
   4.234 -0.505E-02 -0.505E-02
   4.244 -0.492E-02 -0.492E-02
   4.254 -0.479E-02 -0.479E-02
   4.264 -0.466E-02 -0.466E-02
   4.274 -0.453E-02 -0.453E-02
   4.284 -0.439E-02 -0.439E-02
   4.294 -0.426E-02 -0.426E-02
   4.304 -0.413E-02 -0.413E-02
   4.314 -0.400E-02 -0.400E-02
   4.324 -0.387E-02 -0.387E-02
   4.334 -0.375E-02 -0.375E-02
   4.344 -0.362E-02 -0.362E-02
   4.354 -0.350E-02 -0.350E-02
   4.364 -0.337E-02 -0.337E-02
   4.374 -0.325E-02 -0.325E-02
   4.384 -0.314E-02 -0.314E-02
   4.394 -0.302E-02 -0.302E-02
   4.404 -0.291E-02 -0.291E-02
   4.414 -0.280E-02 -0.280E-02
   4.424 -0.269E-02 -0.269E-02
   4.434 -0.258E-02 -0.258E-02
   4.444 -0.248E-02 -0.248E-02
   4.454 -0.238E-02 -0.238E-02
   4.464 -0.228E-02 -0.228E-02
   4.474 -0.219E-02 -0.219E-02
   4.484 -0.209E-02 -0.209E-02
   4.494 -0.200E-02 -0.200E-02
   4.504 -0.192E-02 -0.192E-02
   4.514 -0.183E-02 -0.183E-02
   4.524 -0.175E-02 -0.175E-02
   4.534 -0.167E-02 -0.167E-02
   4.544 -0.160E-02 -0.160E-02
   4.554 -0.152E-02 -0.152E-02
   4.564 -0.145E-02 -0.145E-02
   4.574 -0.138E-02 -0.138E-02
   4.584 -0.132E-02 -0.132E-02
   4.594 -0.125E-02 -0.125E-02
   4.604 -0.119E-02 -0.119E-02
   4.614 -0.113E-02 -0.113E-02
   4.624 -0.108E-02 -0.108E-02
   4.634 -0.102E-02 -0.102E-02
   4.644 -0.971E-03 -0.971E-03
   4.654 -0.921E-03 -0.921E-03
   4.664 -0.874E-03 -0.874E-03
   4.674 -0.828E-03 -0.828E-03
   4.684 -0.784E-03 -0.784E-03
   4.694 -0.743E-03 -0.743E-03
   4.704 -0.703E-03 -0.703E-03
   4.714 -0.665E-03 -0.665E-03
   4.724 -0.628E-03 -0.628E-03
   4.734 -0.594E-03 -0.594E-03
   4.744 -0.561E-03 -0.561E-03
   4.754 -0.529E-03 -0.529E-03
   4.764 -0.499E-03 -0.499E-03
   4.774 -0.471E-03 -0.471E-03
   4.784 -0.444E-03 -0.444E-03
   4.794 -0.418E-03 -0.418E-03
   4.804 -0.394E-03 -0.394E-03
   4.814 -0.371E-03 -0.371E-03
   4.824 -0.349E-03 -0.349E-03
   4.834 -0.328E-03 -0.328E-03
   4.844 -0.308E-03 -0.308E-03
   4.854 -0.289E-03 -0.289E-03
   4.864 -0.272E-03 -0.272E-03
   4.874 -0.255E-03 -0.255E-03
   4.884 -0.239E-03 -0.239E-03
   4.894 -0.224E-03 -0.224E-03
   4.904 -0.210E-03 -0.210E-03
   4.914 -0.197E-03 -0.197E-03
   4.924 -0.184E-03 -0.184E-03
   4.934 -0.172E-03 -0.172E-03
   4.944 -0.161E-03 -0.161E-03
   4.954 -0.151E-03 -0.151E-03
   4.964 -0.141E-03 -0.141E-03
   4.974 -0.132E-03 -0.132E-03
   4.984 -0.123E-03 -0.123E-03
   4.994 -0.115E-03 -0.115E-03
   5.004 -0.107E-03 -0.107E-03
   5.014 -0.997E-04 -0.997E-04
   5.024 -0.929E-04 -0.929E-04
   5.034 -0.865E-04 -0.865E-04
   5.044 -0.806E-04 -0.806E-04
   5.054 -0.750E-04 -0.750E-04
   5.064 -0.697E-04 -0.697E-04
   5.074 -0.648E-04 -0.648E-04
   5.084 -0.603E-04 -0.603E-04
   5.094 -0.560E-04 -0.560E-04
   5.104 -0.520E-04 -0.520E-04
   5.114 -0.482E-04 -0.482E-04
   5.124 -0.447E-04 -0.447E-04
   5.134 -0.415E-04 -0.415E-04
   5.144 -0.384E-04 -0.384E-04
   5.154 -0.356E-04 -0.356E-04
   5.164 -0.330E-04 -0.330E-04
   5.174 -0.305E-04 -0.305E-04
   5.184 -0.282E-04 -0.282E-04
   5.194 -0.261E-04 -0.261E-04
   5.204 -0.241E-04 -0.241E-04
   5.214 -0.223E-04 -0.223E-04
   5.224 -0.206E-04 -0.206E-04
   5.234 -0.190E-04 -0.190E-04
   5.244 -0.175E-04 -0.175E-04
   5.254 -0.162E-04 -0.162E-04
   5.264 -0.149E-04 -0.149E-04
   5.274 -0.137E-04 -0.137E-04
   5.284 -0.126E-04 -0.126E-04
   5.294 -0.116E-04 -0.116E-04
