# E (eV)   ldos(E)   pdos(E)   
 -27.116 -0.261E-08 -0.261E-08
 -27.106 -0.281E-08 -0.281E-08
 -27.096 -0.303E-08 -0.303E-08
 -27.086 -0.327E-08 -0.327E-08
 -27.076 -0.353E-08 -0.353E-08
 -27.066 -0.380E-08 -0.380E-08
 -27.056 -0.409E-08 -0.409E-08
 -27.046 -0.440E-08 -0.440E-08
 -27.036 -0.473E-08 -0.473E-08
 -27.026 -0.508E-08 -0.508E-08
 -27.016 -0.546E-08 -0.546E-08
 -27.006 -0.586E-08 -0.586E-08
 -26.996 -0.629E-08 -0.629E-08
 -26.986 -0.675E-08 -0.675E-08
 -26.976 -0.723E-08 -0.723E-08
 -26.966 -0.775E-08 -0.775E-08
 -26.956 -0.829E-08 -0.829E-08
 -26.946 -0.888E-08 -0.888E-08
 -26.936 -0.950E-08 -0.950E-08
 -26.926 -0.102E-07 -0.102E-07
 -26.916 -0.108E-07 -0.108E-07
 -26.906 -0.116E-07 -0.116E-07
 -26.896 -0.124E-07 -0.124E-07
 -26.886 -0.132E-07 -0.132E-07
 -26.876 -0.141E-07 -0.141E-07
 -26.866 -0.150E-07 -0.150E-07
 -26.856 -0.160E-07 -0.160E-07
 -26.846 -0.170E-07 -0.170E-07
 -26.836 -0.181E-07 -0.181E-07
 -26.826 -0.192E-07 -0.192E-07
 -26.816 -0.204E-07 -0.204E-07
 -26.806 -0.217E-07 -0.217E-07
 -26.796 -0.230E-07 -0.230E-07
 -26.786 -0.244E-07 -0.244E-07
 -26.776 -0.259E-07 -0.259E-07
 -26.766 -0.274E-07 -0.274E-07
 -26.756 -0.290E-07 -0.290E-07
 -26.746 -0.307E-07 -0.307E-07
 -26.736 -0.325E-07 -0.325E-07
 -26.726 -0.343E-07 -0.343E-07
 -26.716 -0.363E-07 -0.363E-07
 -26.706 -0.383E-07 -0.383E-07
 -26.696 -0.404E-07 -0.404E-07
 -26.686 -0.426E-07 -0.426E-07
 -26.676 -0.449E-07 -0.449E-07
 -26.666 -0.473E-07 -0.473E-07
 -26.656 -0.498E-07 -0.498E-07
 -26.646 -0.523E-07 -0.523E-07
 -26.636 -0.550E-07 -0.550E-07
 -26.626 -0.578E-07 -0.578E-07
 -26.616 -0.607E-07 -0.607E-07
 -26.606 -0.637E-07 -0.637E-07
 -26.596 -0.668E-07 -0.668E-07
 -26.586 -0.700E-07 -0.700E-07
 -26.576 -0.732E-07 -0.732E-07
 -26.566 -0.766E-07 -0.766E-07
 -26.556 -0.801E-07 -0.801E-07
 -26.546 -0.838E-07 -0.838E-07
 -26.536 -0.875E-07 -0.875E-07
 -26.526 -0.913E-07 -0.913E-07
 -26.516 -0.952E-07 -0.952E-07
 -26.506 -0.992E-07 -0.992E-07
 -26.496 -0.103E-06 -0.103E-06
 -26.486 -0.107E-06 -0.107E-06
 -26.476 -0.112E-06 -0.112E-06
 -26.466 -0.116E-06 -0.116E-06
 -26.456 -0.120E-06 -0.120E-06
 -26.446 -0.125E-06 -0.125E-06
 -26.436 -0.130E-06 -0.130E-06
 -26.426 -0.134E-06 -0.134E-06
 -26.416 -0.139E-06 -0.139E-06
 -26.406 -0.143E-06 -0.143E-06
 -26.396 -0.148E-06 -0.148E-06
 -26.386 -0.153E-06 -0.153E-06
 -26.376 -0.158E-06 -0.158E-06
 -26.366 -0.163E-06 -0.163E-06
 -26.356 -0.167E-06 -0.167E-06
 -26.346 -0.172E-06 -0.172E-06
 -26.336 -0.177E-06 -0.177E-06
 -26.326 -0.181E-06 -0.181E-06
 -26.316 -0.186E-06 -0.186E-06
 -26.306 -0.190E-06 -0.190E-06
 -26.296 -0.195E-06 -0.195E-06
 -26.286 -0.199E-06 -0.199E-06
 -26.276 -0.203E-06 -0.203E-06
 -26.266 -0.207E-06 -0.207E-06
 -26.256 -0.211E-06 -0.211E-06
 -26.246 -0.215E-06 -0.215E-06
 -26.236 -0.218E-06 -0.218E-06
 -26.226 -0.221E-06 -0.221E-06
 -26.216 -0.224E-06 -0.224E-06
 -26.206 -0.226E-06 -0.226E-06
 -26.196 -0.229E-06 -0.229E-06
 -26.186 -0.230E-06 -0.230E-06
 -26.176 -0.232E-06 -0.232E-06
 -26.166 -0.233E-06 -0.233E-06
 -26.156 -0.233E-06 -0.233E-06
 -26.146 -0.233E-06 -0.233E-06
 -26.136 -0.233E-06 -0.233E-06
 -26.126 -0.232E-06 -0.232E-06
 -26.116 -0.230E-06 -0.230E-06
 -26.106 -0.228E-06 -0.228E-06
 -26.096 -0.225E-06 -0.225E-06
 -26.086 -0.222E-06 -0.222E-06
 -26.076 -0.218E-06 -0.218E-06
 -26.066 -0.213E-06 -0.213E-06
 -26.056 -0.207E-06 -0.207E-06
 -26.046 -0.200E-06 -0.200E-06
 -26.036 -0.192E-06 -0.192E-06
 -26.026 -0.184E-06 -0.184E-06
 -26.016 -0.175E-06 -0.175E-06
 -26.006 -0.164E-06 -0.164E-06
 -25.996 -0.153E-06 -0.153E-06
 -25.986 -0.140E-06 -0.140E-06
 -25.976 -0.127E-06 -0.127E-06
 -25.966 -0.112E-06 -0.112E-06
 -25.956 -0.960E-07 -0.960E-07
 -25.946 -0.789E-07 -0.789E-07
 -25.936 -0.605E-07 -0.605E-07
 -25.926 -0.409E-07 -0.409E-07
 -25.916 -0.199E-07 -0.199E-07
 -25.906  0.238E-08  0.238E-08
 -25.896  0.261E-07  0.261E-07
 -25.886  0.511E-07  0.511E-07
 -25.876  0.777E-07  0.777E-07
 -25.866  0.106E-06  0.106E-06
 -25.856  0.135E-06  0.135E-06
 -25.846  0.166E-06  0.166E-06
 -25.836  0.199E-06  0.199E-06
 -25.826  0.233E-06  0.233E-06
 -25.816  0.268E-06  0.268E-06
 -25.806  0.305E-06  0.305E-06
 -25.796  0.344E-06  0.344E-06
 -25.786  0.384E-06  0.384E-06
 -25.776  0.426E-06  0.426E-06
 -25.766  0.470E-06  0.470E-06
 -25.756  0.515E-06  0.515E-06
 -25.746  0.561E-06  0.561E-06
 -25.736  0.609E-06  0.609E-06
 -25.726  0.659E-06  0.659E-06
 -25.716  0.711E-06  0.711E-06
 -25.706  0.763E-06  0.763E-06
 -25.696  0.818E-06  0.818E-06
 -25.686  0.874E-06  0.874E-06
 -25.676  0.931E-06  0.931E-06
 -25.666  0.990E-06  0.990E-06
 -25.656  0.105E-05  0.105E-05
 -25.646  0.111E-05  0.111E-05
 -25.636  0.117E-05  0.117E-05
 -25.626  0.124E-05  0.124E-05
 -25.616  0.130E-05  0.130E-05
 -25.606  0.137E-05  0.137E-05
 -25.596  0.144E-05  0.144E-05
 -25.586  0.151E-05  0.151E-05
 -25.576  0.158E-05  0.158E-05
 -25.566  0.165E-05  0.165E-05
 -25.556  0.172E-05  0.172E-05
 -25.546  0.179E-05  0.179E-05
 -25.536  0.186E-05  0.186E-05
 -25.526  0.193E-05  0.193E-05
 -25.516  0.201E-05  0.201E-05
 -25.506  0.208E-05  0.208E-05
 -25.496  0.216E-05  0.216E-05
 -25.486  0.223E-05  0.223E-05
 -25.476  0.231E-05  0.231E-05
 -25.466  0.238E-05  0.238E-05
 -25.456  0.246E-05  0.246E-05
 -25.446  0.253E-05  0.253E-05
 -25.436  0.261E-05  0.261E-05
 -25.426  0.268E-05  0.268E-05
 -25.416  0.275E-05  0.275E-05
 -25.406  0.283E-05  0.283E-05
 -25.396  0.290E-05  0.290E-05
 -25.386  0.297E-05  0.297E-05
 -25.376  0.304E-05  0.304E-05
 -25.366  0.311E-05  0.311E-05
 -25.356  0.318E-05  0.318E-05
 -25.346  0.325E-05  0.325E-05
 -25.336  0.331E-05  0.331E-05
 -25.326  0.338E-05  0.338E-05
 -25.316  0.344E-05  0.344E-05
 -25.306  0.350E-05  0.350E-05
 -25.296  0.356E-05  0.356E-05
 -25.286  0.362E-05  0.362E-05
 -25.276  0.368E-05  0.368E-05
 -25.266  0.373E-05  0.373E-05
 -25.256  0.378E-05  0.378E-05
 -25.246  0.383E-05  0.383E-05
 -25.236  0.388E-05  0.388E-05
 -25.226  0.392E-05  0.392E-05
 -25.216  0.396E-05  0.396E-05
 -25.206  0.400E-05  0.400E-05
 -25.196  0.404E-05  0.404E-05
 -25.186  0.408E-05  0.408E-05
 -25.176  0.411E-05  0.411E-05
 -25.166  0.414E-05  0.414E-05
 -25.156  0.416E-05  0.416E-05
 -25.146  0.419E-05  0.419E-05
 -25.136  0.421E-05  0.421E-05
 -25.126  0.422E-05  0.422E-05
 -25.116  0.424E-05  0.424E-05
 -25.106  0.425E-05  0.425E-05
 -25.096  0.426E-05  0.426E-05
 -25.086  0.426E-05  0.426E-05
 -25.076  0.427E-05  0.427E-05
 -25.066  0.427E-05  0.427E-05
 -25.056  0.426E-05  0.426E-05
 -25.046  0.425E-05  0.425E-05
 -25.036  0.424E-05  0.424E-05
 -25.026  0.423E-05  0.423E-05
 -25.016  0.421E-05  0.421E-05
 -25.006  0.420E-05  0.420E-05
 -24.996  0.417E-05  0.417E-05
 -24.986  0.415E-05  0.415E-05
 -24.976  0.412E-05  0.412E-05
 -24.966  0.409E-05  0.409E-05
 -24.956  0.406E-05  0.406E-05
 -24.946  0.402E-05  0.402E-05
 -24.936  0.398E-05  0.398E-05
 -24.926  0.394E-05  0.394E-05
 -24.916  0.390E-05  0.390E-05
 -24.906  0.385E-05  0.385E-05
 -24.896  0.380E-05  0.380E-05
 -24.886  0.375E-05  0.375E-05
 -24.876  0.370E-05  0.370E-05
 -24.866  0.364E-05  0.364E-05
 -24.856  0.359E-05  0.359E-05
 -24.846  0.353E-05  0.353E-05
 -24.836  0.347E-05  0.347E-05
 -24.826  0.341E-05  0.341E-05
 -24.816  0.334E-05  0.334E-05
 -24.806  0.328E-05  0.328E-05
 -24.796  0.321E-05  0.321E-05
 -24.786  0.314E-05  0.314E-05
 -24.776  0.307E-05  0.307E-05
 -24.766  0.300E-05  0.300E-05
 -24.756  0.293E-05  0.293E-05
 -24.746  0.286E-05  0.286E-05
 -24.736  0.279E-05  0.279E-05
 -24.726  0.271E-05  0.271E-05
 -24.716  0.264E-05  0.264E-05
 -24.706  0.256E-05  0.256E-05
 -24.696  0.249E-05  0.249E-05
 -24.686  0.241E-05  0.241E-05
 -24.676  0.234E-05  0.234E-05
 -24.666  0.226E-05  0.226E-05
 -24.656  0.219E-05  0.219E-05
 -24.646  0.211E-05  0.211E-05
 -24.636  0.204E-05  0.204E-05
 -24.626  0.197E-05  0.197E-05
 -24.616  0.189E-05  0.189E-05
 -24.606  0.182E-05  0.182E-05
 -24.596  0.175E-05  0.175E-05
 -24.586  0.168E-05  0.168E-05
 -24.576  0.161E-05  0.161E-05
 -24.566  0.154E-05  0.154E-05
 -24.556  0.147E-05  0.147E-05
 -24.546  0.140E-05  0.140E-05
 -24.536  0.133E-05  0.133E-05
 -24.526  0.127E-05  0.127E-05
 -24.516  0.120E-05  0.120E-05
 -24.506  0.114E-05  0.114E-05
 -24.496  0.108E-05  0.108E-05
 -24.486  0.102E-05  0.102E-05
 -24.476  0.956E-06  0.956E-06
 -24.466  0.898E-06  0.898E-06
 -24.456  0.842E-06  0.842E-06
 -24.446  0.787E-06  0.787E-06
 -24.436  0.733E-06  0.733E-06
 -24.426  0.681E-06  0.681E-06
 -24.416  0.631E-06  0.631E-06
 -24.406  0.582E-06  0.582E-06
 -24.396  0.534E-06  0.534E-06
 -24.386  0.489E-06  0.489E-06
 -24.376  0.445E-06  0.445E-06
 -24.366  0.402E-06  0.402E-06
 -24.356  0.361E-06  0.361E-06
 -24.346  0.322E-06  0.322E-06
 -24.336  0.284E-06  0.284E-06
 -24.326  0.248E-06  0.248E-06
 -24.316  0.213E-06  0.213E-06
 -24.306  0.180E-06  0.180E-06
 -24.296  0.148E-06  0.148E-06
 -24.286  0.118E-06  0.118E-06
 -24.276  0.895E-07  0.895E-07
 -24.266  0.624E-07  0.624E-07
 -24.256  0.367E-07  0.367E-07
 -24.246  0.124E-07  0.124E-07
 -24.236 -0.105E-07 -0.105E-07
 -24.226 -0.320E-07 -0.320E-07
 -24.216 -0.522E-07 -0.522E-07
 -24.206 -0.712E-07 -0.712E-07
 -24.196 -0.888E-07 -0.888E-07
 -24.186 -0.105E-06 -0.105E-06
 -24.176 -0.120E-06 -0.120E-06
 -24.166 -0.135E-06 -0.135E-06
 -24.156 -0.148E-06 -0.148E-06
 -24.146 -0.159E-06 -0.159E-06
 -24.136 -0.170E-06 -0.170E-06
 -24.126 -0.180E-06 -0.180E-06
 -24.116 -0.189E-06 -0.189E-06
 -24.106 -0.197E-06 -0.197E-06
 -24.096 -0.204E-06 -0.204E-06
 -24.086 -0.210E-06 -0.210E-06
 -24.076 -0.215E-06 -0.215E-06
 -24.066 -0.220E-06 -0.220E-06
 -24.056 -0.224E-06 -0.224E-06
 -24.046 -0.227E-06 -0.227E-06
 -24.036 -0.230E-06 -0.230E-06
 -24.026 -0.231E-06 -0.231E-06
 -24.016 -0.233E-06 -0.233E-06
 -24.006 -0.233E-06 -0.233E-06
 -23.996 -0.233E-06 -0.233E-06
 -23.986 -0.233E-06 -0.233E-06
 -23.976 -0.232E-06 -0.232E-06
 -23.966 -0.231E-06 -0.231E-06
 -23.956 -0.229E-06 -0.229E-06
 -23.946 -0.227E-06 -0.227E-06
 -23.936 -0.225E-06 -0.225E-06
 -23.926 -0.222E-06 -0.222E-06
 -23.916 -0.219E-06 -0.219E-06
 -23.906 -0.216E-06 -0.216E-06
 -23.896 -0.213E-06 -0.213E-06
 -23.886 -0.209E-06 -0.209E-06
 -23.876 -0.205E-06 -0.205E-06
 -23.866 -0.201E-06 -0.201E-06
 -23.856 -0.197E-06 -0.197E-06
 -23.846 -0.192E-06 -0.192E-06
 -23.836 -0.188E-06 -0.188E-06
 -23.826 -0.183E-06 -0.183E-06
 -23.816 -0.179E-06 -0.179E-06
 -23.806 -0.174E-06 -0.174E-06
 -23.796 -0.169E-06 -0.169E-06
 -23.786 -0.165E-06 -0.165E-06
 -23.776 -0.160E-06 -0.160E-06
 -23.766 -0.155E-06 -0.155E-06
 -23.756 -0.150E-06 -0.150E-06
 -23.746 -0.146E-06 -0.146E-06
 -23.736 -0.141E-06 -0.141E-06
 -23.726 -0.136E-06 -0.136E-06
 -23.716 -0.131E-06 -0.131E-06
 -23.706 -0.127E-06 -0.127E-06
 -23.696 -0.122E-06 -0.122E-06
 -23.686 -0.118E-06 -0.118E-06
 -23.676 -0.114E-06 -0.114E-06
 -23.666 -0.109E-06 -0.109E-06
 -23.656 -0.105E-06 -0.105E-06
 -23.646 -0.101E-06 -0.101E-06
 -23.636 -0.969E-07 -0.969E-07
 -23.626 -0.929E-07 -0.929E-07
 -23.616 -0.891E-07 -0.891E-07
 -23.606 -0.853E-07 -0.853E-07
 -23.596 -0.817E-07 -0.817E-07
 -23.586 -0.781E-07 -0.781E-07
 -23.576 -0.747E-07 -0.747E-07
 -23.566 -0.714E-07 -0.714E-07
 -23.556 -0.681E-07 -0.681E-07
 -23.546 -0.650E-07 -0.650E-07
 -23.536 -0.620E-07 -0.620E-07
 -23.526 -0.590E-07 -0.590E-07
 -23.516 -0.562E-07 -0.562E-07
 -23.506 -0.535E-07 -0.535E-07
 -23.496 -0.509E-07 -0.509E-07
 -23.486 -0.483E-07 -0.483E-07
 -23.476 -0.459E-07 -0.459E-07
 -23.466 -0.436E-07 -0.436E-07
 -23.456 -0.413E-07 -0.413E-07
 -23.446 -0.392E-07 -0.392E-07
 -23.436 -0.371E-07 -0.371E-07
 -23.426 -0.352E-07 -0.352E-07
 -23.416 -0.333E-07 -0.333E-07
 -23.406 -0.315E-07 -0.315E-07
 -23.396 -0.297E-07 -0.297E-07
 -23.386 -0.281E-07 -0.281E-07
 -23.376 -0.265E-07 -0.265E-07
 -23.366 -0.250E-07 -0.250E-07
 -23.356 -0.236E-07 -0.236E-07
 -23.346 -0.222E-07 -0.222E-07
 -23.336 -0.209E-07 -0.209E-07
 -23.326 -0.197E-07 -0.197E-07
 -23.316 -0.185E-07 -0.185E-07
 -23.306 -0.174E-07 -0.174E-07
 -23.296 -0.164E-07 -0.164E-07
 -23.286 -0.154E-07 -0.154E-07
 -23.276 -0.144E-07 -0.144E-07
 -23.266 -0.136E-07 -0.136E-07
 -23.256 -0.127E-07 -0.127E-07
 -23.246 -0.119E-07 -0.119E-07
 -23.236 -0.112E-07 -0.112E-07
 -23.226 -0.104E-07 -0.104E-07
 -23.216 -0.977E-08 -0.977E-08
 -23.206 -0.914E-08 -0.914E-08
 -23.196 -0.854E-08 -0.854E-08
 -23.186 -0.798E-08 -0.798E-08
 -23.176 -0.745E-08 -0.745E-08
 -23.166 -0.695E-08 -0.695E-08
 -23.156 -0.648E-08 -0.648E-08
 -23.146 -0.604E-08 -0.604E-08
 -23.136 -0.563E-08 -0.563E-08
 -23.126 -0.524E-08 -0.524E-08
 -23.116 -0.488E-08 -0.488E-08
 -23.106 -0.454E-08 -0.454E-08
 -23.096 -0.422E-08 -0.422E-08
 -23.086 -0.392E-08 -0.392E-08
 -23.076 -0.364E-08 -0.364E-08
 -23.066 -0.338E-08 -0.338E-08
 -23.056 -0.314E-08 -0.314E-08
 -23.046 -0.291E-08 -0.291E-08
 -23.036 -0.270E-08 -0.270E-08
 -23.026 -0.250E-08 -0.250E-08
 -23.016 -0.232E-08 -0.232E-08
 -23.006 -0.214E-08 -0.214E-08
 -22.996 -0.198E-08 -0.198E-08
 -22.986 -0.184E-08 -0.184E-08
 -22.976 -0.170E-08 -0.170E-08
 -22.966 -0.157E-08 -0.157E-08
 -22.956 -0.145E-08 -0.145E-08
 -22.946 -0.134E-08 -0.134E-08
 -22.936 -0.124E-08 -0.124E-08
 -22.926 -0.114E-08 -0.114E-08
 -22.916 -0.106E-08 -0.106E-08
 -22.906 -0.977E-09 -0.977E-09
 -22.896 -0.902E-09 -0.902E-09
 -22.886 -0.834E-09 -0.834E-09
 -22.876 -0.771E-09 -0.771E-09
 -22.866 -0.714E-09 -0.714E-09
 -22.856 -0.661E-09 -0.661E-09
 -22.846 -0.613E-09 -0.613E-09
 -22.836 -0.569E-09 -0.569E-09
 -22.826 -0.529E-09 -0.529E-09
 -22.816 -0.493E-09 -0.493E-09
 -22.806 -0.461E-09 -0.461E-09
 -22.796 -0.432E-09 -0.432E-09
 -22.786 -0.407E-09 -0.407E-09
 -22.776 -0.385E-09 -0.385E-09
 -22.766 -0.365E-09 -0.365E-09
 -22.756 -0.349E-09 -0.349E-09
 -22.746 -0.335E-09 -0.335E-09
 -22.736 -0.324E-09 -0.324E-09
 -22.726 -0.316E-09 -0.316E-09
 -22.716 -0.310E-09 -0.310E-09
 -22.706 -0.307E-09 -0.307E-09
 -22.696 -0.306E-09 -0.306E-09
 -22.686 -0.308E-09 -0.308E-09
 -22.676 -0.313E-09 -0.313E-09
 -22.666 -0.320E-09 -0.320E-09
 -22.656 -0.330E-09 -0.330E-09
 -22.646 -0.342E-09 -0.342E-09
 -22.636 -0.358E-09 -0.358E-09
 -22.626 -0.376E-09 -0.376E-09
 -22.616 -0.397E-09 -0.397E-09
 -22.606 -0.422E-09 -0.422E-09
 -22.596 -0.449E-09 -0.449E-09
 -22.586 -0.481E-09 -0.481E-09
 -22.576 -0.516E-09 -0.516E-09
 -22.566 -0.555E-09 -0.555E-09
 -22.556 -0.598E-09 -0.598E-09
 -22.546 -0.645E-09 -0.645E-09
 -22.536 -0.697E-09 -0.697E-09
 -22.526 -0.754E-09 -0.754E-09
 -22.516 -0.817E-09 -0.817E-09
 -22.506 -0.885E-09 -0.885E-09
 -22.496 -0.959E-09 -0.959E-09
 -22.486 -0.104E-08 -0.104E-08
 -22.476 -0.113E-08 -0.113E-08
 -22.466 -0.122E-08 -0.122E-08
 -22.456 -0.133E-08 -0.133E-08
 -22.446 -0.144E-08 -0.144E-08
 -22.436 -0.156E-08 -0.156E-08
 -22.426 -0.169E-08 -0.169E-08
 -22.416 -0.183E-08 -0.183E-08
 -22.406 -0.198E-08 -0.198E-08
 -22.396 -0.214E-08 -0.214E-08
 -22.386 -0.232E-08 -0.232E-08
 -22.376 -0.251E-08 -0.251E-08
 -22.366 -0.271E-08 -0.271E-08
 -22.356 -0.293E-08 -0.293E-08
 -22.346 -0.317E-08 -0.317E-08
 -22.336 -0.342E-08 -0.342E-08
 -22.326 -0.369E-08 -0.369E-08
 -22.316 -0.399E-08 -0.399E-08
 -22.306 -0.430E-08 -0.430E-08
 -22.296 -0.463E-08 -0.463E-08
 -22.286 -0.499E-08 -0.499E-08
 -22.276 -0.537E-08 -0.537E-08
 -22.266 -0.578E-08 -0.578E-08
 -22.256 -0.622E-08 -0.622E-08
 -22.246 -0.668E-08 -0.668E-08
 -22.236 -0.718E-08 -0.718E-08
 -22.226 -0.771E-08 -0.771E-08
 -22.216 -0.828E-08 -0.828E-08
 -22.206 -0.888E-08 -0.888E-08
 -22.196 -0.952E-08 -0.952E-08
 -22.186 -0.102E-07 -0.102E-07
 -22.176 -0.109E-07 -0.109E-07
 -22.166 -0.117E-07 -0.117E-07
 -22.156 -0.125E-07 -0.125E-07
 -22.146 -0.134E-07 -0.134E-07
 -22.136 -0.143E-07 -0.143E-07
 -22.126 -0.153E-07 -0.153E-07
 -22.116 -0.163E-07 -0.163E-07
 -22.106 -0.174E-07 -0.174E-07
 -22.096 -0.186E-07 -0.186E-07
 -22.086 -0.198E-07 -0.198E-07
 -22.076 -0.211E-07 -0.211E-07
 -22.066 -0.225E-07 -0.225E-07
 -22.056 -0.239E-07 -0.239E-07
 -22.046 -0.254E-07 -0.254E-07
 -22.036 -0.270E-07 -0.270E-07
 -22.026 -0.287E-07 -0.287E-07
 -22.016 -0.305E-07 -0.305E-07
 -22.006 -0.323E-07 -0.323E-07
 -21.996 -0.343E-07 -0.343E-07
 -21.986 -0.363E-07 -0.363E-07
 -21.976 -0.385E-07 -0.385E-07
 -21.966 -0.408E-07 -0.408E-07
 -21.956 -0.431E-07 -0.431E-07
 -21.946 -0.456E-07 -0.456E-07
 -21.936 -0.482E-07 -0.482E-07
 -21.926 -0.509E-07 -0.509E-07
 -21.916 -0.537E-07 -0.537E-07
 -21.906 -0.567E-07 -0.567E-07
 -21.896 -0.597E-07 -0.597E-07
 -21.886 -0.629E-07 -0.629E-07
 -21.876 -0.663E-07 -0.663E-07
 -21.866 -0.697E-07 -0.697E-07
 -21.856 -0.733E-07 -0.733E-07
 -21.846 -0.770E-07 -0.770E-07
 -21.836 -0.809E-07 -0.809E-07
 -21.826 -0.849E-07 -0.849E-07
 -21.816 -0.891E-07 -0.891E-07
 -21.806 -0.934E-07 -0.934E-07
 -21.796 -0.978E-07 -0.978E-07
 -21.786 -0.102E-06 -0.102E-06
 -21.776 -0.107E-06 -0.107E-06
 -21.766 -0.112E-06 -0.112E-06
 -21.756 -0.117E-06 -0.117E-06
 -21.746 -0.122E-06 -0.122E-06
 -21.736 -0.127E-06 -0.127E-06
 -21.726 -0.133E-06 -0.133E-06
 -21.716 -0.138E-06 -0.138E-06
 -21.706 -0.144E-06 -0.144E-06
 -21.696 -0.150E-06 -0.150E-06
 -21.686 -0.156E-06 -0.156E-06
 -21.676 -0.162E-06 -0.162E-06
 -21.666 -0.168E-06 -0.168E-06
 -21.656 -0.174E-06 -0.174E-06
 -21.646 -0.180E-06 -0.180E-06
 -21.636 -0.187E-06 -0.187E-06
 -21.626 -0.193E-06 -0.193E-06
 -21.616 -0.200E-06 -0.200E-06
 -21.606 -0.206E-06 -0.206E-06
 -21.596 -0.213E-06 -0.213E-06
 -21.586 -0.219E-06 -0.219E-06
 -21.576 -0.226E-06 -0.226E-06
 -21.566 -0.232E-06 -0.232E-06
 -21.556 -0.239E-06 -0.239E-06
 -21.546 -0.245E-06 -0.245E-06
 -21.536 -0.251E-06 -0.251E-06
 -21.526 -0.258E-06 -0.258E-06
 -21.516 -0.264E-06 -0.264E-06
 -21.506 -0.270E-06 -0.270E-06
 -21.496 -0.276E-06 -0.276E-06
 -21.486 -0.281E-06 -0.281E-06
 -21.476 -0.286E-06 -0.286E-06
 -21.466 -0.292E-06 -0.292E-06
 -21.456 -0.296E-06 -0.296E-06
 -21.446 -0.301E-06 -0.301E-06
 -21.436 -0.305E-06 -0.305E-06
 -21.426 -0.309E-06 -0.309E-06
 -21.416 -0.312E-06 -0.312E-06
 -21.406 -0.315E-06 -0.315E-06
 -21.396 -0.317E-06 -0.317E-06
 -21.386 -0.319E-06 -0.319E-06
 -21.376 -0.320E-06 -0.320E-06
 -21.366 -0.320E-06 -0.320E-06
 -21.356 -0.320E-06 -0.320E-06
 -21.346 -0.319E-06 -0.319E-06
 -21.336 -0.318E-06 -0.318E-06
 -21.326 -0.315E-06 -0.315E-06
 -21.316 -0.312E-06 -0.312E-06
 -21.306 -0.307E-06 -0.307E-06
 -21.296 -0.302E-06 -0.302E-06
 -21.286 -0.296E-06 -0.296E-06
 -21.276 -0.289E-06 -0.289E-06
 -21.266 -0.280E-06 -0.280E-06
 -21.256 -0.271E-06 -0.271E-06
 -21.246 -0.260E-06 -0.260E-06
 -21.236 -0.248E-06 -0.248E-06
 -21.226 -0.234E-06 -0.234E-06
 -21.216 -0.219E-06 -0.219E-06
 -21.206 -0.203E-06 -0.203E-06
 -21.196 -0.185E-06 -0.185E-06
 -21.186 -0.166E-06 -0.166E-06
 -21.176 -0.145E-06 -0.145E-06
 -21.166 -0.123E-06 -0.123E-06
 -21.156 -0.988E-07 -0.988E-07
 -21.146 -0.730E-07 -0.730E-07
 -21.136 -0.453E-07 -0.453E-07
 -21.126 -0.159E-07 -0.159E-07
 -21.116  0.154E-07  0.154E-07
 -21.106  0.486E-07  0.486E-07
 -21.096  0.837E-07  0.837E-07
 -21.086  0.121E-06  0.121E-06
 -21.076  0.160E-06  0.160E-06
 -21.066  0.201E-06  0.201E-06
 -21.056  0.244E-06  0.244E-06
 -21.046  0.289E-06  0.289E-06
 -21.036  0.337E-06  0.337E-06
 -21.026  0.386E-06  0.386E-06
 -21.016  0.438E-06  0.438E-06
 -21.006  0.492E-06  0.492E-06
 -20.996  0.548E-06  0.548E-06
 -20.986  0.606E-06  0.606E-06
 -20.976  0.666E-06  0.666E-06
 -20.966  0.729E-06  0.729E-06
 -20.956  0.793E-06  0.793E-06
 -20.946  0.860E-06  0.860E-06
 -20.936  0.929E-06  0.929E-06
 -20.926  0.100E-05  0.100E-05
 -20.916  0.107E-05  0.107E-05
 -20.906  0.115E-05  0.115E-05
 -20.896  0.122E-05  0.122E-05
 -20.886  0.130E-05  0.130E-05
 -20.876  0.138E-05  0.138E-05
 -20.866  0.147E-05  0.147E-05
 -20.856  0.155E-05  0.155E-05
 -20.846  0.164E-05  0.164E-05
 -20.836  0.173E-05  0.173E-05
 -20.826  0.182E-05  0.182E-05
 -20.816  0.191E-05  0.191E-05
 -20.806  0.200E-05  0.200E-05
 -20.796  0.209E-05  0.209E-05
 -20.786  0.219E-05  0.219E-05
 -20.776  0.228E-05  0.228E-05
 -20.766  0.238E-05  0.238E-05
 -20.756  0.248E-05  0.248E-05
 -20.746  0.258E-05  0.258E-05
 -20.736  0.268E-05  0.268E-05
 -20.726  0.278E-05  0.278E-05
 -20.716  0.288E-05  0.288E-05
 -20.706  0.298E-05  0.298E-05
 -20.696  0.308E-05  0.308E-05
 -20.686  0.319E-05  0.319E-05
 -20.676  0.329E-05  0.329E-05
 -20.666  0.339E-05  0.339E-05
 -20.656  0.349E-05  0.349E-05
 -20.646  0.359E-05  0.359E-05
 -20.636  0.369E-05  0.369E-05
 -20.626  0.379E-05  0.379E-05
 -20.616  0.389E-05  0.389E-05
 -20.606  0.398E-05  0.398E-05
 -20.596  0.408E-05  0.408E-05
 -20.586  0.417E-05  0.417E-05
 -20.576  0.427E-05  0.427E-05
 -20.566  0.436E-05  0.436E-05
 -20.556  0.445E-05  0.445E-05
 -20.546  0.454E-05  0.454E-05
 -20.536  0.462E-05  0.462E-05
 -20.526  0.470E-05  0.470E-05
 -20.516  0.478E-05  0.478E-05
 -20.506  0.486E-05  0.486E-05
 -20.496  0.494E-05  0.494E-05
 -20.486  0.501E-05  0.501E-05
 -20.476  0.508E-05  0.508E-05
 -20.466  0.515E-05  0.515E-05
 -20.456  0.521E-05  0.521E-05
 -20.446  0.527E-05  0.527E-05
 -20.436  0.533E-05  0.533E-05
 -20.426  0.538E-05  0.538E-05
 -20.416  0.543E-05  0.543E-05
 -20.406  0.548E-05  0.548E-05
 -20.396  0.552E-05  0.552E-05
 -20.386  0.556E-05  0.556E-05
 -20.376  0.559E-05  0.559E-05
 -20.366  0.562E-05  0.562E-05
 -20.356  0.565E-05  0.565E-05
 -20.346  0.567E-05  0.567E-05
 -20.336  0.569E-05  0.569E-05
 -20.326  0.571E-05  0.571E-05
 -20.316  0.572E-05  0.572E-05
 -20.306  0.572E-05  0.572E-05
 -20.296  0.573E-05  0.573E-05
 -20.286  0.572E-05  0.572E-05
 -20.276  0.572E-05  0.572E-05
 -20.266  0.571E-05  0.571E-05
 -20.256  0.569E-05  0.569E-05
 -20.246  0.567E-05  0.567E-05
 -20.236  0.565E-05  0.565E-05
 -20.226  0.562E-05  0.562E-05
 -20.216  0.559E-05  0.559E-05
 -20.206  0.555E-05  0.555E-05
 -20.196  0.552E-05  0.552E-05
 -20.186  0.547E-05  0.547E-05
 -20.176  0.543E-05  0.543E-05
 -20.166  0.538E-05  0.538E-05
 -20.156  0.532E-05  0.532E-05
 -20.146  0.527E-05  0.527E-05
 -20.136  0.521E-05  0.521E-05
 -20.126  0.514E-05  0.514E-05
 -20.116  0.508E-05  0.508E-05
 -20.106  0.501E-05  0.501E-05
 -20.096  0.494E-05  0.494E-05
 -20.086  0.486E-05  0.486E-05
 -20.076  0.479E-05  0.479E-05
 -20.066  0.471E-05  0.471E-05
 -20.056  0.463E-05  0.463E-05
 -20.046  0.454E-05  0.454E-05
 -20.036  0.446E-05  0.446E-05
 -20.026  0.437E-05  0.437E-05
 -20.016  0.429E-05  0.429E-05
 -20.006  0.420E-05  0.420E-05
 -19.996  0.411E-05  0.411E-05
 -19.986  0.401E-05  0.401E-05
 -19.976  0.392E-05  0.392E-05
 -19.966  0.383E-05  0.383E-05
 -19.956  0.374E-05  0.374E-05
 -19.946  0.364E-05  0.364E-05
 -19.936  0.355E-05  0.355E-05
 -19.926  0.346E-05  0.346E-05
 -19.916  0.337E-05  0.337E-05
 -19.906  0.327E-05  0.327E-05
 -19.896  0.318E-05  0.318E-05
 -19.886  0.309E-05  0.309E-05
 -19.876  0.300E-05  0.300E-05
 -19.866  0.291E-05  0.291E-05
 -19.856  0.283E-05  0.283E-05
 -19.846  0.274E-05  0.274E-05
 -19.836  0.266E-05  0.266E-05
 -19.826  0.258E-05  0.258E-05
 -19.816  0.250E-05  0.250E-05
 -19.806  0.242E-05  0.242E-05
 -19.796  0.234E-05  0.234E-05
 -19.786  0.227E-05  0.227E-05
 -19.776  0.219E-05  0.219E-05
 -19.766  0.213E-05  0.213E-05
 -19.756  0.206E-05  0.206E-05
 -19.746  0.200E-05  0.200E-05
 -19.736  0.193E-05  0.193E-05
 -19.726  0.188E-05  0.188E-05
 -19.716  0.182E-05  0.182E-05
 -19.706  0.177E-05  0.177E-05
 -19.696  0.172E-05  0.172E-05
 -19.686  0.167E-05  0.167E-05
 -19.676  0.163E-05  0.163E-05
 -19.666  0.159E-05  0.159E-05
 -19.656  0.155E-05  0.155E-05
 -19.646  0.152E-05  0.152E-05
 -19.636  0.149E-05  0.149E-05
 -19.626  0.147E-05  0.147E-05
 -19.616  0.144E-05  0.144E-05
 -19.606  0.142E-05  0.142E-05
 -19.596  0.141E-05  0.141E-05
 -19.586  0.139E-05  0.139E-05
 -19.576  0.138E-05  0.138E-05
 -19.566  0.137E-05  0.137E-05
 -19.556  0.137E-05  0.137E-05
 -19.546  0.137E-05  0.137E-05
 -19.536  0.137E-05  0.137E-05
 -19.526  0.138E-05  0.138E-05
 -19.516  0.138E-05  0.138E-05
 -19.506  0.140E-05  0.140E-05
 -19.496  0.141E-05  0.141E-05
 -19.486  0.143E-05  0.143E-05
 -19.476  0.144E-05  0.144E-05
 -19.466  0.147E-05  0.147E-05
 -19.456  0.149E-05  0.149E-05
 -19.446  0.152E-05  0.152E-05
 -19.436  0.154E-05  0.154E-05
 -19.426  0.157E-05  0.157E-05
 -19.416  0.161E-05  0.161E-05
 -19.406  0.164E-05  0.164E-05
 -19.396  0.168E-05  0.168E-05
 -19.386  0.171E-05  0.171E-05
 -19.376  0.175E-05  0.175E-05
 -19.366  0.179E-05  0.179E-05
 -19.356  0.183E-05  0.183E-05
 -19.346  0.187E-05  0.187E-05
 -19.336  0.192E-05  0.192E-05
 -19.326  0.196E-05  0.196E-05
 -19.316  0.201E-05  0.201E-05
 -19.306  0.205E-05  0.205E-05
 -19.296  0.210E-05  0.210E-05
 -19.286  0.214E-05  0.214E-05
 -19.276  0.219E-05  0.219E-05
 -19.266  0.223E-05  0.223E-05
 -19.256  0.228E-05  0.228E-05
 -19.246  0.232E-05  0.232E-05
 -19.236  0.237E-05  0.237E-05
 -19.226  0.241E-05  0.241E-05
 -19.216  0.246E-05  0.246E-05
 -19.206  0.250E-05  0.250E-05
 -19.196  0.254E-05  0.254E-05
 -19.186  0.258E-05  0.258E-05
 -19.176  0.262E-05  0.262E-05
 -19.166  0.266E-05  0.266E-05
 -19.156  0.270E-05  0.270E-05
 -19.146  0.273E-05  0.273E-05
 -19.136  0.277E-05  0.277E-05
 -19.126  0.280E-05  0.280E-05
 -19.116  0.283E-05  0.283E-05
 -19.106  0.286E-05  0.286E-05
 -19.096  0.289E-05  0.289E-05
 -19.086  0.291E-05  0.291E-05
 -19.076  0.294E-05  0.294E-05
 -19.066  0.296E-05  0.296E-05
 -19.056  0.298E-05  0.298E-05
 -19.046  0.299E-05  0.299E-05
 -19.036  0.301E-05  0.301E-05
 -19.026  0.302E-05  0.302E-05
 -19.016  0.303E-05  0.303E-05
 -19.006  0.304E-05  0.304E-05
 -18.996  0.305E-05  0.305E-05
 -18.986  0.305E-05  0.305E-05
 -18.976  0.305E-05  0.305E-05
 -18.966  0.305E-05  0.305E-05
 -18.956  0.304E-05  0.304E-05
 -18.946  0.304E-05  0.304E-05
 -18.936  0.303E-05  0.303E-05
 -18.926  0.302E-05  0.302E-05
 -18.916  0.301E-05  0.301E-05
 -18.906  0.299E-05  0.299E-05
 -18.896  0.297E-05  0.297E-05
 -18.886  0.295E-05  0.295E-05
 -18.876  0.293E-05  0.293E-05
 -18.866  0.291E-05  0.291E-05
 -18.856  0.288E-05  0.288E-05
 -18.846  0.285E-05  0.285E-05
 -18.836  0.282E-05  0.282E-05
 -18.826  0.279E-05  0.279E-05
 -18.816  0.275E-05  0.275E-05
 -18.806  0.272E-05  0.272E-05
 -18.796  0.268E-05  0.268E-05
 -18.786  0.264E-05  0.264E-05
 -18.776  0.260E-05  0.260E-05
 -18.766  0.255E-05  0.255E-05
 -18.756  0.251E-05  0.251E-05
 -18.746  0.246E-05  0.246E-05
 -18.736  0.242E-05  0.242E-05
 -18.726  0.237E-05  0.237E-05
 -18.716  0.232E-05  0.232E-05
 -18.706  0.227E-05  0.227E-05
 -18.696  0.222E-05  0.222E-05
 -18.686  0.216E-05  0.216E-05
 -18.676  0.211E-05  0.211E-05
 -18.666  0.206E-05  0.206E-05
 -18.656  0.200E-05  0.200E-05
 -18.646  0.195E-05  0.195E-05
 -18.636  0.189E-05  0.189E-05
 -18.626  0.184E-05  0.184E-05
 -18.616  0.178E-05  0.178E-05
 -18.606  0.172E-05  0.172E-05
 -18.596  0.166E-05  0.166E-05
 -18.586  0.161E-05  0.161E-05
 -18.576  0.155E-05  0.155E-05
 -18.566  0.149E-05  0.149E-05
 -18.556  0.144E-05  0.144E-05
 -18.546  0.138E-05  0.138E-05
 -18.536  0.132E-05  0.132E-05
 -18.526  0.127E-05  0.127E-05
 -18.516  0.121E-05  0.121E-05
 -18.506  0.115E-05  0.115E-05
 -18.496  0.110E-05  0.110E-05
 -18.486  0.104E-05  0.104E-05
 -18.476  0.990E-06  0.990E-06
 -18.466  0.937E-06  0.937E-06
 -18.456  0.884E-06  0.884E-06
 -18.446  0.832E-06  0.832E-06
 -18.436  0.781E-06  0.781E-06
 -18.426  0.730E-06  0.730E-06
 -18.416  0.681E-06  0.681E-06
 -18.406  0.632E-06  0.632E-06
 -18.396  0.584E-06  0.584E-06
 -18.386  0.537E-06  0.537E-06
 -18.376  0.491E-06  0.491E-06
 -18.366  0.446E-06  0.446E-06
 -18.356  0.402E-06  0.402E-06
 -18.346  0.359E-06  0.359E-06
 -18.336  0.317E-06  0.317E-06
 -18.326  0.276E-06  0.276E-06
 -18.316  0.236E-06  0.236E-06
 -18.306  0.197E-06  0.197E-06
 -18.296  0.159E-06  0.159E-06
 -18.286  0.122E-06  0.122E-06
 -18.276  0.863E-07  0.863E-07
 -18.266  0.517E-07  0.517E-07
 -18.256  0.181E-07  0.181E-07
 -18.246 -0.144E-07 -0.144E-07
 -18.236 -0.458E-07 -0.458E-07
 -18.226 -0.762E-07 -0.762E-07
 -18.216 -0.106E-06 -0.106E-06
 -18.206 -0.134E-06 -0.134E-06
 -18.196 -0.161E-06 -0.161E-06
 -18.186 -0.187E-06 -0.187E-06
 -18.176 -0.212E-06 -0.212E-06
 -18.166 -0.236E-06 -0.236E-06
 -18.156 -0.259E-06 -0.259E-06
 -18.146 -0.281E-06 -0.281E-06
 -18.136 -0.302E-06 -0.302E-06
 -18.126 -0.322E-06 -0.322E-06
 -18.116 -0.341E-06 -0.341E-06
 -18.106 -0.359E-06 -0.359E-06
 -18.096 -0.376E-06 -0.376E-06
 -18.086 -0.392E-06 -0.392E-06
 -18.076 -0.407E-06 -0.407E-06
 -18.066 -0.421E-06 -0.421E-06
 -18.056 -0.433E-06 -0.433E-06
 -18.046 -0.445E-06 -0.445E-06
 -18.036 -0.456E-06 -0.456E-06
 -18.026 -0.466E-06 -0.466E-06
 -18.016 -0.475E-06 -0.475E-06
 -18.006 -0.483E-06 -0.483E-06
 -17.996 -0.490E-06 -0.490E-06
 -17.986 -0.495E-06 -0.495E-06
 -17.976 -0.500E-06 -0.500E-06
 -17.966 -0.504E-06 -0.504E-06
 -17.956 -0.506E-06 -0.506E-06
 -17.946 -0.508E-06 -0.508E-06
 -17.936 -0.508E-06 -0.508E-06
 -17.926 -0.508E-06 -0.508E-06
 -17.916 -0.506E-06 -0.506E-06
 -17.906 -0.503E-06 -0.503E-06
 -17.896 -0.498E-06 -0.498E-06
 -17.886 -0.493E-06 -0.493E-06
 -17.876 -0.486E-06 -0.486E-06
 -17.866 -0.478E-06 -0.478E-06
 -17.856 -0.469E-06 -0.469E-06
 -17.846 -0.458E-06 -0.458E-06
 -17.836 -0.446E-06 -0.446E-06
 -17.826 -0.432E-06 -0.432E-06
 -17.816 -0.418E-06 -0.418E-06
 -17.806 -0.401E-06 -0.401E-06
 -17.796 -0.383E-06 -0.383E-06
 -17.786 -0.364E-06 -0.364E-06
 -17.776 -0.343E-06 -0.343E-06
 -17.766 -0.321E-06 -0.321E-06
 -17.756 -0.296E-06 -0.296E-06
 -17.746 -0.271E-06 -0.271E-06
 -17.736 -0.243E-06 -0.243E-06
 -17.726 -0.214E-06 -0.214E-06
 -17.716 -0.183E-06 -0.183E-06
 -17.706 -0.150E-06 -0.150E-06
 -17.696 -0.115E-06 -0.115E-06
 -17.686 -0.787E-07 -0.787E-07
 -17.676 -0.403E-07 -0.403E-07
 -17.666  0.400E-10  0.400E-10
 -17.656  0.423E-07  0.423E-07
 -17.646  0.866E-07  0.866E-07
 -17.636  0.133E-06  0.133E-06
 -17.626  0.181E-06  0.181E-06
 -17.616  0.231E-06  0.231E-06
 -17.606  0.284E-06  0.284E-06
 -17.596  0.338E-06  0.338E-06
 -17.586  0.394E-06  0.394E-06
 -17.576  0.453E-06  0.453E-06
 -17.566  0.513E-06  0.513E-06
 -17.556  0.576E-06  0.576E-06
 -17.546  0.640E-06  0.640E-06
 -17.536  0.707E-06  0.707E-06
 -17.526  0.776E-06  0.776E-06
 -17.516  0.846E-06  0.846E-06
 -17.506  0.919E-06  0.919E-06
 -17.496  0.993E-06  0.993E-06
 -17.486  0.107E-05  0.107E-05
 -17.476  0.115E-05  0.115E-05
 -17.466  0.123E-05  0.123E-05
 -17.456  0.131E-05  0.131E-05
 -17.446  0.139E-05  0.139E-05
 -17.436  0.148E-05  0.148E-05
 -17.426  0.157E-05  0.157E-05
 -17.416  0.166E-05  0.166E-05
 -17.406  0.175E-05  0.175E-05
 -17.396  0.184E-05  0.184E-05
 -17.386  0.193E-05  0.193E-05
 -17.376  0.202E-05  0.202E-05
 -17.366  0.212E-05  0.212E-05
 -17.356  0.222E-05  0.222E-05
 -17.346  0.231E-05  0.231E-05
 -17.336  0.241E-05  0.241E-05
 -17.326  0.251E-05  0.251E-05
 -17.316  0.261E-05  0.261E-05
 -17.306  0.271E-05  0.271E-05
 -17.296  0.281E-05  0.281E-05
 -17.286  0.292E-05  0.292E-05
 -17.276  0.302E-05  0.302E-05
 -17.266  0.312E-05  0.312E-05
 -17.256  0.322E-05  0.322E-05
 -17.246  0.332E-05  0.332E-05
 -17.236  0.343E-05  0.343E-05
 -17.226  0.353E-05  0.353E-05
 -17.216  0.363E-05  0.363E-05
 -17.206  0.373E-05  0.373E-05
 -17.196  0.383E-05  0.383E-05
 -17.186  0.393E-05  0.393E-05
 -17.176  0.403E-05  0.403E-05
 -17.166  0.412E-05  0.412E-05
 -17.156  0.422E-05  0.422E-05
 -17.146  0.431E-05  0.431E-05
 -17.136  0.441E-05  0.441E-05
 -17.126  0.450E-05  0.450E-05
 -17.116  0.459E-05  0.459E-05
 -17.106  0.467E-05  0.467E-05
 -17.096  0.476E-05  0.476E-05
 -17.086  0.484E-05  0.484E-05
 -17.076  0.493E-05  0.493E-05
 -17.066  0.501E-05  0.501E-05
 -17.056  0.508E-05  0.508E-05
 -17.046  0.516E-05  0.516E-05
 -17.036  0.523E-05  0.523E-05
 -17.026  0.530E-05  0.530E-05
 -17.016  0.537E-05  0.537E-05
 -17.006  0.543E-05  0.543E-05
 -16.996  0.549E-05  0.549E-05
 -16.986  0.555E-05  0.555E-05
 -16.976  0.561E-05  0.561E-05
 -16.966  0.566E-05  0.566E-05
 -16.956  0.571E-05  0.571E-05
 -16.946  0.576E-05  0.576E-05
 -16.936  0.580E-05  0.580E-05
 -16.926  0.584E-05  0.584E-05
 -16.916  0.588E-05  0.588E-05
 -16.906  0.591E-05  0.591E-05
 -16.896  0.594E-05  0.594E-05
 -16.886  0.597E-05  0.597E-05
 -16.876  0.599E-05  0.599E-05
 -16.866  0.602E-05  0.602E-05
 -16.856  0.603E-05  0.603E-05
 -16.846  0.605E-05  0.605E-05
 -16.836  0.606E-05  0.606E-05
 -16.826  0.607E-05  0.607E-05
 -16.816  0.607E-05  0.607E-05
 -16.806  0.608E-05  0.608E-05
 -16.796  0.607E-05  0.607E-05
 -16.786  0.607E-05  0.607E-05
 -16.776  0.606E-05  0.606E-05
 -16.766  0.606E-05  0.606E-05
 -16.756  0.604E-05  0.604E-05
 -16.746  0.603E-05  0.603E-05
 -16.736  0.601E-05  0.601E-05
 -16.726  0.599E-05  0.599E-05
 -16.716  0.597E-05  0.597E-05
 -16.706  0.594E-05  0.594E-05
 -16.696  0.592E-05  0.592E-05
 -16.686  0.589E-05  0.589E-05
 -16.676  0.586E-05  0.586E-05
 -16.666  0.583E-05  0.583E-05
 -16.656  0.579E-05  0.579E-05
 -16.646  0.575E-05  0.575E-05
 -16.636  0.572E-05  0.572E-05
 -16.626  0.568E-05  0.568E-05
 -16.616  0.563E-05  0.563E-05
 -16.606  0.559E-05  0.559E-05
 -16.596  0.555E-05  0.555E-05
 -16.586  0.550E-05  0.550E-05
 -16.576  0.545E-05  0.545E-05
 -16.566  0.541E-05  0.541E-05
 -16.556  0.536E-05  0.536E-05
 -16.546  0.531E-05  0.531E-05
 -16.536  0.526E-05  0.526E-05
 -16.526  0.521E-05  0.521E-05
 -16.516  0.516E-05  0.516E-05
 -16.506  0.511E-05  0.511E-05
 -16.496  0.506E-05  0.506E-05
 -16.486  0.500E-05  0.500E-05
 -16.476  0.495E-05  0.495E-05
 -16.466  0.490E-05  0.490E-05
 -16.456  0.484E-05  0.484E-05
 -16.446  0.479E-05  0.479E-05
 -16.436  0.474E-05  0.474E-05
 -16.426  0.469E-05  0.469E-05
 -16.416  0.463E-05  0.463E-05
 -16.406  0.458E-05  0.458E-05
 -16.396  0.453E-05  0.453E-05
 -16.386  0.448E-05  0.448E-05
 -16.376  0.443E-05  0.443E-05
 -16.366  0.437E-05  0.437E-05
 -16.356  0.432E-05  0.432E-05
 -16.346  0.427E-05  0.427E-05
 -16.336  0.422E-05  0.422E-05
 -16.326  0.417E-05  0.417E-05
 -16.316  0.412E-05  0.412E-05
 -16.306  0.407E-05  0.407E-05
 -16.296  0.402E-05  0.402E-05
 -16.286  0.397E-05  0.397E-05
 -16.276  0.393E-05  0.393E-05
 -16.266  0.388E-05  0.388E-05
 -16.256  0.383E-05  0.383E-05
 -16.246  0.378E-05  0.378E-05
 -16.236  0.374E-05  0.374E-05
 -16.226  0.369E-05  0.369E-05
 -16.216  0.364E-05  0.364E-05
 -16.206  0.360E-05  0.360E-05
 -16.196  0.355E-05  0.355E-05
 -16.186  0.351E-05  0.351E-05
 -16.176  0.346E-05  0.346E-05
 -16.166  0.342E-05  0.342E-05
 -16.156  0.337E-05  0.337E-05
 -16.146  0.333E-05  0.333E-05
 -16.136  0.328E-05  0.328E-05
 -16.126  0.324E-05  0.324E-05
 -16.116  0.319E-05  0.319E-05
 -16.106  0.315E-05  0.315E-05
 -16.096  0.311E-05  0.311E-05
 -16.086  0.306E-05  0.306E-05
 -16.076  0.302E-05  0.302E-05
 -16.066  0.297E-05  0.297E-05
 -16.056  0.293E-05  0.293E-05
 -16.046  0.288E-05  0.288E-05
 -16.036  0.284E-05  0.284E-05
 -16.026  0.279E-05  0.279E-05
 -16.016  0.275E-05  0.275E-05
 -16.006  0.270E-05  0.270E-05
 -15.996  0.266E-05  0.266E-05
 -15.986  0.261E-05  0.261E-05
 -15.976  0.257E-05  0.257E-05
 -15.966  0.252E-05  0.252E-05
 -15.956  0.247E-05  0.247E-05
 -15.946  0.243E-05  0.243E-05
 -15.936  0.238E-05  0.238E-05
 -15.926  0.234E-05  0.234E-05
 -15.916  0.229E-05  0.229E-05
 -15.906  0.224E-05  0.224E-05
 -15.896  0.219E-05  0.219E-05
 -15.886  0.215E-05  0.215E-05
 -15.876  0.210E-05  0.210E-05
 -15.866  0.205E-05  0.205E-05
 -15.856  0.200E-05  0.200E-05
 -15.846  0.196E-05  0.196E-05
 -15.836  0.191E-05  0.191E-05
 -15.826  0.186E-05  0.186E-05
 -15.816  0.181E-05  0.181E-05
 -15.806  0.176E-05  0.176E-05
 -15.796  0.171E-05  0.171E-05
 -15.786  0.167E-05  0.167E-05
 -15.776  0.162E-05  0.162E-05
 -15.766  0.157E-05  0.157E-05
 -15.756  0.152E-05  0.152E-05
 -15.746  0.147E-05  0.147E-05
 -15.736  0.143E-05  0.143E-05
 -15.726  0.138E-05  0.138E-05
 -15.716  0.133E-05  0.133E-05
 -15.706  0.128E-05  0.128E-05
 -15.696  0.124E-05  0.124E-05
 -15.686  0.119E-05  0.119E-05
 -15.676  0.115E-05  0.115E-05
 -15.666  0.110E-05  0.110E-05
 -15.656  0.106E-05  0.106E-05
 -15.646  0.101E-05  0.101E-05
 -15.636  0.966E-06  0.966E-06
 -15.626  0.923E-06  0.923E-06
 -15.616  0.879E-06  0.879E-06
 -15.606  0.837E-06  0.837E-06
 -15.596  0.795E-06  0.795E-06
 -15.586  0.754E-06  0.754E-06
 -15.576  0.713E-06  0.713E-06
 -15.566  0.673E-06  0.673E-06
 -15.556  0.634E-06  0.634E-06
 -15.546  0.595E-06  0.595E-06
 -15.536  0.557E-06  0.557E-06
 -15.526  0.520E-06  0.520E-06
 -15.516  0.484E-06  0.484E-06
 -15.506  0.448E-06  0.448E-06
 -15.496  0.413E-06  0.413E-06
 -15.486  0.379E-06  0.379E-06
 -15.476  0.346E-06  0.346E-06
 -15.466  0.313E-06  0.313E-06
 -15.456  0.282E-06  0.282E-06
 -15.446  0.251E-06  0.251E-06
 -15.436  0.221E-06  0.221E-06
 -15.426  0.191E-06  0.191E-06
 -15.416  0.163E-06  0.163E-06
 -15.406  0.135E-06  0.135E-06
 -15.396  0.108E-06  0.108E-06
 -15.386  0.818E-07  0.818E-07
 -15.376  0.564E-07  0.564E-07
 -15.366  0.317E-07  0.317E-07
 -15.356  0.775E-08  0.775E-08
 -15.346 -0.155E-07 -0.155E-07
 -15.336 -0.381E-07 -0.381E-07
 -15.326 -0.600E-07 -0.600E-07
 -15.316 -0.812E-07 -0.812E-07
 -15.306 -0.102E-06 -0.102E-06
 -15.296 -0.122E-06 -0.122E-06
 -15.286 -0.141E-06 -0.141E-06
 -15.276 -0.160E-06 -0.160E-06
 -15.266 -0.178E-06 -0.178E-06
 -15.256 -0.196E-06 -0.196E-06
 -15.246 -0.214E-06 -0.214E-06
 -15.236 -0.231E-06 -0.231E-06
 -15.226 -0.247E-06 -0.247E-06
 -15.216 -0.263E-06 -0.263E-06
 -15.206 -0.279E-06 -0.279E-06
 -15.196 -0.295E-06 -0.295E-06
 -15.186 -0.310E-06 -0.310E-06
 -15.176 -0.325E-06 -0.325E-06
 -15.166 -0.339E-06 -0.339E-06
 -15.156 -0.354E-06 -0.354E-06
 -15.146 -0.368E-06 -0.368E-06
 -15.136 -0.383E-06 -0.383E-06
 -15.126 -0.397E-06 -0.397E-06
 -15.116 -0.411E-06 -0.411E-06
 -15.106 -0.425E-06 -0.425E-06
 -15.096 -0.439E-06 -0.439E-06
 -15.086 -0.453E-06 -0.453E-06
 -15.076 -0.468E-06 -0.468E-06
 -15.066 -0.482E-06 -0.482E-06
 -15.056 -0.496E-06 -0.496E-06
 -15.046 -0.511E-06 -0.511E-06
 -15.036 -0.526E-06 -0.526E-06
 -15.026 -0.541E-06 -0.541E-06
 -15.016 -0.556E-06 -0.556E-06
 -15.006 -0.571E-06 -0.571E-06
 -14.996 -0.587E-06 -0.587E-06
 -14.986 -0.603E-06 -0.603E-06
 -14.976 -0.619E-06 -0.619E-06
 -14.966 -0.636E-06 -0.636E-06
 -14.956 -0.653E-06 -0.653E-06
 -14.946 -0.670E-06 -0.670E-06
 -14.936 -0.688E-06 -0.688E-06
 -14.926 -0.706E-06 -0.706E-06
 -14.916 -0.724E-06 -0.724E-06
 -14.906 -0.743E-06 -0.743E-06
 -14.896 -0.762E-06 -0.762E-06
 -14.886 -0.781E-06 -0.781E-06
 -14.876 -0.801E-06 -0.801E-06
 -14.866 -0.821E-06 -0.821E-06
 -14.856 -0.841E-06 -0.841E-06
 -14.846 -0.861E-06 -0.861E-06
 -14.836 -0.882E-06 -0.882E-06
 -14.826 -0.903E-06 -0.903E-06
 -14.816 -0.925E-06 -0.925E-06
 -14.806 -0.946E-06 -0.946E-06
 -14.796 -0.967E-06 -0.967E-06
 -14.786 -0.989E-06 -0.989E-06
 -14.776 -0.101E-05 -0.101E-05
 -14.766 -0.103E-05 -0.103E-05
 -14.756 -0.105E-05 -0.105E-05
 -14.746 -0.108E-05 -0.108E-05
 -14.736 -0.110E-05 -0.110E-05
 -14.726 -0.112E-05 -0.112E-05
 -14.716 -0.114E-05 -0.114E-05
 -14.706 -0.116E-05 -0.116E-05
 -14.696 -0.118E-05 -0.118E-05
 -14.686 -0.120E-05 -0.120E-05
 -14.676 -0.122E-05 -0.122E-05
 -14.666 -0.123E-05 -0.123E-05
 -14.656 -0.125E-05 -0.125E-05
 -14.646 -0.127E-05 -0.127E-05
 -14.636 -0.128E-05 -0.128E-05
 -14.626 -0.129E-05 -0.129E-05
 -14.616 -0.131E-05 -0.131E-05
 -14.606 -0.132E-05 -0.132E-05
 -14.596 -0.132E-05 -0.132E-05
 -14.586 -0.133E-05 -0.133E-05
 -14.576 -0.134E-05 -0.134E-05
 -14.566 -0.134E-05 -0.134E-05
 -14.556 -0.134E-05 -0.134E-05
 -14.546 -0.134E-05 -0.134E-05
 -14.536 -0.133E-05 -0.133E-05
 -14.526 -0.133E-05 -0.133E-05
 -14.516 -0.132E-05 -0.132E-05
 -14.506 -0.130E-05 -0.130E-05
 -14.496 -0.128E-05 -0.128E-05
 -14.486 -0.126E-05 -0.126E-05
 -14.476 -0.124E-05 -0.124E-05
 -14.466 -0.121E-05 -0.121E-05
 -14.456 -0.118E-05 -0.118E-05
 -14.446 -0.114E-05 -0.114E-05
 -14.436 -0.110E-05 -0.110E-05
 -14.426 -0.106E-05 -0.106E-05
 -14.416 -0.101E-05 -0.101E-05
 -14.406 -0.950E-06 -0.950E-06
 -14.396 -0.888E-06 -0.888E-06
 -14.386 -0.821E-06 -0.821E-06
 -14.376 -0.748E-06 -0.748E-06
 -14.366 -0.668E-06 -0.668E-06
 -14.356 -0.583E-06 -0.583E-06
 -14.346 -0.491E-06 -0.491E-06
 -14.336 -0.392E-06 -0.392E-06
 -14.326 -0.286E-06 -0.286E-06
 -14.316 -0.173E-06 -0.173E-06
 -14.306 -0.525E-07 -0.525E-07
 -14.296  0.755E-07  0.755E-07
 -14.286  0.211E-06  0.211E-06
 -14.276  0.355E-06  0.355E-06
 -14.266  0.507E-06  0.507E-06
 -14.256  0.668E-06  0.668E-06
 -14.246  0.836E-06  0.836E-06
 -14.236  0.101E-05  0.101E-05
 -14.226  0.120E-05  0.120E-05
 -14.216  0.140E-05  0.140E-05
 -14.206  0.160E-05  0.160E-05
 -14.196  0.181E-05  0.181E-05
 -14.186  0.204E-05  0.204E-05
 -14.176  0.227E-05  0.227E-05
 -14.166  0.251E-05  0.251E-05
 -14.156  0.277E-05  0.277E-05
 -14.146  0.303E-05  0.303E-05
 -14.136  0.330E-05  0.330E-05
 -14.126  0.358E-05  0.358E-05
 -14.116  0.387E-05  0.387E-05
 -14.106  0.417E-05  0.417E-05
 -14.096  0.448E-05  0.448E-05
 -14.086  0.480E-05  0.480E-05
 -14.076  0.514E-05  0.514E-05
 -14.066  0.548E-05  0.548E-05
 -14.056  0.583E-05  0.583E-05
 -14.046  0.618E-05  0.618E-05
 -14.036  0.655E-05  0.655E-05
 -14.026  0.693E-05  0.693E-05
 -14.016  0.732E-05  0.732E-05
 -14.006  0.771E-05  0.771E-05
 -13.996  0.812E-05  0.812E-05
 -13.986  0.853E-05  0.853E-05
 -13.976  0.895E-05  0.895E-05
 -13.966  0.938E-05  0.938E-05
 -13.956  0.981E-05  0.981E-05
 -13.946  0.103E-04  0.103E-04
 -13.936  0.107E-04  0.107E-04
 -13.926  0.112E-04  0.112E-04
 -13.916  0.116E-04  0.116E-04
 -13.906  0.121E-04  0.121E-04
 -13.896  0.126E-04  0.126E-04
 -13.886  0.130E-04  0.130E-04
 -13.876  0.135E-04  0.135E-04
 -13.866  0.140E-04  0.140E-04
 -13.856  0.145E-04  0.145E-04
 -13.846  0.150E-04  0.150E-04
 -13.836  0.155E-04  0.155E-04
 -13.826  0.160E-04  0.160E-04
 -13.816  0.165E-04  0.165E-04
 -13.806  0.170E-04  0.170E-04
 -13.796  0.175E-04  0.175E-04
 -13.786  0.180E-04  0.180E-04
 -13.776  0.185E-04  0.185E-04
 -13.766  0.190E-04  0.190E-04
 -13.756  0.195E-04  0.195E-04
 -13.746  0.199E-04  0.199E-04
 -13.736  0.204E-04  0.204E-04
 -13.726  0.209E-04  0.209E-04
 -13.716  0.214E-04  0.214E-04
 -13.706  0.219E-04  0.219E-04
 -13.696  0.223E-04  0.223E-04
 -13.686  0.228E-04  0.228E-04
 -13.676  0.232E-04  0.232E-04
 -13.666  0.237E-04  0.237E-04
 -13.656  0.241E-04  0.241E-04
 -13.646  0.245E-04  0.245E-04
 -13.636  0.249E-04  0.249E-04
 -13.626  0.253E-04  0.253E-04
 -13.616  0.257E-04  0.257E-04
 -13.606  0.261E-04  0.261E-04
 -13.596  0.265E-04  0.265E-04
 -13.586  0.268E-04  0.268E-04
 -13.576  0.271E-04  0.271E-04
 -13.566  0.275E-04  0.275E-04
 -13.556  0.278E-04  0.278E-04
 -13.546  0.281E-04  0.281E-04
 -13.536  0.283E-04  0.283E-04
 -13.526  0.286E-04  0.286E-04
 -13.516  0.288E-04  0.288E-04
 -13.506  0.291E-04  0.291E-04
 -13.496  0.293E-04  0.293E-04
 -13.486  0.295E-04  0.295E-04
 -13.476  0.296E-04  0.296E-04
 -13.466  0.298E-04  0.298E-04
 -13.456  0.299E-04  0.299E-04
 -13.446  0.300E-04  0.300E-04
 -13.436  0.301E-04  0.301E-04
 -13.426  0.302E-04  0.302E-04
 -13.416  0.303E-04  0.303E-04
 -13.406  0.303E-04  0.303E-04
 -13.396  0.303E-04  0.303E-04
 -13.386  0.303E-04  0.303E-04
 -13.376  0.303E-04  0.303E-04
 -13.366  0.302E-04  0.302E-04
 -13.356  0.302E-04  0.302E-04
 -13.346  0.301E-04  0.301E-04
 -13.336  0.300E-04  0.300E-04
 -13.326  0.299E-04  0.299E-04
 -13.316  0.297E-04  0.297E-04
 -13.306  0.296E-04  0.296E-04
 -13.296  0.294E-04  0.294E-04
 -13.286  0.292E-04  0.292E-04
 -13.276  0.290E-04  0.290E-04
 -13.266  0.288E-04  0.288E-04
 -13.256  0.285E-04  0.285E-04
 -13.246  0.283E-04  0.283E-04
 -13.236  0.280E-04  0.280E-04
 -13.226  0.277E-04  0.277E-04
 -13.216  0.274E-04  0.274E-04
 -13.206  0.271E-04  0.271E-04
 -13.196  0.267E-04  0.267E-04
 -13.186  0.264E-04  0.264E-04
 -13.176  0.260E-04  0.260E-04
 -13.166  0.256E-04  0.256E-04
 -13.156  0.252E-04  0.252E-04
 -13.146  0.248E-04  0.248E-04
 -13.136  0.244E-04  0.244E-04
 -13.126  0.240E-04  0.240E-04
 -13.116  0.236E-04  0.236E-04
 -13.106  0.231E-04  0.231E-04
 -13.096  0.227E-04  0.227E-04
 -13.086  0.222E-04  0.222E-04
 -13.076  0.217E-04  0.217E-04
 -13.066  0.213E-04  0.213E-04
 -13.056  0.208E-04  0.208E-04
 -13.046  0.203E-04  0.203E-04
 -13.036  0.198E-04  0.198E-04
 -13.026  0.193E-04  0.193E-04
 -13.016  0.188E-04  0.188E-04
 -13.006  0.183E-04  0.183E-04
 -12.996  0.178E-04  0.178E-04
 -12.986  0.173E-04  0.173E-04
 -12.976  0.168E-04  0.168E-04
 -12.966  0.163E-04  0.163E-04
 -12.956  0.158E-04  0.158E-04
 -12.946  0.153E-04  0.153E-04
 -12.936  0.148E-04  0.148E-04
 -12.926  0.143E-04  0.143E-04
 -12.916  0.138E-04  0.138E-04
 -12.906  0.133E-04  0.133E-04
 -12.896  0.128E-04  0.128E-04
 -12.886  0.123E-04  0.123E-04
 -12.876  0.118E-04  0.118E-04
 -12.866  0.113E-04  0.113E-04
 -12.856  0.109E-04  0.109E-04
 -12.846  0.104E-04  0.104E-04
 -12.836  0.993E-05  0.993E-05
 -12.826  0.947E-05  0.947E-05
 -12.816  0.901E-05  0.901E-05
 -12.806  0.856E-05  0.856E-05
 -12.796  0.812E-05  0.812E-05
 -12.786  0.769E-05  0.769E-05
 -12.776  0.726E-05  0.726E-05
 -12.766  0.684E-05  0.684E-05
 -12.756  0.643E-05  0.643E-05
 -12.746  0.602E-05  0.602E-05
 -12.736  0.563E-05  0.563E-05
 -12.726  0.524E-05  0.524E-05
 -12.716  0.486E-05  0.486E-05
 -12.706  0.449E-05  0.449E-05
 -12.696  0.412E-05  0.412E-05
 -12.686  0.377E-05  0.377E-05
 -12.676  0.342E-05  0.342E-05
 -12.666  0.308E-05  0.308E-05
 -12.656  0.275E-05  0.275E-05
 -12.646  0.243E-05  0.243E-05
 -12.636  0.211E-05  0.211E-05
 -12.626  0.181E-05  0.181E-05
 -12.616  0.151E-05  0.151E-05
 -12.606  0.122E-05  0.122E-05
 -12.596  0.944E-06  0.944E-06
 -12.586  0.672E-06  0.672E-06
 -12.576  0.408E-06  0.408E-06
 -12.566  0.152E-06  0.152E-06
 -12.556 -0.963E-07 -0.963E-07
 -12.546 -0.336E-06 -0.336E-06
 -12.536 -0.569E-06 -0.569E-06
 -12.526 -0.793E-06 -0.793E-06
 -12.516 -0.101E-05 -0.101E-05
 -12.506 -0.122E-05 -0.122E-05
 -12.496 -0.142E-05 -0.142E-05
 -12.486 -0.162E-05 -0.162E-05
 -12.476 -0.180E-05 -0.180E-05
 -12.466 -0.198E-05 -0.198E-05
 -12.456 -0.216E-05 -0.216E-05
 -12.446 -0.232E-05 -0.232E-05
 -12.436 -0.248E-05 -0.248E-05
 -12.426 -0.263E-05 -0.263E-05
 -12.416 -0.278E-05 -0.278E-05
 -12.406 -0.291E-05 -0.291E-05
 -12.396 -0.304E-05 -0.304E-05
 -12.386 -0.317E-05 -0.317E-05
 -12.376 -0.328E-05 -0.328E-05
 -12.366 -0.339E-05 -0.339E-05
 -12.356 -0.349E-05 -0.349E-05
 -12.346 -0.359E-05 -0.359E-05
 -12.336 -0.368E-05 -0.368E-05
 -12.326 -0.376E-05 -0.376E-05
 -12.316 -0.383E-05 -0.383E-05
 -12.306 -0.390E-05 -0.390E-05
 -12.296 -0.396E-05 -0.396E-05
 -12.286 -0.401E-05 -0.401E-05
 -12.276 -0.405E-05 -0.405E-05
 -12.266 -0.409E-05 -0.409E-05
 -12.256 -0.411E-05 -0.411E-05
 -12.246 -0.413E-05 -0.413E-05
 -12.236 -0.414E-05 -0.414E-05
 -12.226 -0.414E-05 -0.414E-05
 -12.216 -0.413E-05 -0.413E-05
 -12.206 -0.411E-05 -0.411E-05
 -12.196 -0.409E-05 -0.409E-05
 -12.186 -0.405E-05 -0.405E-05
 -12.176 -0.400E-05 -0.400E-05
 -12.166 -0.394E-05 -0.394E-05
 -12.156 -0.387E-05 -0.387E-05
 -12.146 -0.379E-05 -0.379E-05
 -12.136 -0.370E-05 -0.370E-05
 -12.126 -0.360E-05 -0.360E-05
 -12.116 -0.348E-05 -0.348E-05
 -12.106 -0.335E-05 -0.335E-05
 -12.096 -0.321E-05 -0.321E-05
 -12.086 -0.306E-05 -0.306E-05
 -12.076 -0.289E-05 -0.289E-05
 -12.066 -0.271E-05 -0.271E-05
 -12.056 -0.251E-05 -0.251E-05
 -12.046 -0.230E-05 -0.230E-05
 -12.036 -0.207E-05 -0.207E-05
 -12.026 -0.183E-05 -0.183E-05
 -12.016 -0.157E-05 -0.157E-05
 -12.006 -0.130E-05 -0.130E-05
 -11.996 -0.100E-05 -0.100E-05
 -11.986 -0.697E-06 -0.697E-06
 -11.976 -0.372E-06 -0.372E-06
 -11.966 -0.300E-07 -0.300E-07
 -11.956  0.330E-06  0.330E-06
 -11.946  0.707E-06  0.707E-06
 -11.936  0.110E-05  0.110E-05
 -11.926  0.152E-05  0.152E-05
 -11.916  0.195E-05  0.195E-05
 -11.906  0.240E-05  0.240E-05
 -11.896  0.287E-05  0.287E-05
 -11.886  0.336E-05  0.336E-05
 -11.876  0.387E-05  0.387E-05
 -11.866  0.439E-05  0.439E-05
 -11.856  0.494E-05  0.494E-05
 -11.846  0.550E-05  0.550E-05
 -11.836  0.609E-05  0.609E-05
 -11.826  0.669E-05  0.669E-05
 -11.816  0.731E-05  0.731E-05
 -11.806  0.795E-05  0.795E-05
 -11.796  0.861E-05  0.861E-05
 -11.786  0.928E-05  0.928E-05
 -11.776  0.997E-05  0.997E-05
 -11.766  0.107E-04  0.107E-04
 -11.756  0.114E-04  0.114E-04
 -11.746  0.121E-04  0.121E-04
 -11.736  0.129E-04  0.129E-04
 -11.726  0.137E-04  0.137E-04
 -11.716  0.145E-04  0.145E-04
 -11.706  0.153E-04  0.153E-04
 -11.696  0.161E-04  0.161E-04
 -11.686  0.169E-04  0.169E-04
 -11.676  0.177E-04  0.177E-04
 -11.666  0.186E-04  0.186E-04
 -11.656  0.194E-04  0.194E-04
 -11.646  0.203E-04  0.203E-04
 -11.636  0.212E-04  0.212E-04
 -11.626  0.220E-04  0.220E-04
 -11.616  0.229E-04  0.229E-04
 -11.606  0.238E-04  0.238E-04
 -11.596  0.247E-04  0.247E-04
 -11.586  0.256E-04  0.256E-04
 -11.576  0.265E-04  0.265E-04
 -11.566  0.274E-04  0.274E-04
 -11.556  0.282E-04  0.282E-04
 -11.546  0.291E-04  0.291E-04
 -11.536  0.300E-04  0.300E-04
 -11.526  0.308E-04  0.308E-04
 -11.516  0.317E-04  0.317E-04
 -11.506  0.325E-04  0.325E-04
 -11.496  0.333E-04  0.333E-04
 -11.486  0.342E-04  0.342E-04
 -11.476  0.349E-04  0.349E-04
 -11.466  0.357E-04  0.357E-04
 -11.456  0.365E-04  0.365E-04
 -11.446  0.372E-04  0.372E-04
 -11.436  0.379E-04  0.379E-04
 -11.426  0.385E-04  0.385E-04
 -11.416  0.392E-04  0.392E-04
 -11.406  0.398E-04  0.398E-04
 -11.396  0.403E-04  0.403E-04
 -11.386  0.409E-04  0.409E-04
 -11.376  0.414E-04  0.414E-04
 -11.366  0.418E-04  0.418E-04
 -11.356  0.422E-04  0.422E-04
 -11.346  0.426E-04  0.426E-04
 -11.336  0.429E-04  0.429E-04
 -11.326  0.431E-04  0.431E-04
 -11.316  0.433E-04  0.433E-04
 -11.306  0.434E-04  0.434E-04
 -11.296  0.435E-04  0.435E-04
 -11.286  0.434E-04  0.434E-04
 -11.276  0.434E-04  0.434E-04
 -11.266  0.432E-04  0.432E-04
 -11.256  0.430E-04  0.430E-04
 -11.246  0.426E-04  0.426E-04
 -11.236  0.422E-04  0.422E-04
 -11.226  0.417E-04  0.417E-04
 -11.216  0.411E-04  0.411E-04
 -11.206  0.404E-04  0.404E-04
 -11.196  0.397E-04  0.397E-04
 -11.186  0.387E-04  0.387E-04
 -11.176  0.377E-04  0.377E-04
 -11.166  0.366E-04  0.366E-04
 -11.156  0.353E-04  0.353E-04
 -11.146  0.339E-04  0.339E-04
 -11.136  0.324E-04  0.324E-04
 -11.126  0.307E-04  0.307E-04
 -11.116  0.288E-04  0.288E-04
 -11.106  0.269E-04  0.269E-04
 -11.096  0.247E-04  0.247E-04
 -11.086  0.224E-04  0.224E-04
 -11.076  0.198E-04  0.198E-04
 -11.066  0.171E-04  0.171E-04
 -11.056  0.142E-04  0.142E-04
 -11.046  0.111E-04  0.111E-04
 -11.036  0.781E-05  0.781E-05
 -11.026  0.426E-05  0.426E-05
 -11.016  0.464E-06  0.464E-06
 -11.006 -0.358E-05 -0.358E-05
 -10.996 -0.788E-05 -0.788E-05
 -10.986 -0.125E-04 -0.125E-04
 -10.976 -0.173E-04 -0.173E-04
 -10.966 -0.225E-04 -0.225E-04
 -10.956 -0.279E-04 -0.279E-04
 -10.946 -0.337E-04 -0.337E-04
 -10.936 -0.399E-04 -0.399E-04
 -10.926 -0.464E-04 -0.464E-04
 -10.916 -0.532E-04 -0.532E-04
 -10.906 -0.605E-04 -0.605E-04
 -10.896 -0.682E-04 -0.682E-04
 -10.886 -0.763E-04 -0.763E-04
 -10.876 -0.848E-04 -0.848E-04
 -10.866 -0.938E-04 -0.938E-04
 -10.856 -0.103E-03 -0.103E-03
 -10.846 -0.113E-03 -0.113E-03
 -10.836 -0.124E-03 -0.124E-03
 -10.826 -0.135E-03 -0.135E-03
 -10.816 -0.146E-03 -0.146E-03
 -10.806 -0.159E-03 -0.159E-03
 -10.796 -0.172E-03 -0.172E-03
 -10.786 -0.185E-03 -0.185E-03
 -10.776 -0.199E-03 -0.199E-03
 -10.766 -0.214E-03 -0.214E-03
 -10.756 -0.230E-03 -0.230E-03
 -10.746 -0.246E-03 -0.246E-03
 -10.736 -0.263E-03 -0.263E-03
 -10.726 -0.281E-03 -0.281E-03
 -10.716 -0.300E-03 -0.300E-03
 -10.706 -0.319E-03 -0.319E-03
 -10.696 -0.340E-03 -0.340E-03
 -10.686 -0.361E-03 -0.361E-03
 -10.676 -0.384E-03 -0.384E-03
 -10.666 -0.407E-03 -0.407E-03
 -10.656 -0.431E-03 -0.431E-03
 -10.646 -0.457E-03 -0.457E-03
 -10.636 -0.483E-03 -0.483E-03
 -10.626 -0.511E-03 -0.511E-03
 -10.616 -0.539E-03 -0.539E-03
 -10.606 -0.569E-03 -0.569E-03
 -10.596 -0.600E-03 -0.600E-03
 -10.586 -0.632E-03 -0.632E-03
 -10.576 -0.666E-03 -0.666E-03
 -10.566 -0.700E-03 -0.700E-03
 -10.556 -0.736E-03 -0.736E-03
 -10.546 -0.773E-03 -0.773E-03
 -10.536 -0.812E-03 -0.812E-03
 -10.526 -0.852E-03 -0.852E-03
 -10.516 -0.893E-03 -0.893E-03
 -10.506 -0.936E-03 -0.936E-03
 -10.496 -0.980E-03 -0.980E-03
 -10.486 -0.103E-02 -0.103E-02
 -10.476 -0.107E-02 -0.107E-02
 -10.466 -0.112E-02 -0.112E-02
 -10.456 -0.117E-02 -0.117E-02
 -10.446 -0.122E-02 -0.122E-02
 -10.436 -0.127E-02 -0.127E-02
 -10.426 -0.133E-02 -0.133E-02
 -10.416 -0.138E-02 -0.138E-02
 -10.406 -0.144E-02 -0.144E-02
 -10.396 -0.150E-02 -0.150E-02
 -10.386 -0.155E-02 -0.155E-02
 -10.376 -0.161E-02 -0.161E-02
 -10.366 -0.168E-02 -0.168E-02
 -10.356 -0.174E-02 -0.174E-02
 -10.346 -0.180E-02 -0.180E-02
 -10.336 -0.187E-02 -0.187E-02
 -10.326 -0.193E-02 -0.193E-02
 -10.316 -0.200E-02 -0.200E-02
 -10.306 -0.206E-02 -0.206E-02
 -10.296 -0.213E-02 -0.213E-02
 -10.286 -0.220E-02 -0.220E-02
 -10.276 -0.227E-02 -0.227E-02
 -10.266 -0.234E-02 -0.234E-02
 -10.256 -0.241E-02 -0.241E-02
 -10.246 -0.248E-02 -0.248E-02
 -10.236 -0.255E-02 -0.255E-02
 -10.226 -0.261E-02 -0.261E-02
 -10.216 -0.268E-02 -0.268E-02
 -10.206 -0.275E-02 -0.275E-02
 -10.196 -0.282E-02 -0.282E-02
 -10.186 -0.288E-02 -0.288E-02
 -10.176 -0.295E-02 -0.295E-02
 -10.166 -0.301E-02 -0.301E-02
 -10.156 -0.307E-02 -0.307E-02
 -10.146 -0.313E-02 -0.313E-02
 -10.136 -0.319E-02 -0.319E-02
 -10.126 -0.324E-02 -0.324E-02
 -10.116 -0.329E-02 -0.329E-02
 -10.106 -0.334E-02 -0.334E-02
 -10.096 -0.339E-02 -0.339E-02
 -10.086 -0.343E-02 -0.343E-02
 -10.076 -0.347E-02 -0.347E-02
 -10.066 -0.350E-02 -0.350E-02
 -10.056 -0.352E-02 -0.352E-02
 -10.046 -0.355E-02 -0.355E-02
 -10.036 -0.356E-02 -0.356E-02
 -10.026 -0.357E-02 -0.357E-02
 -10.016 -0.358E-02 -0.358E-02
 -10.006 -0.357E-02 -0.357E-02
  -9.996 -0.356E-02 -0.356E-02
  -9.986 -0.354E-02 -0.354E-02
  -9.976 -0.352E-02 -0.352E-02
  -9.966 -0.348E-02 -0.348E-02
  -9.956 -0.344E-02 -0.344E-02
  -9.946 -0.338E-02 -0.338E-02
  -9.936 -0.332E-02 -0.332E-02
  -9.926 -0.324E-02 -0.324E-02
  -9.916 -0.315E-02 -0.315E-02
  -9.906 -0.305E-02 -0.305E-02
  -9.896 -0.294E-02 -0.294E-02
  -9.886 -0.282E-02 -0.282E-02
  -9.876 -0.268E-02 -0.268E-02
  -9.866 -0.253E-02 -0.253E-02
  -9.856 -0.236E-02 -0.236E-02
  -9.846 -0.218E-02 -0.218E-02
  -9.836 -0.199E-02 -0.199E-02
  -9.826 -0.177E-02 -0.177E-02
  -9.816 -0.154E-02 -0.154E-02
  -9.806 -0.130E-02 -0.130E-02
  -9.796 -0.104E-02 -0.104E-02
  -9.786 -0.754E-03 -0.754E-03
  -9.776 -0.454E-03 -0.454E-03
  -9.766 -0.136E-03 -0.136E-03
  -9.756  0.202E-03  0.202E-03
  -9.746  0.560E-03  0.560E-03
  -9.736  0.938E-03  0.938E-03
  -9.726  0.134E-02  0.134E-02
  -9.716  0.176E-02  0.176E-02
  -9.706  0.220E-02  0.220E-02
  -9.696  0.266E-02  0.266E-02
  -9.686  0.314E-02  0.314E-02
  -9.676  0.365E-02  0.365E-02
  -9.666  0.418E-02  0.418E-02
  -9.656  0.473E-02  0.473E-02
  -9.646  0.531E-02  0.531E-02
  -9.636  0.590E-02  0.590E-02
  -9.626  0.653E-02  0.653E-02
  -9.616  0.717E-02  0.717E-02
  -9.606  0.784E-02  0.784E-02
  -9.596  0.853E-02  0.853E-02
  -9.586  0.925E-02  0.925E-02
  -9.576  0.998E-02  0.998E-02
  -9.566  0.107E-01  0.107E-01
  -9.556  0.115E-01  0.115E-01
  -9.546  0.123E-01  0.123E-01
  -9.536  0.132E-01  0.132E-01
  -9.526  0.140E-01  0.140E-01
  -9.516  0.149E-01  0.149E-01
  -9.506  0.158E-01  0.158E-01
  -9.496  0.167E-01  0.167E-01
  -9.486  0.177E-01  0.177E-01
  -9.476  0.186E-01  0.186E-01
  -9.466  0.196E-01  0.196E-01
  -9.456  0.206E-01  0.206E-01
  -9.446  0.216E-01  0.216E-01
  -9.436  0.227E-01  0.227E-01
  -9.426  0.237E-01  0.237E-01
  -9.416  0.248E-01  0.248E-01
  -9.406  0.259E-01  0.259E-01
  -9.396  0.270E-01  0.270E-01
  -9.386  0.281E-01  0.281E-01
  -9.376  0.292E-01  0.292E-01
  -9.366  0.304E-01  0.304E-01
  -9.356  0.316E-01  0.316E-01
  -9.346  0.327E-01  0.327E-01
  -9.336  0.339E-01  0.339E-01
  -9.326  0.351E-01  0.351E-01
  -9.316  0.363E-01  0.363E-01
  -9.306  0.375E-01  0.375E-01
  -9.296  0.387E-01  0.387E-01
  -9.286  0.399E-01  0.399E-01
  -9.276  0.412E-01  0.412E-01
  -9.266  0.424E-01  0.424E-01
  -9.256  0.436E-01  0.436E-01
  -9.246  0.448E-01  0.448E-01
  -9.236  0.461E-01  0.461E-01
  -9.226  0.473E-01  0.473E-01
  -9.216  0.485E-01  0.485E-01
  -9.206  0.497E-01  0.497E-01
  -9.196  0.509E-01  0.509E-01
  -9.186  0.522E-01  0.522E-01
  -9.176  0.534E-01  0.534E-01
  -9.166  0.546E-01  0.546E-01
  -9.156  0.557E-01  0.557E-01
  -9.146  0.569E-01  0.569E-01
  -9.136  0.581E-01  0.581E-01
  -9.126  0.592E-01  0.592E-01
  -9.116  0.604E-01  0.604E-01
  -9.106  0.615E-01  0.615E-01
  -9.096  0.626E-01  0.626E-01
  -9.086  0.637E-01  0.637E-01
  -9.076  0.647E-01  0.647E-01
  -9.066  0.658E-01  0.658E-01
  -9.056  0.668E-01  0.668E-01
  -9.046  0.678E-01  0.678E-01
  -9.036  0.688E-01  0.688E-01
  -9.026  0.698E-01  0.698E-01
  -9.016  0.708E-01  0.708E-01
  -9.006  0.717E-01  0.717E-01
  -8.996  0.726E-01  0.726E-01
  -8.986  0.735E-01  0.735E-01
  -8.976  0.743E-01  0.743E-01
  -8.966  0.752E-01  0.752E-01
  -8.956  0.760E-01  0.760E-01
  -8.946  0.768E-01  0.768E-01
  -8.936  0.775E-01  0.775E-01
  -8.926  0.783E-01  0.783E-01
  -8.916  0.790E-01  0.790E-01
  -8.906  0.797E-01  0.797E-01
  -8.896  0.803E-01  0.803E-01
  -8.886  0.810E-01  0.810E-01
  -8.876  0.816E-01  0.816E-01
  -8.866  0.822E-01  0.822E-01
  -8.856  0.827E-01  0.827E-01
  -8.846  0.832E-01  0.832E-01
  -8.836  0.838E-01  0.838E-01
  -8.826  0.842E-01  0.842E-01
  -8.816  0.847E-01  0.847E-01
  -8.806  0.851E-01  0.851E-01
  -8.796  0.855E-01  0.855E-01
  -8.786  0.859E-01  0.859E-01
  -8.776  0.863E-01  0.863E-01
  -8.766  0.866E-01  0.866E-01
  -8.756  0.870E-01  0.870E-01
  -8.746  0.873E-01  0.873E-01
  -8.736  0.876E-01  0.876E-01
  -8.726  0.878E-01  0.878E-01
  -8.716  0.881E-01  0.881E-01
  -8.706  0.883E-01  0.883E-01
  -8.696  0.885E-01  0.885E-01
  -8.686  0.887E-01  0.887E-01
  -8.676  0.888E-01  0.888E-01
  -8.666  0.890E-01  0.890E-01
  -8.656  0.891E-01  0.891E-01
  -8.646  0.893E-01  0.893E-01
  -8.636  0.894E-01  0.894E-01
  -8.626  0.895E-01  0.895E-01
  -8.616  0.895E-01  0.895E-01
  -8.606  0.896E-01  0.896E-01
  -8.596  0.897E-01  0.897E-01
  -8.586  0.897E-01  0.897E-01
  -8.576  0.897E-01  0.897E-01
  -8.566  0.898E-01  0.898E-01
  -8.556  0.898E-01  0.898E-01
  -8.546  0.898E-01  0.898E-01
  -8.536  0.898E-01  0.898E-01
  -8.526  0.897E-01  0.897E-01
  -8.516  0.897E-01  0.897E-01
  -8.506  0.897E-01  0.897E-01
  -8.496  0.897E-01  0.897E-01
  -8.486  0.896E-01  0.896E-01
  -8.476  0.896E-01  0.896E-01
  -8.466  0.895E-01  0.895E-01
  -8.456  0.895E-01  0.895E-01
  -8.446  0.894E-01  0.894E-01
  -8.436  0.893E-01  0.893E-01
  -8.426  0.892E-01  0.892E-01
  -8.416  0.892E-01  0.892E-01
  -8.406  0.891E-01  0.891E-01
  -8.396  0.890E-01  0.890E-01
  -8.386  0.889E-01  0.889E-01
  -8.376  0.888E-01  0.888E-01
  -8.366  0.887E-01  0.887E-01
  -8.356  0.886E-01  0.886E-01
  -8.346  0.885E-01  0.885E-01
  -8.336  0.884E-01  0.884E-01
  -8.326  0.883E-01  0.883E-01
  -8.316  0.882E-01  0.882E-01
  -8.306  0.880E-01  0.880E-01
  -8.296  0.879E-01  0.879E-01
  -8.286  0.878E-01  0.878E-01
  -8.276  0.877E-01  0.877E-01
  -8.266  0.875E-01  0.875E-01
  -8.256  0.874E-01  0.874E-01
  -8.246  0.873E-01  0.873E-01
  -8.236  0.871E-01  0.871E-01
  -8.226  0.870E-01  0.870E-01
  -8.216  0.868E-01  0.868E-01
  -8.206  0.867E-01  0.867E-01
  -8.196  0.865E-01  0.865E-01
  -8.186  0.863E-01  0.863E-01
  -8.176  0.862E-01  0.862E-01
  -8.166  0.860E-01  0.860E-01
  -8.156  0.858E-01  0.858E-01
  -8.146  0.856E-01  0.856E-01
  -8.136  0.854E-01  0.854E-01
  -8.126  0.853E-01  0.853E-01
  -8.116  0.851E-01  0.851E-01
  -8.106  0.849E-01  0.849E-01
  -8.096  0.847E-01  0.847E-01
  -8.086  0.845E-01  0.845E-01
  -8.076  0.842E-01  0.842E-01
  -8.066  0.840E-01  0.840E-01
  -8.056  0.838E-01  0.838E-01
  -8.046  0.836E-01  0.836E-01
  -8.036  0.834E-01  0.834E-01
  -8.026  0.831E-01  0.831E-01
  -8.016  0.829E-01  0.829E-01
  -8.006  0.827E-01  0.827E-01
  -7.996  0.824E-01  0.824E-01
  -7.986  0.822E-01  0.822E-01
  -7.976  0.819E-01  0.819E-01
  -7.966  0.817E-01  0.817E-01
  -7.956  0.814E-01  0.814E-01
  -7.946  0.812E-01  0.812E-01
  -7.936  0.809E-01  0.809E-01
  -7.926  0.807E-01  0.807E-01
  -7.916  0.804E-01  0.804E-01
  -7.906  0.802E-01  0.802E-01
  -7.896  0.800E-01  0.800E-01
  -7.886  0.797E-01  0.797E-01
  -7.876  0.795E-01  0.795E-01
  -7.866  0.792E-01  0.792E-01
  -7.856  0.790E-01  0.790E-01
  -7.846  0.788E-01  0.788E-01
  -7.836  0.785E-01  0.785E-01
  -7.826  0.783E-01  0.783E-01
  -7.816  0.781E-01  0.781E-01
  -7.806  0.779E-01  0.779E-01
  -7.796  0.777E-01  0.777E-01
  -7.786  0.775E-01  0.775E-01
  -7.776  0.773E-01  0.773E-01
  -7.766  0.771E-01  0.771E-01
  -7.756  0.769E-01  0.769E-01
  -7.746  0.768E-01  0.768E-01
  -7.736  0.766E-01  0.766E-01
  -7.726  0.765E-01  0.765E-01
  -7.716  0.763E-01  0.763E-01
  -7.706  0.762E-01  0.762E-01
  -7.696  0.761E-01  0.761E-01
  -7.686  0.760E-01  0.760E-01
  -7.676  0.759E-01  0.759E-01
  -7.666  0.759E-01  0.759E-01
  -7.656  0.758E-01  0.758E-01
  -7.646  0.758E-01  0.758E-01
  -7.636  0.757E-01  0.757E-01
  -7.626  0.757E-01  0.757E-01
  -7.616  0.757E-01  0.757E-01
  -7.606  0.757E-01  0.757E-01
  -7.596  0.758E-01  0.758E-01
  -7.586  0.758E-01  0.758E-01
  -7.576  0.759E-01  0.759E-01
  -7.566  0.760E-01  0.760E-01
  -7.556  0.760E-01  0.760E-01
  -7.546  0.762E-01  0.762E-01
  -7.536  0.763E-01  0.763E-01
  -7.526  0.764E-01  0.764E-01
  -7.516  0.766E-01  0.766E-01
  -7.506  0.767E-01  0.767E-01
  -7.496  0.769E-01  0.769E-01
  -7.486  0.771E-01  0.771E-01
  -7.476  0.773E-01  0.773E-01
  -7.466  0.775E-01  0.775E-01
  -7.456  0.777E-01  0.777E-01
  -7.446  0.780E-01  0.780E-01
  -7.436  0.782E-01  0.782E-01
  -7.426  0.785E-01  0.785E-01
  -7.416  0.787E-01  0.787E-01
  -7.406  0.790E-01  0.790E-01
  -7.396  0.793E-01  0.793E-01
  -7.386  0.795E-01  0.795E-01
  -7.376  0.798E-01  0.798E-01
  -7.366  0.801E-01  0.801E-01
  -7.356  0.804E-01  0.804E-01
  -7.346  0.807E-01  0.807E-01
  -7.336  0.810E-01  0.810E-01
  -7.326  0.813E-01  0.813E-01
  -7.316  0.815E-01  0.815E-01
  -7.306  0.818E-01  0.818E-01
  -7.296  0.821E-01  0.821E-01
  -7.286  0.824E-01  0.824E-01
  -7.276  0.826E-01  0.826E-01
  -7.266  0.829E-01  0.829E-01
  -7.256  0.831E-01  0.831E-01
  -7.246  0.833E-01  0.833E-01
  -7.236  0.835E-01  0.835E-01
  -7.226  0.837E-01  0.837E-01
  -7.216  0.839E-01  0.839E-01
  -7.206  0.841E-01  0.841E-01
  -7.196  0.842E-01  0.842E-01
  -7.186  0.843E-01  0.843E-01
  -7.176  0.844E-01  0.844E-01
  -7.166  0.845E-01  0.845E-01
  -7.156  0.845E-01  0.845E-01
  -7.146  0.846E-01  0.846E-01
  -7.136  0.846E-01  0.846E-01
  -7.126  0.845E-01  0.845E-01
  -7.116  0.845E-01  0.845E-01
  -7.106  0.844E-01  0.844E-01
  -7.096  0.843E-01  0.843E-01
  -7.086  0.841E-01  0.841E-01
  -7.076  0.839E-01  0.839E-01
  -7.066  0.837E-01  0.837E-01
  -7.056  0.835E-01  0.835E-01
  -7.046  0.832E-01  0.832E-01
  -7.036  0.829E-01  0.829E-01
  -7.026  0.825E-01  0.825E-01
  -7.016  0.822E-01  0.822E-01
  -7.006  0.817E-01  0.817E-01
  -6.996  0.813E-01  0.813E-01
  -6.986  0.808E-01  0.808E-01
  -6.976  0.803E-01  0.803E-01
  -6.966  0.797E-01  0.797E-01
  -6.956  0.791E-01  0.791E-01
  -6.946  0.785E-01  0.785E-01
  -6.936  0.778E-01  0.778E-01
  -6.926  0.771E-01  0.771E-01
  -6.916  0.764E-01  0.764E-01
  -6.906  0.756E-01  0.756E-01
  -6.896  0.748E-01  0.748E-01
  -6.886  0.740E-01  0.740E-01
  -6.876  0.731E-01  0.731E-01
  -6.866  0.722E-01  0.722E-01
  -6.856  0.713E-01  0.713E-01
  -6.846  0.704E-01  0.704E-01
  -6.836  0.694E-01  0.694E-01
  -6.826  0.684E-01  0.684E-01
  -6.816  0.674E-01  0.674E-01
  -6.806  0.663E-01  0.663E-01
  -6.796  0.652E-01  0.652E-01
  -6.786  0.642E-01  0.642E-01
  -6.776  0.631E-01  0.631E-01
  -6.766  0.619E-01  0.619E-01
  -6.756  0.608E-01  0.608E-01
  -6.746  0.597E-01  0.597E-01
  -6.736  0.585E-01  0.585E-01
  -6.726  0.573E-01  0.573E-01
  -6.716  0.562E-01  0.562E-01
  -6.706  0.550E-01  0.550E-01
  -6.696  0.538E-01  0.538E-01
  -6.686  0.526E-01  0.526E-01
  -6.676  0.514E-01  0.514E-01
  -6.666  0.502E-01  0.502E-01
  -6.656  0.491E-01  0.491E-01
  -6.646  0.479E-01  0.479E-01
  -6.636  0.467E-01  0.467E-01
  -6.626  0.456E-01  0.456E-01
  -6.616  0.444E-01  0.444E-01
  -6.606  0.433E-01  0.433E-01
  -6.596  0.422E-01  0.422E-01
  -6.586  0.411E-01  0.411E-01
  -6.576  0.400E-01  0.400E-01
  -6.566  0.389E-01  0.389E-01
  -6.556  0.379E-01  0.379E-01
  -6.546  0.369E-01  0.369E-01
  -6.536  0.359E-01  0.359E-01
  -6.526  0.349E-01  0.349E-01
  -6.516  0.340E-01  0.340E-01
  -6.506  0.331E-01  0.331E-01
  -6.496  0.322E-01  0.322E-01
  -6.486  0.314E-01  0.314E-01
  -6.476  0.305E-01  0.305E-01
  -6.466  0.298E-01  0.298E-01
  -6.456  0.290E-01  0.290E-01
  -6.446  0.283E-01  0.283E-01
  -6.436  0.277E-01  0.277E-01
  -6.426  0.270E-01  0.270E-01
  -6.416  0.264E-01  0.264E-01
  -6.406  0.259E-01  0.259E-01
  -6.396  0.254E-01  0.254E-01
  -6.386  0.249E-01  0.249E-01
  -6.376  0.245E-01  0.245E-01
  -6.366  0.241E-01  0.241E-01
  -6.356  0.238E-01  0.238E-01
  -6.346  0.234E-01  0.234E-01
  -6.336  0.232E-01  0.232E-01
  -6.326  0.230E-01  0.230E-01
  -6.316  0.228E-01  0.228E-01
  -6.306  0.226E-01  0.226E-01
  -6.296  0.225E-01  0.225E-01
  -6.286  0.225E-01  0.225E-01
  -6.276  0.224E-01  0.224E-01
  -6.266  0.224E-01  0.224E-01
  -6.256  0.225E-01  0.225E-01
  -6.246  0.226E-01  0.226E-01
  -6.236  0.227E-01  0.227E-01
  -6.226  0.229E-01  0.229E-01
  -6.216  0.230E-01  0.230E-01
  -6.206  0.233E-01  0.233E-01
  -6.196  0.235E-01  0.235E-01
  -6.186  0.238E-01  0.238E-01
  -6.176  0.241E-01  0.241E-01
  -6.166  0.245E-01  0.245E-01
  -6.156  0.248E-01  0.248E-01
  -6.146  0.252E-01  0.252E-01
  -6.136  0.256E-01  0.256E-01
  -6.126  0.261E-01  0.261E-01
  -6.116  0.265E-01  0.265E-01
  -6.106  0.270E-01  0.270E-01
  -6.096  0.275E-01  0.275E-01
  -6.086  0.280E-01  0.280E-01
  -6.076  0.285E-01  0.285E-01
  -6.066  0.290E-01  0.290E-01
  -6.056  0.296E-01  0.296E-01
  -6.046  0.301E-01  0.301E-01
  -6.036  0.307E-01  0.307E-01
  -6.026  0.312E-01  0.312E-01
  -6.016  0.318E-01  0.318E-01
  -6.006  0.324E-01  0.324E-01
  -5.996  0.329E-01  0.329E-01
  -5.986  0.335E-01  0.335E-01
  -5.976  0.341E-01  0.341E-01
  -5.966  0.346E-01  0.346E-01
  -5.956  0.352E-01  0.352E-01
  -5.946  0.357E-01  0.357E-01
  -5.936  0.362E-01  0.362E-01
  -5.926  0.368E-01  0.368E-01
  -5.916  0.373E-01  0.373E-01
  -5.906  0.378E-01  0.378E-01
  -5.896  0.382E-01  0.382E-01
  -5.886  0.387E-01  0.387E-01
  -5.876  0.391E-01  0.391E-01
  -5.866  0.396E-01  0.396E-01
  -5.856  0.400E-01  0.400E-01
  -5.846  0.403E-01  0.403E-01
  -5.836  0.407E-01  0.407E-01
  -5.826  0.411E-01  0.411E-01
  -5.816  0.414E-01  0.414E-01
  -5.806  0.417E-01  0.417E-01
  -5.796  0.419E-01  0.419E-01
  -5.786  0.422E-01  0.422E-01
  -5.776  0.424E-01  0.424E-01
  -5.766  0.426E-01  0.426E-01
  -5.756  0.427E-01  0.427E-01
  -5.746  0.429E-01  0.429E-01
  -5.736  0.430E-01  0.430E-01
  -5.726  0.431E-01  0.431E-01
  -5.716  0.431E-01  0.431E-01
  -5.706  0.432E-01  0.432E-01
  -5.696  0.432E-01  0.432E-01
  -5.686  0.431E-01  0.431E-01
  -5.676  0.431E-01  0.431E-01
  -5.666  0.430E-01  0.430E-01
  -5.656  0.429E-01  0.429E-01
  -5.646  0.428E-01  0.428E-01
  -5.636  0.427E-01  0.427E-01
  -5.626  0.425E-01  0.425E-01
  -5.616  0.423E-01  0.423E-01
  -5.606  0.421E-01  0.421E-01
  -5.596  0.418E-01  0.418E-01
  -5.586  0.416E-01  0.416E-01
  -5.576  0.413E-01  0.413E-01
  -5.566  0.410E-01  0.410E-01
  -5.556  0.407E-01  0.407E-01
  -5.546  0.403E-01  0.403E-01
  -5.536  0.400E-01  0.400E-01
  -5.526  0.396E-01  0.396E-01
  -5.516  0.392E-01  0.392E-01
  -5.506  0.388E-01  0.388E-01
  -5.496  0.384E-01  0.384E-01
  -5.486  0.380E-01  0.380E-01
  -5.476  0.376E-01  0.376E-01
  -5.466  0.372E-01  0.372E-01
  -5.456  0.367E-01  0.367E-01
  -5.446  0.363E-01  0.363E-01
  -5.436  0.358E-01  0.358E-01
  -5.426  0.354E-01  0.354E-01
  -5.416  0.349E-01  0.349E-01
  -5.406  0.345E-01  0.345E-01
  -5.396  0.340E-01  0.340E-01
  -5.386  0.336E-01  0.336E-01
  -5.376  0.331E-01  0.331E-01
  -5.366  0.327E-01  0.327E-01
  -5.356  0.323E-01  0.323E-01
  -5.346  0.318E-01  0.318E-01
  -5.336  0.314E-01  0.314E-01
  -5.326  0.310E-01  0.310E-01
  -5.316  0.306E-01  0.306E-01
  -5.306  0.302E-01  0.302E-01
  -5.296  0.298E-01  0.298E-01
  -5.286  0.294E-01  0.294E-01
  -5.276  0.291E-01  0.291E-01
  -5.266  0.287E-01  0.287E-01
  -5.256  0.284E-01  0.284E-01
  -5.246  0.281E-01  0.281E-01
  -5.236  0.278E-01  0.278E-01
  -5.226  0.275E-01  0.275E-01
  -5.216  0.272E-01  0.272E-01
  -5.206  0.270E-01  0.270E-01
  -5.196  0.268E-01  0.268E-01
  -5.186  0.266E-01  0.266E-01
  -5.176  0.264E-01  0.264E-01
  -5.166  0.262E-01  0.262E-01
  -5.156  0.260E-01  0.260E-01
  -5.146  0.259E-01  0.259E-01
  -5.136  0.258E-01  0.258E-01
  -5.126  0.257E-01  0.257E-01
  -5.116  0.257E-01  0.257E-01
  -5.106  0.256E-01  0.256E-01
  -5.096  0.256E-01  0.256E-01
  -5.086  0.256E-01  0.256E-01
  -5.076  0.256E-01  0.256E-01
  -5.066  0.256E-01  0.256E-01
  -5.056  0.257E-01  0.257E-01
  -5.046  0.258E-01  0.258E-01
  -5.036  0.259E-01  0.259E-01
  -5.026  0.260E-01  0.260E-01
  -5.016  0.262E-01  0.262E-01
  -5.006  0.263E-01  0.263E-01
  -4.996  0.265E-01  0.265E-01
  -4.986  0.267E-01  0.267E-01
  -4.976  0.269E-01  0.269E-01
  -4.966  0.272E-01  0.272E-01
  -4.956  0.275E-01  0.275E-01
  -4.946  0.277E-01  0.277E-01
  -4.936  0.280E-01  0.280E-01
  -4.926  0.284E-01  0.284E-01
  -4.916  0.287E-01  0.287E-01
  -4.906  0.291E-01  0.291E-01
  -4.896  0.294E-01  0.294E-01
  -4.886  0.298E-01  0.298E-01
  -4.876  0.302E-01  0.302E-01
  -4.866  0.307E-01  0.307E-01
  -4.856  0.311E-01  0.311E-01
  -4.846  0.316E-01  0.316E-01
  -4.836  0.320E-01  0.320E-01
  -4.826  0.325E-01  0.325E-01
  -4.816  0.330E-01  0.330E-01
  -4.806  0.335E-01  0.335E-01
  -4.796  0.340E-01  0.340E-01
  -4.786  0.346E-01  0.346E-01
  -4.776  0.351E-01  0.351E-01
  -4.766  0.357E-01  0.357E-01
  -4.756  0.362E-01  0.362E-01
  -4.746  0.368E-01  0.368E-01
  -4.736  0.374E-01  0.374E-01
  -4.726  0.380E-01  0.380E-01
  -4.716  0.386E-01  0.386E-01
  -4.706  0.392E-01  0.392E-01
  -4.696  0.399E-01  0.399E-01
  -4.686  0.405E-01  0.405E-01
  -4.676  0.412E-01  0.412E-01
  -4.666  0.418E-01  0.418E-01
  -4.656  0.425E-01  0.425E-01
  -4.646  0.431E-01  0.431E-01
  -4.636  0.438E-01  0.438E-01
  -4.626  0.445E-01  0.445E-01
  -4.616  0.452E-01  0.452E-01
  -4.606  0.458E-01  0.458E-01
  -4.596  0.465E-01  0.465E-01
  -4.586  0.472E-01  0.472E-01
  -4.576  0.479E-01  0.479E-01
  -4.566  0.486E-01  0.486E-01
  -4.556  0.493E-01  0.493E-01
  -4.546  0.500E-01  0.500E-01
  -4.536  0.507E-01  0.507E-01
  -4.526  0.514E-01  0.514E-01
  -4.516  0.521E-01  0.521E-01
  -4.506  0.529E-01  0.529E-01
  -4.496  0.536E-01  0.536E-01
  -4.486  0.543E-01  0.543E-01
  -4.476  0.550E-01  0.550E-01
  -4.466  0.557E-01  0.557E-01
  -4.456  0.564E-01  0.564E-01
  -4.446  0.571E-01  0.571E-01
  -4.436  0.578E-01  0.578E-01
  -4.426  0.585E-01  0.585E-01
  -4.416  0.592E-01  0.592E-01
  -4.406  0.599E-01  0.599E-01
  -4.396  0.606E-01  0.606E-01
  -4.386  0.612E-01  0.612E-01
  -4.376  0.619E-01  0.619E-01
  -4.366  0.626E-01  0.626E-01
  -4.356  0.633E-01  0.633E-01
  -4.346  0.639E-01  0.639E-01
  -4.336  0.646E-01  0.646E-01
  -4.326  0.652E-01  0.652E-01
  -4.316  0.658E-01  0.658E-01
  -4.306  0.665E-01  0.665E-01
  -4.296  0.671E-01  0.671E-01
  -4.286  0.677E-01  0.677E-01
  -4.276  0.683E-01  0.683E-01
  -4.266  0.689E-01  0.689E-01
  -4.256  0.695E-01  0.695E-01
  -4.246  0.701E-01  0.701E-01
  -4.236  0.706E-01  0.706E-01
  -4.226  0.712E-01  0.712E-01
  -4.216  0.717E-01  0.717E-01
  -4.206  0.723E-01  0.723E-01
  -4.196  0.728E-01  0.728E-01
  -4.186  0.733E-01  0.733E-01
  -4.176  0.738E-01  0.738E-01
  -4.166  0.743E-01  0.743E-01
  -4.156  0.748E-01  0.748E-01
  -4.146  0.752E-01  0.752E-01
  -4.136  0.757E-01  0.757E-01
  -4.126  0.761E-01  0.761E-01
  -4.116  0.765E-01  0.765E-01
  -4.106  0.769E-01  0.769E-01
  -4.096  0.773E-01  0.773E-01
  -4.086  0.777E-01  0.777E-01
  -4.076  0.781E-01  0.781E-01
  -4.066  0.785E-01  0.785E-01
  -4.056  0.788E-01  0.788E-01
  -4.046  0.791E-01  0.791E-01
  -4.036  0.795E-01  0.795E-01
  -4.026  0.798E-01  0.798E-01
  -4.016  0.801E-01  0.801E-01
  -4.006  0.804E-01  0.804E-01
  -3.996  0.806E-01  0.806E-01
  -3.986  0.809E-01  0.809E-01
  -3.976  0.811E-01  0.811E-01
  -3.966  0.814E-01  0.814E-01
  -3.956  0.816E-01  0.816E-01
  -3.946  0.818E-01  0.818E-01
  -3.936  0.820E-01  0.820E-01
  -3.926  0.822E-01  0.822E-01
  -3.916  0.824E-01  0.824E-01
  -3.906  0.826E-01  0.826E-01
  -3.896  0.828E-01  0.828E-01
  -3.886  0.829E-01  0.829E-01
  -3.876  0.831E-01  0.831E-01
  -3.866  0.832E-01  0.832E-01
  -3.856  0.833E-01  0.833E-01
  -3.846  0.835E-01  0.835E-01
  -3.836  0.836E-01  0.836E-01
  -3.826  0.837E-01  0.837E-01
  -3.816  0.838E-01  0.838E-01
  -3.806  0.839E-01  0.839E-01
  -3.796  0.840E-01  0.840E-01
  -3.786  0.841E-01  0.841E-01
  -3.776  0.842E-01  0.842E-01
  -3.766  0.842E-01  0.842E-01
  -3.756  0.843E-01  0.843E-01
  -3.746  0.844E-01  0.844E-01
  -3.736  0.845E-01  0.845E-01
  -3.726  0.845E-01  0.845E-01
  -3.716  0.846E-01  0.846E-01
  -3.706  0.847E-01  0.847E-01
  -3.696  0.847E-01  0.847E-01
  -3.686  0.848E-01  0.848E-01
  -3.676  0.848E-01  0.848E-01
  -3.666  0.849E-01  0.849E-01
  -3.656  0.849E-01  0.849E-01
  -3.646  0.850E-01  0.850E-01
  -3.636  0.851E-01  0.851E-01
  -3.626  0.851E-01  0.851E-01
  -3.616  0.852E-01  0.852E-01
  -3.606  0.852E-01  0.852E-01
  -3.596  0.853E-01  0.853E-01
  -3.586  0.853E-01  0.853E-01
  -3.576  0.854E-01  0.854E-01
  -3.566  0.855E-01  0.855E-01
  -3.556  0.855E-01  0.855E-01
  -3.546  0.856E-01  0.856E-01
  -3.536  0.857E-01  0.857E-01
  -3.526  0.857E-01  0.857E-01
  -3.516  0.858E-01  0.858E-01
  -3.506  0.859E-01  0.859E-01
  -3.496  0.860E-01  0.860E-01
  -3.486  0.860E-01  0.860E-01
  -3.476  0.861E-01  0.861E-01
  -3.466  0.862E-01  0.862E-01
  -3.456  0.863E-01  0.863E-01
  -3.446  0.864E-01  0.864E-01
  -3.436  0.865E-01  0.865E-01
  -3.426  0.865E-01  0.865E-01
  -3.416  0.866E-01  0.866E-01
  -3.406  0.867E-01  0.867E-01
  -3.396  0.868E-01  0.868E-01
  -3.386  0.869E-01  0.869E-01
  -3.376  0.870E-01  0.870E-01
  -3.366  0.871E-01  0.871E-01
  -3.356  0.872E-01  0.872E-01
  -3.346  0.873E-01  0.873E-01
  -3.336  0.874E-01  0.874E-01
  -3.326  0.875E-01  0.875E-01
  -3.316  0.876E-01  0.876E-01
  -3.306  0.877E-01  0.877E-01
  -3.296  0.878E-01  0.878E-01
  -3.286  0.879E-01  0.879E-01
  -3.276  0.880E-01  0.880E-01
  -3.266  0.881E-01  0.881E-01
  -3.256  0.882E-01  0.882E-01
  -3.246  0.883E-01  0.883E-01
  -3.236  0.884E-01  0.884E-01
  -3.226  0.885E-01  0.885E-01
  -3.216  0.886E-01  0.886E-01
  -3.206  0.887E-01  0.887E-01
  -3.196  0.888E-01  0.888E-01
  -3.186  0.889E-01  0.889E-01
  -3.176  0.890E-01  0.890E-01
  -3.166  0.891E-01  0.891E-01
  -3.156  0.892E-01  0.892E-01
  -3.146  0.893E-01  0.893E-01
  -3.136  0.894E-01  0.894E-01
  -3.126  0.895E-01  0.895E-01
  -3.116  0.896E-01  0.896E-01
  -3.106  0.898E-01  0.898E-01
  -3.096  0.899E-01  0.899E-01
  -3.086  0.900E-01  0.900E-01
  -3.076  0.901E-01  0.901E-01
  -3.066  0.903E-01  0.903E-01
  -3.056  0.904E-01  0.904E-01
  -3.046  0.906E-01  0.906E-01
  -3.036  0.907E-01  0.907E-01
  -3.026  0.909E-01  0.909E-01
  -3.016  0.910E-01  0.910E-01
  -3.006  0.912E-01  0.912E-01
  -2.996  0.914E-01  0.914E-01
  -2.986  0.916E-01  0.916E-01
  -2.976  0.918E-01  0.918E-01
  -2.966  0.920E-01  0.920E-01
  -2.956  0.922E-01  0.922E-01
  -2.946  0.925E-01  0.925E-01
  -2.936  0.927E-01  0.927E-01
  -2.926  0.930E-01  0.930E-01
  -2.916  0.933E-01  0.933E-01
  -2.906  0.936E-01  0.936E-01
  -2.896  0.939E-01  0.939E-01
  -2.886  0.943E-01  0.943E-01
  -2.876  0.946E-01  0.946E-01
  -2.866  0.950E-01  0.950E-01
  -2.856  0.954E-01  0.954E-01
  -2.846  0.958E-01  0.958E-01
  -2.836  0.962E-01  0.962E-01
  -2.826  0.967E-01  0.967E-01
  -2.816  0.972E-01  0.972E-01
  -2.806  0.977E-01  0.977E-01
  -2.796  0.982E-01  0.982E-01
  -2.786  0.988E-01  0.988E-01
  -2.776  0.994E-01  0.994E-01
  -2.766  0.100E+00  0.100E+00
  -2.756  0.101E+00  0.101E+00
  -2.746  0.101E+00  0.101E+00
  -2.736  0.102E+00  0.102E+00
  -2.726  0.103E+00  0.103E+00
  -2.716  0.103E+00  0.103E+00
  -2.706  0.104E+00  0.104E+00
  -2.696  0.105E+00  0.105E+00
  -2.686  0.106E+00  0.106E+00
  -2.676  0.107E+00  0.107E+00
  -2.666  0.108E+00  0.108E+00
  -2.656  0.108E+00  0.108E+00
  -2.646  0.109E+00  0.109E+00
  -2.636  0.110E+00  0.110E+00
  -2.626  0.111E+00  0.111E+00
  -2.616  0.112E+00  0.112E+00
  -2.606  0.113E+00  0.113E+00
  -2.596  0.114E+00  0.114E+00
  -2.586  0.115E+00  0.115E+00
  -2.576  0.117E+00  0.117E+00
  -2.566  0.118E+00  0.118E+00
  -2.556  0.119E+00  0.119E+00
  -2.546  0.120E+00  0.120E+00
  -2.536  0.121E+00  0.121E+00
  -2.526  0.122E+00  0.122E+00
  -2.516  0.124E+00  0.124E+00
  -2.506  0.125E+00  0.125E+00
  -2.496  0.126E+00  0.126E+00
  -2.486  0.127E+00  0.127E+00
  -2.476  0.129E+00  0.129E+00
  -2.466  0.130E+00  0.130E+00
  -2.456  0.131E+00  0.131E+00
  -2.446  0.132E+00  0.132E+00
  -2.436  0.134E+00  0.134E+00
  -2.426  0.135E+00  0.135E+00
  -2.416  0.136E+00  0.136E+00
  -2.406  0.137E+00  0.137E+00
  -2.396  0.139E+00  0.139E+00
  -2.386  0.140E+00  0.140E+00
  -2.376  0.141E+00  0.141E+00
  -2.366  0.142E+00  0.142E+00
  -2.356  0.144E+00  0.144E+00
  -2.346  0.145E+00  0.145E+00
  -2.336  0.146E+00  0.146E+00
  -2.326  0.147E+00  0.147E+00
  -2.316  0.148E+00  0.148E+00
  -2.306  0.149E+00  0.149E+00
  -2.296  0.150E+00  0.150E+00
  -2.286  0.151E+00  0.151E+00
  -2.276  0.152E+00  0.152E+00
  -2.266  0.153E+00  0.153E+00
  -2.256  0.154E+00  0.154E+00
  -2.246  0.155E+00  0.155E+00
  -2.236  0.156E+00  0.156E+00
  -2.226  0.157E+00  0.157E+00
  -2.216  0.157E+00  0.157E+00
  -2.206  0.158E+00  0.158E+00
  -2.196  0.159E+00  0.159E+00
  -2.186  0.159E+00  0.159E+00
  -2.176  0.160E+00  0.160E+00
  -2.166  0.160E+00  0.160E+00
  -2.156  0.161E+00  0.161E+00
  -2.146  0.161E+00  0.161E+00
  -2.136  0.161E+00  0.161E+00
  -2.126  0.162E+00  0.162E+00
  -2.116  0.162E+00  0.162E+00
  -2.106  0.162E+00  0.162E+00
  -2.096  0.162E+00  0.162E+00
  -2.086  0.162E+00  0.162E+00
  -2.076  0.162E+00  0.162E+00
  -2.066  0.162E+00  0.162E+00
  -2.056  0.162E+00  0.162E+00
  -2.046  0.161E+00  0.161E+00
  -2.036  0.161E+00  0.161E+00
  -2.026  0.161E+00  0.161E+00
  -2.016  0.160E+00  0.160E+00
  -2.006  0.160E+00  0.160E+00
  -1.996  0.159E+00  0.159E+00
  -1.986  0.159E+00  0.159E+00
  -1.976  0.158E+00  0.158E+00
  -1.966  0.157E+00  0.157E+00
  -1.956  0.156E+00  0.156E+00
  -1.946  0.155E+00  0.155E+00
  -1.936  0.155E+00  0.155E+00
  -1.926  0.154E+00  0.154E+00
  -1.916  0.152E+00  0.152E+00
  -1.906  0.151E+00  0.151E+00
  -1.896  0.150E+00  0.150E+00
  -1.886  0.149E+00  0.149E+00
  -1.876  0.148E+00  0.148E+00
  -1.866  0.146E+00  0.146E+00
  -1.856  0.145E+00  0.145E+00
  -1.846  0.144E+00  0.144E+00
  -1.836  0.142E+00  0.142E+00
  -1.826  0.141E+00  0.141E+00
  -1.816  0.139E+00  0.139E+00
  -1.806  0.138E+00  0.138E+00
  -1.796  0.136E+00  0.136E+00
  -1.786  0.134E+00  0.134E+00
  -1.776  0.133E+00  0.133E+00
  -1.766  0.131E+00  0.131E+00
  -1.756  0.129E+00  0.129E+00
  -1.746  0.128E+00  0.128E+00
  -1.736  0.126E+00  0.126E+00
  -1.726  0.124E+00  0.124E+00
  -1.716  0.122E+00  0.122E+00
  -1.706  0.120E+00  0.120E+00
  -1.696  0.119E+00  0.119E+00
  -1.686  0.117E+00  0.117E+00
  -1.676  0.115E+00  0.115E+00
  -1.666  0.113E+00  0.113E+00
  -1.656  0.111E+00  0.111E+00
  -1.646  0.109E+00  0.109E+00
  -1.636  0.107E+00  0.107E+00
  -1.626  0.105E+00  0.105E+00
  -1.616  0.104E+00  0.104E+00
  -1.606  0.102E+00  0.102E+00
  -1.596  0.999E-01  0.999E-01
  -1.586  0.980E-01  0.980E-01
  -1.576  0.962E-01  0.962E-01
  -1.566  0.944E-01  0.944E-01
  -1.556  0.926E-01  0.926E-01
  -1.546  0.908E-01  0.908E-01
  -1.536  0.890E-01  0.890E-01
  -1.526  0.873E-01  0.873E-01
  -1.516  0.856E-01  0.856E-01
  -1.506  0.839E-01  0.839E-01
  -1.496  0.822E-01  0.822E-01
  -1.486  0.805E-01  0.805E-01
  -1.476  0.789E-01  0.789E-01
  -1.466  0.773E-01  0.773E-01
  -1.456  0.757E-01  0.757E-01
  -1.446  0.742E-01  0.742E-01
  -1.436  0.726E-01  0.726E-01
  -1.426  0.711E-01  0.711E-01
  -1.416  0.697E-01  0.697E-01
  -1.406  0.683E-01  0.683E-01
  -1.396  0.669E-01  0.669E-01
  -1.386  0.655E-01  0.655E-01
  -1.376  0.641E-01  0.641E-01
  -1.366  0.628E-01  0.628E-01
  -1.356  0.616E-01  0.616E-01
  -1.346  0.603E-01  0.603E-01
  -1.336  0.591E-01  0.591E-01
  -1.326  0.579E-01  0.579E-01
  -1.316  0.568E-01  0.568E-01
  -1.306  0.557E-01  0.557E-01
  -1.296  0.546E-01  0.546E-01
  -1.286  0.535E-01  0.535E-01
  -1.276  0.525E-01  0.525E-01
  -1.266  0.515E-01  0.515E-01
  -1.256  0.505E-01  0.505E-01
  -1.246  0.496E-01  0.496E-01
  -1.236  0.487E-01  0.487E-01
  -1.226  0.478E-01  0.478E-01
  -1.216  0.470E-01  0.470E-01
  -1.206  0.461E-01  0.461E-01
  -1.196  0.454E-01  0.454E-01
  -1.186  0.446E-01  0.446E-01
  -1.176  0.438E-01  0.438E-01
  -1.166  0.431E-01  0.431E-01
  -1.156  0.424E-01  0.424E-01
  -1.146  0.417E-01  0.417E-01
  -1.136  0.411E-01  0.411E-01
  -1.126  0.404E-01  0.404E-01
  -1.116  0.398E-01  0.398E-01
  -1.106  0.392E-01  0.392E-01
  -1.096  0.386E-01  0.386E-01
  -1.086  0.381E-01  0.381E-01
  -1.076  0.375E-01  0.375E-01
  -1.066  0.370E-01  0.370E-01
  -1.056  0.365E-01  0.365E-01
  -1.046  0.360E-01  0.360E-01
  -1.036  0.355E-01  0.355E-01
  -1.026  0.351E-01  0.351E-01
  -1.016  0.346E-01  0.346E-01
  -1.006  0.342E-01  0.342E-01
  -0.996  0.338E-01  0.338E-01
  -0.986  0.333E-01  0.333E-01
  -0.976  0.329E-01  0.329E-01
  -0.966  0.326E-01  0.326E-01
  -0.956  0.322E-01  0.322E-01
  -0.946  0.318E-01  0.318E-01
  -0.936  0.314E-01  0.314E-01
  -0.926  0.311E-01  0.311E-01
  -0.916  0.308E-01  0.308E-01
  -0.906  0.304E-01  0.304E-01
  -0.896  0.301E-01  0.301E-01
  -0.886  0.298E-01  0.298E-01
  -0.876  0.295E-01  0.295E-01
  -0.866  0.292E-01  0.292E-01
  -0.856  0.289E-01  0.289E-01
  -0.846  0.286E-01  0.286E-01
  -0.836  0.284E-01  0.284E-01
  -0.826  0.281E-01  0.281E-01
  -0.816  0.278E-01  0.278E-01
  -0.806  0.276E-01  0.276E-01
  -0.796  0.274E-01  0.274E-01
  -0.786  0.272E-01  0.272E-01
  -0.776  0.269E-01  0.269E-01
  -0.766  0.267E-01  0.267E-01
  -0.756  0.265E-01  0.265E-01
  -0.746  0.264E-01  0.264E-01
  -0.736  0.262E-01  0.262E-01
  -0.726  0.260E-01  0.260E-01
  -0.716  0.259E-01  0.259E-01
  -0.706  0.258E-01  0.258E-01
  -0.696  0.256E-01  0.256E-01
  -0.686  0.255E-01  0.255E-01
  -0.676  0.254E-01  0.254E-01
  -0.666  0.254E-01  0.254E-01
  -0.656  0.253E-01  0.253E-01
  -0.646  0.252E-01  0.252E-01
  -0.636  0.252E-01  0.252E-01
  -0.626  0.252E-01  0.252E-01
  -0.616  0.252E-01  0.252E-01
  -0.606  0.252E-01  0.252E-01
  -0.596  0.252E-01  0.252E-01
  -0.586  0.253E-01  0.253E-01
  -0.576  0.254E-01  0.254E-01
  -0.566  0.254E-01  0.254E-01
  -0.556  0.255E-01  0.255E-01
  -0.546  0.257E-01  0.257E-01
  -0.536  0.258E-01  0.258E-01
  -0.526  0.260E-01  0.260E-01
  -0.516  0.262E-01  0.262E-01
  -0.506  0.264E-01  0.264E-01
  -0.496  0.266E-01  0.266E-01
  -0.486  0.269E-01  0.269E-01
  -0.476  0.271E-01  0.271E-01
  -0.466  0.274E-01  0.274E-01
  -0.456  0.277E-01  0.277E-01
  -0.446  0.281E-01  0.281E-01
  -0.436  0.284E-01  0.284E-01
  -0.426  0.288E-01  0.288E-01
  -0.416  0.292E-01  0.292E-01
  -0.406  0.296E-01  0.296E-01
  -0.396  0.301E-01  0.301E-01
  -0.386  0.305E-01  0.305E-01
  -0.376  0.310E-01  0.310E-01
  -0.366  0.315E-01  0.315E-01
  -0.356  0.320E-01  0.320E-01
  -0.346  0.326E-01  0.326E-01
  -0.336  0.331E-01  0.331E-01
  -0.326  0.337E-01  0.337E-01
  -0.316  0.343E-01  0.343E-01
  -0.306  0.349E-01  0.349E-01
  -0.296  0.355E-01  0.355E-01
  -0.286  0.362E-01  0.362E-01
  -0.276  0.368E-01  0.368E-01
  -0.266  0.375E-01  0.375E-01
  -0.256  0.382E-01  0.382E-01
  -0.246  0.389E-01  0.389E-01
  -0.236  0.396E-01  0.396E-01
  -0.226  0.403E-01  0.403E-01
  -0.216  0.411E-01  0.411E-01
  -0.206  0.418E-01  0.418E-01
  -0.196  0.425E-01  0.425E-01
  -0.186  0.433E-01  0.433E-01
  -0.176  0.440E-01  0.440E-01
  -0.166  0.448E-01  0.448E-01
  -0.156  0.456E-01  0.456E-01
  -0.146  0.463E-01  0.463E-01
  -0.136  0.471E-01  0.471E-01
  -0.126  0.478E-01  0.478E-01
  -0.116  0.486E-01  0.486E-01
  -0.106  0.494E-01  0.494E-01
  -0.096  0.501E-01  0.501E-01
  -0.086  0.509E-01  0.509E-01
  -0.076  0.516E-01  0.516E-01
  -0.066  0.523E-01  0.523E-01
  -0.056  0.530E-01  0.530E-01
  -0.046  0.537E-01  0.537E-01
  -0.036  0.544E-01  0.544E-01
  -0.026  0.551E-01  0.551E-01
  -0.016  0.558E-01  0.558E-01
  -0.006  0.564E-01  0.564E-01
   0.004  0.570E-01  0.570E-01
   0.014  0.577E-01  0.577E-01
   0.024  0.582E-01  0.582E-01
   0.034  0.588E-01  0.588E-01
   0.044  0.594E-01  0.594E-01
   0.054  0.599E-01  0.599E-01
   0.064  0.604E-01  0.604E-01
   0.074  0.609E-01  0.609E-01
   0.084  0.613E-01  0.613E-01
   0.094  0.618E-01  0.618E-01
   0.104  0.622E-01  0.622E-01
   0.114  0.626E-01  0.626E-01
   0.124  0.629E-01  0.629E-01
   0.134  0.632E-01  0.632E-01
   0.144  0.635E-01  0.635E-01
   0.154  0.638E-01  0.638E-01
   0.164  0.640E-01  0.640E-01
   0.174  0.643E-01  0.643E-01
   0.184  0.644E-01  0.644E-01
   0.194  0.646E-01  0.646E-01
   0.204  0.647E-01  0.647E-01
   0.214  0.648E-01  0.648E-01
   0.224  0.649E-01  0.649E-01
   0.234  0.649E-01  0.649E-01
   0.244  0.649E-01  0.649E-01
   0.254  0.649E-01  0.649E-01
   0.264  0.649E-01  0.649E-01
   0.274  0.648E-01  0.648E-01
   0.284  0.647E-01  0.647E-01
   0.294  0.646E-01  0.646E-01
   0.304  0.644E-01  0.644E-01
   0.314  0.643E-01  0.643E-01
   0.324  0.641E-01  0.641E-01
   0.334  0.639E-01  0.639E-01
   0.344  0.636E-01  0.636E-01
   0.354  0.633E-01  0.633E-01
   0.364  0.631E-01  0.631E-01
   0.374  0.628E-01  0.628E-01
   0.384  0.624E-01  0.624E-01
   0.394  0.621E-01  0.621E-01
   0.404  0.618E-01  0.618E-01
   0.414  0.614E-01  0.614E-01
   0.424  0.610E-01  0.610E-01
   0.434  0.606E-01  0.606E-01
   0.444  0.602E-01  0.602E-01
   0.454  0.598E-01  0.598E-01
   0.464  0.594E-01  0.594E-01
   0.474  0.590E-01  0.590E-01
   0.484  0.585E-01  0.585E-01
   0.494  0.581E-01  0.581E-01
   0.504  0.576E-01  0.576E-01
   0.514  0.572E-01  0.572E-01
   0.524  0.567E-01  0.567E-01
   0.534  0.563E-01  0.563E-01
   0.544  0.558E-01  0.558E-01
   0.554  0.554E-01  0.554E-01
   0.564  0.549E-01  0.549E-01
   0.574  0.545E-01  0.545E-01
   0.584  0.541E-01  0.541E-01
   0.594  0.536E-01  0.536E-01
   0.604  0.532E-01  0.532E-01
   0.614  0.528E-01  0.528E-01
   0.624  0.524E-01  0.524E-01
   0.634  0.520E-01  0.520E-01
   0.644  0.516E-01  0.516E-01
   0.654  0.513E-01  0.513E-01
   0.664  0.509E-01  0.509E-01
   0.674  0.506E-01  0.506E-01
   0.684  0.503E-01  0.503E-01
   0.694  0.499E-01  0.499E-01
   0.704  0.496E-01  0.496E-01
   0.714  0.494E-01  0.494E-01
   0.724  0.491E-01  0.491E-01
   0.734  0.488E-01  0.488E-01
   0.744  0.486E-01  0.486E-01
   0.754  0.484E-01  0.484E-01
   0.764  0.482E-01  0.482E-01
   0.774  0.480E-01  0.480E-01
   0.784  0.479E-01  0.479E-01
   0.794  0.477E-01  0.477E-01
   0.804  0.476E-01  0.476E-01
   0.814  0.475E-01  0.475E-01
   0.824  0.474E-01  0.474E-01
   0.834  0.473E-01  0.473E-01
   0.844  0.472E-01  0.472E-01
   0.854  0.472E-01  0.472E-01
   0.864  0.472E-01  0.472E-01
   0.874  0.472E-01  0.472E-01
   0.884  0.472E-01  0.472E-01
   0.894  0.472E-01  0.472E-01
   0.904  0.472E-01  0.472E-01
   0.914  0.473E-01  0.473E-01
   0.924  0.473E-01  0.473E-01
   0.934  0.474E-01  0.474E-01
   0.944  0.475E-01  0.475E-01
   0.954  0.476E-01  0.476E-01
   0.964  0.477E-01  0.477E-01
   0.974  0.478E-01  0.478E-01
   0.984  0.480E-01  0.480E-01
   0.994  0.481E-01  0.481E-01
   1.004  0.482E-01  0.482E-01
   1.014  0.484E-01  0.484E-01
   1.024  0.486E-01  0.486E-01
   1.034  0.487E-01  0.487E-01
   1.044  0.489E-01  0.489E-01
   1.054  0.490E-01  0.490E-01
   1.064  0.492E-01  0.492E-01
   1.074  0.494E-01  0.494E-01
   1.084  0.496E-01  0.496E-01
   1.094  0.497E-01  0.497E-01
   1.104  0.499E-01  0.499E-01
   1.114  0.501E-01  0.501E-01
   1.124  0.502E-01  0.502E-01
   1.134  0.504E-01  0.504E-01
   1.144  0.506E-01  0.506E-01
   1.154  0.507E-01  0.507E-01
   1.164  0.508E-01  0.508E-01
   1.174  0.510E-01  0.510E-01
   1.184  0.511E-01  0.511E-01
   1.194  0.512E-01  0.512E-01
   1.204  0.513E-01  0.513E-01
   1.214  0.514E-01  0.514E-01
   1.224  0.515E-01  0.515E-01
   1.234  0.516E-01  0.516E-01
   1.244  0.517E-01  0.517E-01
   1.254  0.517E-01  0.517E-01
   1.264  0.517E-01  0.517E-01
   1.274  0.518E-01  0.518E-01
   1.284  0.518E-01  0.518E-01
   1.294  0.517E-01  0.517E-01
   1.304  0.517E-01  0.517E-01
   1.314  0.517E-01  0.517E-01
   1.324  0.516E-01  0.516E-01
   1.334  0.515E-01  0.515E-01
   1.344  0.515E-01  0.515E-01
   1.354  0.513E-01  0.513E-01
   1.364  0.512E-01  0.512E-01
   1.374  0.511E-01  0.511E-01
   1.384  0.509E-01  0.509E-01
   1.394  0.507E-01  0.507E-01
   1.404  0.505E-01  0.505E-01
   1.414  0.503E-01  0.503E-01
   1.424  0.501E-01  0.501E-01
   1.434  0.498E-01  0.498E-01
   1.444  0.496E-01  0.496E-01
   1.454  0.493E-01  0.493E-01
   1.464  0.490E-01  0.490E-01
   1.474  0.486E-01  0.486E-01
   1.484  0.483E-01  0.483E-01
   1.494  0.479E-01  0.479E-01
   1.504  0.476E-01  0.476E-01
   1.514  0.472E-01  0.472E-01
   1.524  0.468E-01  0.468E-01
   1.534  0.464E-01  0.464E-01
   1.544  0.459E-01  0.459E-01
   1.554  0.455E-01  0.455E-01
   1.564  0.450E-01  0.450E-01
   1.574  0.446E-01  0.446E-01
   1.584  0.441E-01  0.441E-01
   1.594  0.436E-01  0.436E-01
   1.604  0.431E-01  0.431E-01
   1.614  0.426E-01  0.426E-01
   1.624  0.421E-01  0.421E-01
   1.634  0.415E-01  0.415E-01
   1.644  0.410E-01  0.410E-01
   1.654  0.405E-01  0.405E-01
   1.664  0.399E-01  0.399E-01
   1.674  0.394E-01  0.394E-01
   1.684  0.388E-01  0.388E-01
   1.694  0.383E-01  0.383E-01
   1.704  0.377E-01  0.377E-01
   1.714  0.371E-01  0.371E-01
   1.724  0.366E-01  0.366E-01
   1.734  0.360E-01  0.360E-01
   1.744  0.355E-01  0.355E-01
   1.754  0.349E-01  0.349E-01
   1.764  0.344E-01  0.344E-01
   1.774  0.339E-01  0.339E-01
   1.784  0.333E-01  0.333E-01
   1.794  0.328E-01  0.328E-01
   1.804  0.323E-01  0.323E-01
   1.814  0.318E-01  0.318E-01
   1.824  0.313E-01  0.313E-01
   1.834  0.308E-01  0.308E-01
   1.844  0.304E-01  0.304E-01
   1.854  0.299E-01  0.299E-01
   1.864  0.295E-01  0.295E-01
   1.874  0.291E-01  0.291E-01
   1.884  0.287E-01  0.287E-01
   1.894  0.283E-01  0.283E-01
   1.904  0.279E-01  0.279E-01
   1.914  0.276E-01  0.276E-01
   1.924  0.273E-01  0.273E-01
   1.934  0.270E-01  0.270E-01
   1.944  0.268E-01  0.268E-01
   1.954  0.265E-01  0.265E-01
   1.964  0.263E-01  0.263E-01
   1.974  0.261E-01  0.261E-01
   1.984  0.260E-01  0.260E-01
   1.994  0.258E-01  0.258E-01
   2.004  0.257E-01  0.257E-01
   2.014  0.257E-01  0.257E-01
   2.024  0.256E-01  0.256E-01
   2.034  0.256E-01  0.256E-01
   2.044  0.257E-01  0.257E-01
   2.054  0.257E-01  0.257E-01
   2.064  0.258E-01  0.258E-01
   2.074  0.260E-01  0.260E-01
   2.084  0.261E-01  0.261E-01
   2.094  0.263E-01  0.263E-01
   2.104  0.266E-01  0.266E-01
   2.114  0.269E-01  0.269E-01
   2.124  0.272E-01  0.272E-01
   2.134  0.275E-01  0.275E-01
   2.144  0.279E-01  0.279E-01
   2.154  0.284E-01  0.284E-01
   2.164  0.288E-01  0.288E-01
   2.174  0.293E-01  0.293E-01
   2.184  0.299E-01  0.299E-01
   2.194  0.305E-01  0.305E-01
   2.204  0.311E-01  0.311E-01
   2.214  0.317E-01  0.317E-01
   2.224  0.324E-01  0.324E-01
   2.234  0.331E-01  0.331E-01
   2.244  0.339E-01  0.339E-01
   2.254  0.347E-01  0.347E-01
   2.264  0.356E-01  0.356E-01
   2.274  0.364E-01  0.364E-01
   2.284  0.373E-01  0.373E-01
   2.294  0.383E-01  0.383E-01
   2.304  0.392E-01  0.392E-01
   2.314  0.402E-01  0.402E-01
   2.324  0.413E-01  0.413E-01
   2.334  0.423E-01  0.423E-01
   2.344  0.434E-01  0.434E-01
   2.354  0.446E-01  0.446E-01
   2.364  0.457E-01  0.457E-01
   2.374  0.469E-01  0.469E-01
   2.384  0.481E-01  0.481E-01
   2.394  0.493E-01  0.493E-01
   2.404  0.506E-01  0.506E-01
   2.414  0.518E-01  0.518E-01
   2.424  0.531E-01  0.531E-01
   2.434  0.544E-01  0.544E-01
   2.444  0.557E-01  0.557E-01
   2.454  0.571E-01  0.571E-01
   2.464  0.584E-01  0.584E-01
   2.474  0.598E-01  0.598E-01
   2.484  0.611E-01  0.611E-01
   2.494  0.625E-01  0.625E-01
   2.504  0.639E-01  0.639E-01
   2.514  0.652E-01  0.652E-01
   2.524  0.666E-01  0.666E-01
   2.534  0.680E-01  0.680E-01
   2.544  0.694E-01  0.694E-01
   2.554  0.708E-01  0.708E-01
   2.564  0.721E-01  0.721E-01
   2.574  0.735E-01  0.735E-01
   2.584  0.748E-01  0.748E-01
   2.594  0.762E-01  0.762E-01
   2.604  0.775E-01  0.775E-01
   2.614  0.788E-01  0.788E-01
   2.624  0.801E-01  0.801E-01
   2.634  0.813E-01  0.813E-01
   2.644  0.826E-01  0.826E-01
   2.654  0.838E-01  0.838E-01
   2.664  0.850E-01  0.850E-01
   2.674  0.862E-01  0.862E-01
   2.684  0.873E-01  0.873E-01
   2.694  0.884E-01  0.884E-01
   2.704  0.895E-01  0.895E-01
   2.714  0.905E-01  0.905E-01
   2.724  0.915E-01  0.915E-01
   2.734  0.925E-01  0.925E-01
   2.744  0.934E-01  0.934E-01
   2.754  0.943E-01  0.943E-01
   2.764  0.951E-01  0.951E-01
   2.774  0.959E-01  0.959E-01
   2.784  0.967E-01  0.967E-01
   2.794  0.974E-01  0.974E-01
   2.804  0.980E-01  0.980E-01
   2.814  0.987E-01  0.987E-01
   2.824  0.992E-01  0.992E-01
   2.834  0.997E-01  0.997E-01
   2.844  0.100E+00  0.100E+00
   2.854  0.101E+00  0.101E+00
   2.864  0.101E+00  0.101E+00
   2.874  0.101E+00  0.101E+00
   2.884  0.101E+00  0.101E+00
   2.894  0.102E+00  0.102E+00
   2.904  0.102E+00  0.102E+00
   2.914  0.102E+00  0.102E+00
   2.924  0.102E+00  0.102E+00
   2.934  0.102E+00  0.102E+00
   2.944  0.102E+00  0.102E+00
   2.954  0.101E+00  0.101E+00
   2.964  0.101E+00  0.101E+00
   2.974  0.101E+00  0.101E+00
   2.984  0.101E+00  0.101E+00
   2.994  0.100E+00  0.100E+00
   3.004  0.997E-01  0.997E-01
   3.014  0.992E-01  0.992E-01
   3.024  0.986E-01  0.986E-01
   3.034  0.980E-01  0.980E-01
   3.044  0.973E-01  0.973E-01
   3.054  0.966E-01  0.966E-01
   3.064  0.958E-01  0.958E-01
   3.074  0.950E-01  0.950E-01
   3.084  0.941E-01  0.941E-01
   3.094  0.932E-01  0.932E-01
   3.104  0.922E-01  0.922E-01
   3.114  0.912E-01  0.912E-01
   3.124  0.901E-01  0.901E-01
   3.134  0.890E-01  0.890E-01
   3.144  0.879E-01  0.879E-01
   3.154  0.867E-01  0.867E-01
   3.164  0.855E-01  0.855E-01
   3.174  0.842E-01  0.842E-01
   3.184  0.829E-01  0.829E-01
   3.194  0.816E-01  0.816E-01
   3.204  0.802E-01  0.802E-01
   3.214  0.788E-01  0.788E-01
   3.224  0.774E-01  0.774E-01
   3.234  0.760E-01  0.760E-01
   3.244  0.745E-01  0.745E-01
   3.254  0.730E-01  0.730E-01
   3.264  0.715E-01  0.715E-01
   3.274  0.699E-01  0.699E-01
   3.284  0.684E-01  0.684E-01
   3.294  0.668E-01  0.668E-01
   3.304  0.652E-01  0.652E-01
   3.314  0.637E-01  0.637E-01
   3.324  0.621E-01  0.621E-01
   3.334  0.605E-01  0.605E-01
   3.344  0.588E-01  0.588E-01
   3.354  0.572E-01  0.572E-01
   3.364  0.556E-01  0.556E-01
   3.374  0.540E-01  0.540E-01
   3.384  0.524E-01  0.524E-01
   3.394  0.508E-01  0.508E-01
   3.404  0.492E-01  0.492E-01
   3.414  0.476E-01  0.476E-01
   3.424  0.460E-01  0.460E-01
   3.434  0.444E-01  0.444E-01
   3.444  0.428E-01  0.428E-01
   3.454  0.413E-01  0.413E-01
   3.464  0.397E-01  0.397E-01
   3.474  0.382E-01  0.382E-01
   3.484  0.367E-01  0.367E-01
   3.494  0.352E-01  0.352E-01
   3.504  0.338E-01  0.338E-01
   3.514  0.323E-01  0.323E-01
   3.524  0.309E-01  0.309E-01
   3.534  0.295E-01  0.295E-01
   3.544  0.281E-01  0.281E-01
   3.554  0.268E-01  0.268E-01
   3.564  0.254E-01  0.254E-01
   3.574  0.241E-01  0.241E-01
   3.584  0.229E-01  0.229E-01
   3.594  0.216E-01  0.216E-01
   3.604  0.204E-01  0.204E-01
   3.614  0.192E-01  0.192E-01
   3.624  0.181E-01  0.181E-01
   3.634  0.170E-01  0.170E-01
   3.644  0.159E-01  0.159E-01
   3.654  0.148E-01  0.148E-01
   3.664  0.138E-01  0.138E-01
   3.674  0.128E-01  0.128E-01
   3.684  0.118E-01  0.118E-01
   3.694  0.109E-01  0.109E-01
   3.704  0.996E-02  0.996E-02
   3.714  0.908E-02  0.908E-02
   3.724  0.824E-02  0.824E-02
   3.734  0.743E-02  0.743E-02
   3.744  0.665E-02  0.665E-02
   3.754  0.590E-02  0.590E-02
   3.764  0.518E-02  0.518E-02
   3.774  0.449E-02  0.449E-02
   3.784  0.383E-02  0.383E-02
   3.794  0.320E-02  0.320E-02
   3.804  0.260E-02  0.260E-02
   3.814  0.203E-02  0.203E-02
   3.824  0.149E-02  0.149E-02
   3.834  0.975E-03  0.975E-03
   3.844  0.488E-03  0.488E-03
   3.854  0.274E-04  0.274E-04
   3.864 -0.407E-03 -0.407E-03
   3.874 -0.815E-03 -0.815E-03
   3.884 -0.120E-02 -0.120E-02
   3.894 -0.156E-02 -0.156E-02
   3.904 -0.189E-02 -0.189E-02
   3.914 -0.221E-02 -0.221E-02
   3.924 -0.250E-02 -0.250E-02
   3.934 -0.276E-02 -0.276E-02
   3.944 -0.301E-02 -0.301E-02
   3.954 -0.324E-02 -0.324E-02
   3.964 -0.345E-02 -0.345E-02
   3.974 -0.363E-02 -0.363E-02
   3.984 -0.381E-02 -0.381E-02
   3.994 -0.396E-02 -0.396E-02
   4.004 -0.409E-02 -0.409E-02
   4.014 -0.421E-02 -0.421E-02
   4.024 -0.432E-02 -0.432E-02
   4.034 -0.441E-02 -0.441E-02
   4.044 -0.449E-02 -0.449E-02
   4.054 -0.455E-02 -0.455E-02
   4.064 -0.460E-02 -0.460E-02
   4.074 -0.464E-02 -0.464E-02
   4.084 -0.466E-02 -0.466E-02
   4.094 -0.468E-02 -0.468E-02
   4.104 -0.468E-02 -0.468E-02
   4.114 -0.468E-02 -0.468E-02
   4.124 -0.467E-02 -0.467E-02
   4.134 -0.465E-02 -0.465E-02
   4.144 -0.462E-02 -0.462E-02
   4.154 -0.458E-02 -0.458E-02
   4.164 -0.454E-02 -0.454E-02
   4.174 -0.449E-02 -0.449E-02
   4.184 -0.444E-02 -0.444E-02
   4.194 -0.438E-02 -0.438E-02
   4.204 -0.431E-02 -0.431E-02
   4.214 -0.424E-02 -0.424E-02
   4.224 -0.417E-02 -0.417E-02
   4.234 -0.409E-02 -0.409E-02
   4.244 -0.401E-02 -0.401E-02
   4.254 -0.393E-02 -0.393E-02
   4.264 -0.385E-02 -0.385E-02
   4.274 -0.376E-02 -0.376E-02
   4.284 -0.367E-02 -0.367E-02
   4.294 -0.358E-02 -0.358E-02
   4.304 -0.349E-02 -0.349E-02
   4.314 -0.340E-02 -0.340E-02
   4.324 -0.331E-02 -0.331E-02
   4.334 -0.322E-02 -0.322E-02
   4.344 -0.312E-02 -0.312E-02
   4.354 -0.303E-02 -0.303E-02
   4.364 -0.294E-02 -0.294E-02
   4.374 -0.285E-02 -0.285E-02
   4.384 -0.276E-02 -0.276E-02
   4.394 -0.267E-02 -0.267E-02
   4.404 -0.258E-02 -0.258E-02
   4.414 -0.249E-02 -0.249E-02
   4.424 -0.240E-02 -0.240E-02
   4.434 -0.232E-02 -0.232E-02
   4.444 -0.223E-02 -0.223E-02
   4.454 -0.215E-02 -0.215E-02
   4.464 -0.207E-02 -0.207E-02
   4.474 -0.199E-02 -0.199E-02
   4.484 -0.191E-02 -0.191E-02
   4.494 -0.184E-02 -0.184E-02
   4.504 -0.176E-02 -0.176E-02
   4.514 -0.169E-02 -0.169E-02
   4.524 -0.162E-02 -0.162E-02
   4.534 -0.155E-02 -0.155E-02
   4.544 -0.148E-02 -0.148E-02
   4.554 -0.142E-02 -0.142E-02
   4.564 -0.136E-02 -0.136E-02
   4.574 -0.130E-02 -0.130E-02
   4.584 -0.124E-02 -0.124E-02
   4.594 -0.118E-02 -0.118E-02
   4.604 -0.113E-02 -0.113E-02
   4.614 -0.107E-02 -0.107E-02
   4.624 -0.102E-02 -0.102E-02
   4.634 -0.974E-03 -0.974E-03
   4.644 -0.927E-03 -0.927E-03
   4.654 -0.881E-03 -0.881E-03
   4.664 -0.837E-03 -0.837E-03
   4.674 -0.795E-03 -0.795E-03
   4.684 -0.755E-03 -0.755E-03
   4.694 -0.716E-03 -0.716E-03
   4.704 -0.679E-03 -0.679E-03
   4.714 -0.643E-03 -0.643E-03
   4.724 -0.609E-03 -0.609E-03
   4.734 -0.576E-03 -0.576E-03
   4.744 -0.545E-03 -0.545E-03
   4.754 -0.516E-03 -0.516E-03
   4.764 -0.487E-03 -0.487E-03
   4.774 -0.460E-03 -0.460E-03
   4.784 -0.434E-03 -0.434E-03
   4.794 -0.410E-03 -0.410E-03
   4.804 -0.386E-03 -0.386E-03
   4.814 -0.364E-03 -0.364E-03
   4.824 -0.343E-03 -0.343E-03
   4.834 -0.323E-03 -0.323E-03
   4.844 -0.304E-03 -0.304E-03
   4.854 -0.285E-03 -0.285E-03
   4.864 -0.268E-03 -0.268E-03
   4.874 -0.252E-03 -0.252E-03
   4.884 -0.237E-03 -0.237E-03
   4.894 -0.222E-03 -0.222E-03
   4.904 -0.208E-03 -0.208E-03
   4.914 -0.195E-03 -0.195E-03
   4.924 -0.183E-03 -0.183E-03
   4.934 -0.171E-03 -0.171E-03
   4.944 -0.160E-03 -0.160E-03
   4.954 -0.150E-03 -0.150E-03
   4.964 -0.140E-03 -0.140E-03
   4.974 -0.131E-03 -0.131E-03
   4.984 -0.122E-03 -0.122E-03
   4.994 -0.114E-03 -0.114E-03
   5.004 -0.107E-03 -0.107E-03
   5.014 -0.994E-04 -0.994E-04
   5.024 -0.927E-04 -0.927E-04
   5.034 -0.863E-04 -0.863E-04
   5.044 -0.804E-04 -0.804E-04
   5.054 -0.748E-04 -0.748E-04
   5.064 -0.696E-04 -0.696E-04
   5.074 -0.647E-04 -0.647E-04
   5.084 -0.602E-04 -0.602E-04
   5.094 -0.559E-04 -0.559E-04
   5.104 -0.519E-04 -0.519E-04
   5.114 -0.481E-04 -0.481E-04
   5.124 -0.447E-04 -0.447E-04
   5.134 -0.414E-04 -0.414E-04
   5.144 -0.384E-04 -0.384E-04
   5.154 -0.355E-04 -0.355E-04
   5.164 -0.329E-04 -0.329E-04
   5.174 -0.304E-04 -0.304E-04
   5.184 -0.281E-04 -0.281E-04
   5.194 -0.260E-04 -0.260E-04
   5.204 -0.240E-04 -0.240E-04
   5.214 -0.222E-04 -0.222E-04
   5.224 -0.205E-04 -0.205E-04
   5.234 -0.189E-04 -0.189E-04
   5.244 -0.174E-04 -0.174E-04
   5.254 -0.161E-04 -0.161E-04
   5.264 -0.148E-04 -0.148E-04
   5.274 -0.136E-04 -0.136E-04
   5.284 -0.125E-04 -0.125E-04
   5.294 -0.115E-04 -0.115E-04
