# E (eV)   ldos(E)   pdos(E)   
 -27.116 -0.536E-06 -0.536E-06
 -27.106 -0.578E-06 -0.578E-06
 -27.096 -0.624E-06 -0.624E-06
 -27.086 -0.673E-06 -0.673E-06
 -27.076 -0.725E-06 -0.725E-06
 -27.066 -0.781E-06 -0.781E-06
 -27.056 -0.841E-06 -0.841E-06
 -27.046 -0.905E-06 -0.905E-06
 -27.036 -0.973E-06 -0.973E-06
 -27.026 -0.105E-05 -0.105E-05
 -27.016 -0.112E-05 -0.112E-05
 -27.006 -0.121E-05 -0.121E-05
 -26.996 -0.130E-05 -0.130E-05
 -26.986 -0.139E-05 -0.139E-05
 -26.976 -0.149E-05 -0.149E-05
 -26.966 -0.160E-05 -0.160E-05
 -26.956 -0.171E-05 -0.171E-05
 -26.946 -0.183E-05 -0.183E-05
 -26.936 -0.196E-05 -0.196E-05
 -26.926 -0.209E-05 -0.209E-05
 -26.916 -0.224E-05 -0.224E-05
 -26.906 -0.239E-05 -0.239E-05
 -26.896 -0.255E-05 -0.255E-05
 -26.886 -0.272E-05 -0.272E-05
 -26.876 -0.290E-05 -0.290E-05
 -26.866 -0.310E-05 -0.310E-05
 -26.856 -0.330E-05 -0.330E-05
 -26.846 -0.351E-05 -0.351E-05
 -26.836 -0.373E-05 -0.373E-05
 -26.826 -0.397E-05 -0.397E-05
 -26.816 -0.422E-05 -0.422E-05
 -26.806 -0.448E-05 -0.448E-05
 -26.796 -0.476E-05 -0.476E-05
 -26.786 -0.505E-05 -0.505E-05
 -26.776 -0.536E-05 -0.536E-05
 -26.766 -0.568E-05 -0.568E-05
 -26.756 -0.601E-05 -0.601E-05
 -26.746 -0.636E-05 -0.636E-05
 -26.736 -0.673E-05 -0.673E-05
 -26.726 -0.712E-05 -0.712E-05
 -26.716 -0.752E-05 -0.752E-05
 -26.706 -0.794E-05 -0.794E-05
 -26.696 -0.838E-05 -0.838E-05
 -26.686 -0.884E-05 -0.884E-05
 -26.676 -0.932E-05 -0.932E-05
 -26.666 -0.982E-05 -0.982E-05
 -26.656 -0.103E-04 -0.103E-04
 -26.646 -0.109E-04 -0.109E-04
 -26.636 -0.114E-04 -0.114E-04
 -26.626 -0.120E-04 -0.120E-04
 -26.616 -0.126E-04 -0.126E-04
 -26.606 -0.132E-04 -0.132E-04
 -26.596 -0.139E-04 -0.139E-04
 -26.586 -0.146E-04 -0.146E-04
 -26.576 -0.152E-04 -0.152E-04
 -26.566 -0.160E-04 -0.160E-04
 -26.556 -0.167E-04 -0.167E-04
 -26.546 -0.174E-04 -0.174E-04
 -26.536 -0.182E-04 -0.182E-04
 -26.526 -0.190E-04 -0.190E-04
 -26.516 -0.198E-04 -0.198E-04
 -26.506 -0.207E-04 -0.207E-04
 -26.496 -0.215E-04 -0.215E-04
 -26.486 -0.224E-04 -0.224E-04
 -26.476 -0.233E-04 -0.233E-04
 -26.466 -0.242E-04 -0.242E-04
 -26.456 -0.252E-04 -0.252E-04
 -26.446 -0.261E-04 -0.261E-04
 -26.436 -0.271E-04 -0.271E-04
 -26.426 -0.280E-04 -0.280E-04
 -26.416 -0.290E-04 -0.290E-04
 -26.406 -0.300E-04 -0.300E-04
 -26.396 -0.310E-04 -0.310E-04
 -26.386 -0.320E-04 -0.320E-04
 -26.376 -0.330E-04 -0.330E-04
 -26.366 -0.340E-04 -0.340E-04
 -26.356 -0.351E-04 -0.351E-04
 -26.346 -0.361E-04 -0.361E-04
 -26.336 -0.371E-04 -0.371E-04
 -26.326 -0.381E-04 -0.381E-04
 -26.316 -0.390E-04 -0.390E-04
 -26.306 -0.400E-04 -0.400E-04
 -26.296 -0.409E-04 -0.409E-04
 -26.286 -0.418E-04 -0.418E-04
 -26.276 -0.427E-04 -0.427E-04
 -26.266 -0.436E-04 -0.436E-04
 -26.256 -0.444E-04 -0.444E-04
 -26.246 -0.452E-04 -0.452E-04
 -26.236 -0.459E-04 -0.459E-04
 -26.226 -0.466E-04 -0.466E-04
 -26.216 -0.472E-04 -0.472E-04
 -26.206 -0.478E-04 -0.478E-04
 -26.196 -0.483E-04 -0.483E-04
 -26.186 -0.487E-04 -0.487E-04
 -26.176 -0.490E-04 -0.490E-04
 -26.166 -0.493E-04 -0.493E-04
 -26.156 -0.494E-04 -0.494E-04
 -26.146 -0.495E-04 -0.495E-04
 -26.136 -0.494E-04 -0.494E-04
 -26.126 -0.493E-04 -0.493E-04
 -26.116 -0.490E-04 -0.490E-04
 -26.106 -0.486E-04 -0.486E-04
 -26.096 -0.480E-04 -0.480E-04
 -26.086 -0.473E-04 -0.473E-04
 -26.076 -0.465E-04 -0.465E-04
 -26.066 -0.455E-04 -0.455E-04
 -26.056 -0.443E-04 -0.443E-04
 -26.046 -0.430E-04 -0.430E-04
 -26.036 -0.415E-04 -0.415E-04
 -26.026 -0.398E-04 -0.398E-04
 -26.016 -0.379E-04 -0.379E-04
 -26.006 -0.357E-04 -0.357E-04
 -25.996 -0.334E-04 -0.334E-04
 -25.986 -0.308E-04 -0.308E-04
 -25.976 -0.281E-04 -0.281E-04
 -25.966 -0.250E-04 -0.250E-04
 -25.956 -0.218E-04 -0.218E-04
 -25.946 -0.182E-04 -0.182E-04
 -25.936 -0.144E-04 -0.144E-04
 -25.926 -0.104E-04 -0.104E-04
 -25.916 -0.606E-05 -0.606E-05
 -25.906 -0.144E-05 -0.144E-05
 -25.896  0.346E-05  0.346E-05
 -25.886  0.865E-05  0.865E-05
 -25.876  0.142E-04  0.142E-04
 -25.866  0.200E-04  0.200E-04
 -25.856  0.261E-04  0.261E-04
 -25.846  0.325E-04  0.325E-04
 -25.836  0.393E-04  0.393E-04
 -25.826  0.463E-04  0.463E-04
 -25.816  0.537E-04  0.537E-04
 -25.806  0.615E-04  0.615E-04
 -25.796  0.695E-04  0.695E-04
 -25.786  0.780E-04  0.780E-04
 -25.776  0.867E-04  0.867E-04
 -25.766  0.958E-04  0.958E-04
 -25.756  0.105E-03  0.105E-03
 -25.746  0.115E-03  0.115E-03
 -25.736  0.125E-03  0.125E-03
 -25.726  0.135E-03  0.135E-03
 -25.716  0.146E-03  0.146E-03
 -25.706  0.157E-03  0.157E-03
 -25.696  0.169E-03  0.169E-03
 -25.686  0.180E-03  0.180E-03
 -25.676  0.192E-03  0.192E-03
 -25.666  0.205E-03  0.205E-03
 -25.656  0.217E-03  0.217E-03
 -25.646  0.230E-03  0.230E-03
 -25.636  0.243E-03  0.243E-03
 -25.626  0.257E-03  0.257E-03
 -25.616  0.271E-03  0.271E-03
 -25.606  0.285E-03  0.285E-03
 -25.596  0.299E-03  0.299E-03
 -25.586  0.313E-03  0.313E-03
 -25.576  0.328E-03  0.328E-03
 -25.566  0.343E-03  0.343E-03
 -25.556  0.358E-03  0.358E-03
 -25.546  0.373E-03  0.373E-03
 -25.536  0.388E-03  0.388E-03
 -25.526  0.404E-03  0.404E-03
 -25.516  0.420E-03  0.420E-03
 -25.506  0.435E-03  0.435E-03
 -25.496  0.451E-03  0.451E-03
 -25.486  0.467E-03  0.467E-03
 -25.476  0.483E-03  0.483E-03
 -25.466  0.499E-03  0.499E-03
 -25.456  0.514E-03  0.514E-03
 -25.446  0.530E-03  0.530E-03
 -25.436  0.546E-03  0.546E-03
 -25.426  0.562E-03  0.562E-03
 -25.416  0.578E-03  0.578E-03
 -25.406  0.593E-03  0.593E-03
 -25.396  0.608E-03  0.608E-03
 -25.386  0.624E-03  0.624E-03
 -25.376  0.639E-03  0.639E-03
 -25.366  0.654E-03  0.654E-03
 -25.356  0.668E-03  0.668E-03
 -25.346  0.683E-03  0.683E-03
 -25.336  0.697E-03  0.697E-03
 -25.326  0.711E-03  0.711E-03
 -25.316  0.724E-03  0.724E-03
 -25.306  0.737E-03  0.737E-03
 -25.296  0.750E-03  0.750E-03
 -25.286  0.762E-03  0.762E-03
 -25.276  0.774E-03  0.774E-03
 -25.266  0.786E-03  0.786E-03
 -25.256  0.797E-03  0.797E-03
 -25.246  0.808E-03  0.808E-03
 -25.236  0.818E-03  0.818E-03
 -25.226  0.828E-03  0.828E-03
 -25.216  0.837E-03  0.837E-03
 -25.206  0.846E-03  0.846E-03
 -25.196  0.854E-03  0.854E-03
 -25.186  0.861E-03  0.861E-03
 -25.176  0.868E-03  0.868E-03
 -25.166  0.875E-03  0.875E-03
 -25.156  0.880E-03  0.880E-03
 -25.146  0.886E-03  0.886E-03
 -25.136  0.890E-03  0.890E-03
 -25.126  0.894E-03  0.894E-03
 -25.116  0.897E-03  0.897E-03
 -25.106  0.900E-03  0.900E-03
 -25.096  0.902E-03  0.902E-03
 -25.086  0.904E-03  0.904E-03
 -25.076  0.904E-03  0.904E-03
 -25.066  0.904E-03  0.904E-03
 -25.056  0.904E-03  0.904E-03
 -25.046  0.903E-03  0.903E-03
 -25.036  0.901E-03  0.901E-03
 -25.026  0.898E-03  0.898E-03
 -25.016  0.895E-03  0.895E-03
 -25.006  0.891E-03  0.891E-03
 -24.996  0.887E-03  0.887E-03
 -24.986  0.882E-03  0.882E-03
 -24.976  0.876E-03  0.876E-03
 -24.966  0.870E-03  0.870E-03
 -24.956  0.863E-03  0.863E-03
 -24.946  0.856E-03  0.856E-03
 -24.936  0.848E-03  0.848E-03
 -24.926  0.839E-03  0.839E-03
 -24.916  0.830E-03  0.830E-03
 -24.906  0.820E-03  0.820E-03
 -24.896  0.810E-03  0.810E-03
 -24.886  0.800E-03  0.800E-03
 -24.876  0.789E-03  0.789E-03
 -24.866  0.777E-03  0.777E-03
 -24.856  0.765E-03  0.765E-03
 -24.846  0.753E-03  0.753E-03
 -24.836  0.740E-03  0.740E-03
 -24.826  0.727E-03  0.727E-03
 -24.816  0.714E-03  0.714E-03
 -24.806  0.700E-03  0.700E-03
 -24.796  0.686E-03  0.686E-03
 -24.786  0.672E-03  0.672E-03
 -24.776  0.657E-03  0.657E-03
 -24.766  0.642E-03  0.642E-03
 -24.756  0.627E-03  0.627E-03
 -24.746  0.612E-03  0.612E-03
 -24.736  0.597E-03  0.597E-03
 -24.726  0.581E-03  0.581E-03
 -24.716  0.566E-03  0.566E-03
 -24.706  0.550E-03  0.550E-03
 -24.696  0.534E-03  0.534E-03
 -24.686  0.518E-03  0.518E-03
 -24.676  0.502E-03  0.502E-03
 -24.666  0.486E-03  0.486E-03
 -24.656  0.471E-03  0.471E-03
 -24.646  0.455E-03  0.455E-03
 -24.636  0.439E-03  0.439E-03
 -24.626  0.423E-03  0.423E-03
 -24.616  0.408E-03  0.408E-03
 -24.606  0.392E-03  0.392E-03
 -24.596  0.377E-03  0.377E-03
 -24.586  0.361E-03  0.361E-03
 -24.576  0.346E-03  0.346E-03
 -24.566  0.331E-03  0.331E-03
 -24.556  0.317E-03  0.317E-03
 -24.546  0.302E-03  0.302E-03
 -24.536  0.288E-03  0.288E-03
 -24.526  0.274E-03  0.274E-03
 -24.516  0.260E-03  0.260E-03
 -24.506  0.247E-03  0.247E-03
 -24.496  0.233E-03  0.233E-03
 -24.486  0.220E-03  0.220E-03
 -24.476  0.208E-03  0.208E-03
 -24.466  0.195E-03  0.195E-03
 -24.456  0.183E-03  0.183E-03
 -24.446  0.171E-03  0.171E-03
 -24.436  0.160E-03  0.160E-03
 -24.426  0.149E-03  0.149E-03
 -24.416  0.138E-03  0.138E-03
 -24.406  0.127E-03  0.127E-03
 -24.396  0.117E-03  0.117E-03
 -24.386  0.107E-03  0.107E-03
 -24.376  0.980E-04  0.980E-04
 -24.366  0.888E-04  0.888E-04
 -24.356  0.800E-04  0.800E-04
 -24.346  0.715E-04  0.715E-04
 -24.336  0.634E-04  0.634E-04
 -24.326  0.555E-04  0.555E-04
 -24.316  0.481E-04  0.481E-04
 -24.306  0.409E-04  0.409E-04
 -24.296  0.341E-04  0.341E-04
 -24.286  0.276E-04  0.276E-04
 -24.276  0.214E-04  0.214E-04
 -24.266  0.155E-04  0.155E-04
 -24.256  0.993E-05  0.993E-05
 -24.246  0.466E-05  0.466E-05
 -24.236 -0.310E-06 -0.310E-06
 -24.226 -0.499E-05 -0.499E-05
 -24.216 -0.939E-05 -0.939E-05
 -24.206 -0.135E-04 -0.135E-04
 -24.196 -0.174E-04 -0.174E-04
 -24.186 -0.209E-04 -0.209E-04
 -24.176 -0.243E-04 -0.243E-04
 -24.166 -0.274E-04 -0.274E-04
 -24.156 -0.302E-04 -0.302E-04
 -24.146 -0.328E-04 -0.328E-04
 -24.136 -0.352E-04 -0.352E-04
 -24.126 -0.374E-04 -0.374E-04
 -24.116 -0.393E-04 -0.393E-04
 -24.106 -0.411E-04 -0.411E-04
 -24.096 -0.427E-04 -0.427E-04
 -24.086 -0.440E-04 -0.440E-04
 -24.076 -0.452E-04 -0.452E-04
 -24.066 -0.463E-04 -0.463E-04
 -24.056 -0.472E-04 -0.472E-04
 -24.046 -0.479E-04 -0.479E-04
 -24.036 -0.485E-04 -0.485E-04
 -24.026 -0.489E-04 -0.489E-04
 -24.016 -0.492E-04 -0.492E-04
 -24.006 -0.494E-04 -0.494E-04
 -23.996 -0.495E-04 -0.495E-04
 -23.986 -0.495E-04 -0.495E-04
 -23.976 -0.493E-04 -0.493E-04
 -23.966 -0.491E-04 -0.491E-04
 -23.956 -0.488E-04 -0.488E-04
 -23.946 -0.484E-04 -0.484E-04
 -23.936 -0.479E-04 -0.479E-04
 -23.926 -0.474E-04 -0.474E-04
 -23.916 -0.467E-04 -0.467E-04
 -23.906 -0.461E-04 -0.461E-04
 -23.896 -0.454E-04 -0.454E-04
 -23.886 -0.446E-04 -0.446E-04
 -23.876 -0.438E-04 -0.438E-04
 -23.866 -0.429E-04 -0.429E-04
 -23.856 -0.421E-04 -0.421E-04
 -23.846 -0.411E-04 -0.411E-04
 -23.836 -0.402E-04 -0.402E-04
 -23.826 -0.393E-04 -0.393E-04
 -23.816 -0.383E-04 -0.383E-04
 -23.806 -0.373E-04 -0.373E-04
 -23.796 -0.363E-04 -0.363E-04
 -23.786 -0.353E-04 -0.353E-04
 -23.776 -0.343E-04 -0.343E-04
 -23.766 -0.333E-04 -0.333E-04
 -23.756 -0.323E-04 -0.323E-04
 -23.746 -0.313E-04 -0.313E-04
 -23.736 -0.302E-04 -0.302E-04
 -23.726 -0.293E-04 -0.293E-04
 -23.716 -0.283E-04 -0.283E-04
 -23.706 -0.273E-04 -0.273E-04
 -23.696 -0.263E-04 -0.263E-04
 -23.686 -0.254E-04 -0.254E-04
 -23.676 -0.244E-04 -0.244E-04
 -23.666 -0.235E-04 -0.235E-04
 -23.656 -0.226E-04 -0.226E-04
 -23.646 -0.217E-04 -0.217E-04
 -23.636 -0.209E-04 -0.209E-04
 -23.626 -0.200E-04 -0.200E-04
 -23.616 -0.192E-04 -0.192E-04
 -23.606 -0.184E-04 -0.184E-04
 -23.596 -0.176E-04 -0.176E-04
 -23.586 -0.169E-04 -0.169E-04
 -23.576 -0.161E-04 -0.161E-04
 -23.566 -0.154E-04 -0.154E-04
 -23.556 -0.147E-04 -0.147E-04
 -23.546 -0.140E-04 -0.140E-04
 -23.536 -0.134E-04 -0.134E-04
 -23.526 -0.128E-04 -0.128E-04
 -23.516 -0.122E-04 -0.122E-04
 -23.506 -0.116E-04 -0.116E-04
 -23.496 -0.110E-04 -0.110E-04
 -23.486 -0.105E-04 -0.105E-04
 -23.476 -0.994E-05 -0.994E-05
 -23.466 -0.943E-05 -0.943E-05
 -23.456 -0.895E-05 -0.895E-05
 -23.446 -0.849E-05 -0.849E-05
 -23.436 -0.804E-05 -0.804E-05
 -23.426 -0.762E-05 -0.762E-05
 -23.416 -0.721E-05 -0.721E-05
 -23.406 -0.682E-05 -0.682E-05
 -23.396 -0.645E-05 -0.645E-05
 -23.386 -0.609E-05 -0.609E-05
 -23.376 -0.575E-05 -0.575E-05
 -23.366 -0.543E-05 -0.543E-05
 -23.356 -0.512E-05 -0.512E-05
 -23.346 -0.483E-05 -0.483E-05
 -23.336 -0.455E-05 -0.455E-05
 -23.326 -0.428E-05 -0.428E-05
 -23.316 -0.403E-05 -0.403E-05
 -23.306 -0.379E-05 -0.379E-05
 -23.296 -0.356E-05 -0.356E-05
 -23.286 -0.335E-05 -0.335E-05
 -23.276 -0.314E-05 -0.314E-05
 -23.266 -0.295E-05 -0.295E-05
 -23.256 -0.277E-05 -0.277E-05
 -23.246 -0.259E-05 -0.259E-05
 -23.236 -0.243E-05 -0.243E-05
 -23.226 -0.227E-05 -0.227E-05
 -23.216 -0.213E-05 -0.213E-05
 -23.206 -0.199E-05 -0.199E-05
 -23.196 -0.186E-05 -0.186E-05
 -23.186 -0.174E-05 -0.174E-05
 -23.176 -0.162E-05 -0.162E-05
 -23.166 -0.152E-05 -0.152E-05
 -23.156 -0.141E-05 -0.141E-05
 -23.146 -0.132E-05 -0.132E-05
 -23.136 -0.123E-05 -0.123E-05
 -23.126 -0.114E-05 -0.114E-05
 -23.116 -0.107E-05 -0.107E-05
 -23.106 -0.991E-06 -0.991E-06
 -23.096 -0.922E-06 -0.922E-06
 -23.086 -0.857E-06 -0.857E-06
 -23.076 -0.796E-06 -0.796E-06
 -23.066 -0.740E-06 -0.740E-06
 -23.056 -0.687E-06 -0.687E-06
 -23.046 -0.637E-06 -0.637E-06
 -23.036 -0.591E-06 -0.591E-06
 -23.026 -0.548E-06 -0.548E-06
 -23.016 -0.508E-06 -0.508E-06
 -23.006 -0.471E-06 -0.471E-06
 -22.996 -0.436E-06 -0.436E-06
 -22.986 -0.404E-06 -0.404E-06
 -22.976 -0.374E-06 -0.374E-06
 -22.966 -0.346E-06 -0.346E-06
 -22.956 -0.320E-06 -0.320E-06
 -22.946 -0.297E-06 -0.297E-06
 -22.936 -0.275E-06 -0.275E-06
 -22.926 -0.254E-06 -0.254E-06
 -22.916 -0.236E-06 -0.236E-06
 -22.906 -0.219E-06 -0.219E-06
 -22.896 -0.203E-06 -0.203E-06
 -22.886 -0.188E-06 -0.188E-06
 -22.876 -0.175E-06 -0.175E-06
 -22.866 -0.163E-06 -0.163E-06
 -22.856 -0.153E-06 -0.153E-06
 -22.846 -0.143E-06 -0.143E-06
 -22.836 -0.134E-06 -0.134E-06
 -22.826 -0.127E-06 -0.127E-06
 -22.816 -0.120E-06 -0.120E-06
 -22.806 -0.114E-06 -0.114E-06
 -22.796 -0.109E-06 -0.109E-06
 -22.786 -0.105E-06 -0.105E-06
 -22.776 -0.102E-06 -0.102E-06
 -22.766 -0.992E-07 -0.992E-07
 -22.756 -0.975E-07 -0.975E-07
 -22.746 -0.967E-07 -0.967E-07
 -22.736 -0.966E-07 -0.966E-07
 -22.726 -0.974E-07 -0.974E-07
 -22.716 -0.989E-07 -0.989E-07
 -22.706 -0.101E-06 -0.101E-06
 -22.696 -0.105E-06 -0.105E-06
 -22.686 -0.109E-06 -0.109E-06
 -22.676 -0.114E-06 -0.114E-06
 -22.666 -0.120E-06 -0.120E-06
 -22.656 -0.127E-06 -0.127E-06
 -22.646 -0.135E-06 -0.135E-06
 -22.636 -0.144E-06 -0.144E-06
 -22.626 -0.154E-06 -0.154E-06
 -22.616 -0.166E-06 -0.166E-06
 -22.606 -0.178E-06 -0.178E-06
 -22.596 -0.193E-06 -0.193E-06
 -22.586 -0.208E-06 -0.208E-06
 -22.576 -0.226E-06 -0.226E-06
 -22.566 -0.245E-06 -0.245E-06
 -22.556 -0.265E-06 -0.265E-06
 -22.546 -0.288E-06 -0.288E-06
 -22.536 -0.313E-06 -0.313E-06
 -22.526 -0.340E-06 -0.340E-06
 -22.516 -0.369E-06 -0.369E-06
 -22.506 -0.401E-06 -0.401E-06
 -22.496 -0.436E-06 -0.436E-06
 -22.486 -0.474E-06 -0.474E-06
 -22.476 -0.515E-06 -0.515E-06
 -22.466 -0.559E-06 -0.559E-06
 -22.456 -0.607E-06 -0.607E-06
 -22.446 -0.659E-06 -0.659E-06
 -22.436 -0.715E-06 -0.715E-06
 -22.426 -0.775E-06 -0.775E-06
 -22.416 -0.840E-06 -0.840E-06
 -22.406 -0.910E-06 -0.910E-06
 -22.396 -0.986E-06 -0.986E-06
 -22.386 -0.107E-05 -0.107E-05
 -22.376 -0.116E-05 -0.116E-05
 -22.366 -0.125E-05 -0.125E-05
 -22.356 -0.135E-05 -0.135E-05
 -22.346 -0.146E-05 -0.146E-05
 -22.336 -0.158E-05 -0.158E-05
 -22.326 -0.170E-05 -0.170E-05
 -22.316 -0.184E-05 -0.184E-05
 -22.306 -0.198E-05 -0.198E-05
 -22.296 -0.214E-05 -0.214E-05
 -22.286 -0.230E-05 -0.230E-05
 -22.276 -0.248E-05 -0.248E-05
 -22.266 -0.267E-05 -0.267E-05
 -22.256 -0.287E-05 -0.287E-05
 -22.246 -0.309E-05 -0.309E-05
 -22.236 -0.332E-05 -0.332E-05
 -22.226 -0.356E-05 -0.356E-05
 -22.216 -0.383E-05 -0.383E-05
 -22.206 -0.410E-05 -0.410E-05
 -22.196 -0.440E-05 -0.440E-05
 -22.186 -0.472E-05 -0.472E-05
 -22.176 -0.505E-05 -0.505E-05
 -22.166 -0.541E-05 -0.541E-05
 -22.156 -0.579E-05 -0.579E-05
 -22.146 -0.619E-05 -0.619E-05
 -22.136 -0.662E-05 -0.662E-05
 -22.126 -0.707E-05 -0.707E-05
 -22.116 -0.755E-05 -0.755E-05
 -22.106 -0.806E-05 -0.806E-05
 -22.096 -0.860E-05 -0.860E-05
 -22.086 -0.917E-05 -0.917E-05
 -22.076 -0.977E-05 -0.977E-05
 -22.066 -0.104E-04 -0.104E-04
 -22.056 -0.111E-04 -0.111E-04
 -22.046 -0.118E-04 -0.118E-04
 -22.036 -0.125E-04 -0.125E-04
 -22.026 -0.133E-04 -0.133E-04
 -22.016 -0.141E-04 -0.141E-04
 -22.006 -0.150E-04 -0.150E-04
 -21.996 -0.159E-04 -0.159E-04
 -21.986 -0.169E-04 -0.169E-04
 -21.976 -0.179E-04 -0.179E-04
 -21.966 -0.189E-04 -0.189E-04
 -21.956 -0.200E-04 -0.200E-04
 -21.946 -0.212E-04 -0.212E-04
 -21.936 -0.224E-04 -0.224E-04
 -21.926 -0.236E-04 -0.236E-04
 -21.916 -0.249E-04 -0.249E-04
 -21.906 -0.263E-04 -0.263E-04
 -21.896 -0.277E-04 -0.277E-04
 -21.886 -0.292E-04 -0.292E-04
 -21.876 -0.308E-04 -0.308E-04
 -21.866 -0.324E-04 -0.324E-04
 -21.856 -0.341E-04 -0.341E-04
 -21.846 -0.358E-04 -0.358E-04
 -21.836 -0.376E-04 -0.376E-04
 -21.826 -0.395E-04 -0.395E-04
 -21.816 -0.414E-04 -0.414E-04
 -21.806 -0.435E-04 -0.435E-04
 -21.796 -0.455E-04 -0.455E-04
 -21.786 -0.477E-04 -0.477E-04
 -21.776 -0.499E-04 -0.499E-04
 -21.766 -0.521E-04 -0.521E-04
 -21.756 -0.545E-04 -0.545E-04
 -21.746 -0.569E-04 -0.569E-04
 -21.736 -0.594E-04 -0.594E-04
 -21.726 -0.619E-04 -0.619E-04
 -21.716 -0.645E-04 -0.645E-04
 -21.706 -0.672E-04 -0.672E-04
 -21.696 -0.699E-04 -0.699E-04
 -21.686 -0.726E-04 -0.726E-04
 -21.676 -0.755E-04 -0.755E-04
 -21.666 -0.783E-04 -0.783E-04
 -21.656 -0.813E-04 -0.813E-04
 -21.646 -0.842E-04 -0.842E-04
 -21.636 -0.872E-04 -0.872E-04
 -21.626 -0.902E-04 -0.902E-04
 -21.616 -0.933E-04 -0.933E-04
 -21.606 -0.964E-04 -0.964E-04
 -21.596 -0.995E-04 -0.995E-04
 -21.586 -0.103E-03 -0.103E-03
 -21.576 -0.106E-03 -0.106E-03
 -21.566 -0.109E-03 -0.109E-03
 -21.556 -0.112E-03 -0.112E-03
 -21.546 -0.115E-03 -0.115E-03
 -21.536 -0.118E-03 -0.118E-03
 -21.526 -0.121E-03 -0.121E-03
 -21.516 -0.124E-03 -0.124E-03
 -21.506 -0.127E-03 -0.127E-03
 -21.496 -0.129E-03 -0.129E-03
 -21.486 -0.132E-03 -0.132E-03
 -21.476 -0.135E-03 -0.135E-03
 -21.466 -0.137E-03 -0.137E-03
 -21.456 -0.140E-03 -0.140E-03
 -21.446 -0.142E-03 -0.142E-03
 -21.436 -0.144E-03 -0.144E-03
 -21.426 -0.146E-03 -0.146E-03
 -21.416 -0.147E-03 -0.147E-03
 -21.406 -0.149E-03 -0.149E-03
 -21.396 -0.150E-03 -0.150E-03
 -21.386 -0.151E-03 -0.151E-03
 -21.376 -0.152E-03 -0.152E-03
 -21.366 -0.152E-03 -0.152E-03
 -21.356 -0.152E-03 -0.152E-03
 -21.346 -0.152E-03 -0.152E-03
 -21.336 -0.152E-03 -0.152E-03
 -21.326 -0.151E-03 -0.151E-03
 -21.316 -0.149E-03 -0.149E-03
 -21.306 -0.148E-03 -0.148E-03
 -21.296 -0.145E-03 -0.145E-03
 -21.286 -0.143E-03 -0.143E-03
 -21.276 -0.140E-03 -0.140E-03
 -21.266 -0.136E-03 -0.136E-03
 -21.256 -0.132E-03 -0.132E-03
 -21.246 -0.127E-03 -0.127E-03
 -21.236 -0.122E-03 -0.122E-03
 -21.226 -0.116E-03 -0.116E-03
 -21.216 -0.110E-03 -0.110E-03
 -21.206 -0.103E-03 -0.103E-03
 -21.196 -0.952E-04 -0.952E-04
 -21.186 -0.868E-04 -0.868E-04
 -21.176 -0.777E-04 -0.777E-04
 -21.166 -0.679E-04 -0.679E-04
 -21.156 -0.573E-04 -0.573E-04
 -21.146 -0.460E-04 -0.460E-04
 -21.136 -0.339E-04 -0.339E-04
 -21.126 -0.209E-04 -0.209E-04
 -21.116 -0.723E-05 -0.723E-05
 -21.106  0.731E-05  0.731E-05
 -21.096  0.227E-04  0.227E-04
 -21.086  0.389E-04  0.389E-04
 -21.076  0.560E-04  0.560E-04
 -21.066  0.740E-04  0.740E-04
 -21.056  0.929E-04  0.929E-04
 -21.046  0.113E-03  0.113E-03
 -21.036  0.133E-03  0.133E-03
 -21.026  0.155E-03  0.155E-03
 -21.016  0.177E-03  0.177E-03
 -21.006  0.201E-03  0.201E-03
 -20.996  0.225E-03  0.225E-03
 -20.986  0.250E-03  0.250E-03
 -20.976  0.276E-03  0.276E-03
 -20.966  0.303E-03  0.303E-03
 -20.956  0.331E-03  0.331E-03
 -20.946  0.359E-03  0.359E-03
 -20.936  0.389E-03  0.389E-03
 -20.926  0.419E-03  0.419E-03
 -20.916  0.450E-03  0.450E-03
 -20.906  0.482E-03  0.482E-03
 -20.896  0.515E-03  0.515E-03
 -20.886  0.548E-03  0.548E-03
 -20.876  0.582E-03  0.582E-03
 -20.866  0.617E-03  0.617E-03
 -20.856  0.652E-03  0.652E-03
 -20.846  0.688E-03  0.688E-03
 -20.836  0.724E-03  0.724E-03
 -20.826  0.761E-03  0.761E-03
 -20.816  0.798E-03  0.798E-03
 -20.806  0.835E-03  0.835E-03
 -20.796  0.873E-03  0.873E-03
 -20.786  0.911E-03  0.911E-03
 -20.776  0.950E-03  0.950E-03
 -20.766  0.988E-03  0.988E-03
 -20.756  0.103E-02  0.103E-02
 -20.746  0.106E-02  0.106E-02
 -20.736  0.110E-02  0.110E-02
 -20.726  0.114E-02  0.114E-02
 -20.716  0.118E-02  0.118E-02
 -20.706  0.122E-02  0.122E-02
 -20.696  0.125E-02  0.125E-02
 -20.686  0.129E-02  0.129E-02
 -20.676  0.133E-02  0.133E-02
 -20.666  0.136E-02  0.136E-02
 -20.656  0.140E-02  0.140E-02
 -20.646  0.143E-02  0.143E-02
 -20.636  0.147E-02  0.147E-02
 -20.626  0.150E-02  0.150E-02
 -20.616  0.153E-02  0.153E-02
 -20.606  0.156E-02  0.156E-02
 -20.596  0.159E-02  0.159E-02
 -20.586  0.162E-02  0.162E-02
 -20.576  0.164E-02  0.164E-02
 -20.566  0.167E-02  0.167E-02
 -20.556  0.169E-02  0.169E-02
 -20.546  0.172E-02  0.172E-02
 -20.536  0.174E-02  0.174E-02
 -20.526  0.175E-02  0.175E-02
 -20.516  0.177E-02  0.177E-02
 -20.506  0.179E-02  0.179E-02
 -20.496  0.180E-02  0.180E-02
 -20.486  0.181E-02  0.181E-02
 -20.476  0.182E-02  0.182E-02
 -20.466  0.183E-02  0.183E-02
 -20.456  0.183E-02  0.183E-02
 -20.446  0.183E-02  0.183E-02
 -20.436  0.183E-02  0.183E-02
 -20.426  0.183E-02  0.183E-02
 -20.416  0.183E-02  0.183E-02
 -20.406  0.182E-02  0.182E-02
 -20.396  0.181E-02  0.181E-02
 -20.386  0.180E-02  0.180E-02
 -20.376  0.179E-02  0.179E-02
 -20.366  0.177E-02  0.177E-02
 -20.356  0.175E-02  0.175E-02
 -20.346  0.173E-02  0.173E-02
 -20.336  0.171E-02  0.171E-02
 -20.326  0.168E-02  0.168E-02
 -20.316  0.166E-02  0.166E-02
 -20.306  0.163E-02  0.163E-02
 -20.296  0.159E-02  0.159E-02
 -20.286  0.156E-02  0.156E-02
 -20.276  0.153E-02  0.153E-02
 -20.266  0.149E-02  0.149E-02
 -20.256  0.145E-02  0.145E-02
 -20.246  0.141E-02  0.141E-02
 -20.236  0.137E-02  0.137E-02
 -20.226  0.133E-02  0.133E-02
 -20.216  0.128E-02  0.128E-02
 -20.206  0.124E-02  0.124E-02
 -20.196  0.120E-02  0.120E-02
 -20.186  0.115E-02  0.115E-02
 -20.176  0.110E-02  0.110E-02
 -20.166  0.106E-02  0.106E-02
 -20.156  0.101E-02  0.101E-02
 -20.146  0.965E-03  0.965E-03
 -20.136  0.919E-03  0.919E-03
 -20.126  0.875E-03  0.875E-03
 -20.116  0.831E-03  0.831E-03
 -20.106  0.789E-03  0.789E-03
 -20.096  0.748E-03  0.748E-03
 -20.086  0.709E-03  0.709E-03
 -20.076  0.672E-03  0.672E-03
 -20.066  0.637E-03  0.637E-03
 -20.056  0.605E-03  0.605E-03
 -20.046  0.576E-03  0.576E-03
 -20.036  0.551E-03  0.551E-03
 -20.026  0.529E-03  0.529E-03
 -20.016  0.511E-03  0.511E-03
 -20.006  0.497E-03  0.497E-03
 -19.996  0.488E-03  0.488E-03
 -19.986  0.484E-03  0.484E-03
 -19.976  0.485E-03  0.485E-03
 -19.966  0.492E-03  0.492E-03
 -19.956  0.505E-03  0.505E-03
 -19.946  0.524E-03  0.524E-03
 -19.936  0.550E-03  0.550E-03
 -19.926  0.583E-03  0.583E-03
 -19.916  0.623E-03  0.623E-03
 -19.906  0.671E-03  0.671E-03
 -19.896  0.727E-03  0.727E-03
 -19.886  0.791E-03  0.791E-03
 -19.876  0.864E-03  0.864E-03
 -19.866  0.946E-03  0.946E-03
 -19.856  0.104E-02  0.104E-02
 -19.846  0.114E-02  0.114E-02
 -19.836  0.125E-02  0.125E-02
 -19.826  0.137E-02  0.137E-02
 -19.816  0.150E-02  0.150E-02
 -19.806  0.164E-02  0.164E-02
 -19.796  0.180E-02  0.180E-02
 -19.786  0.196E-02  0.196E-02
 -19.776  0.214E-02  0.214E-02
 -19.766  0.232E-02  0.232E-02
 -19.756  0.252E-02  0.252E-02
 -19.746  0.273E-02  0.273E-02
 -19.736  0.296E-02  0.296E-02
 -19.726  0.319E-02  0.319E-02
 -19.716  0.344E-02  0.344E-02
 -19.706  0.370E-02  0.370E-02
 -19.696  0.397E-02  0.397E-02
 -19.686  0.425E-02  0.425E-02
 -19.676  0.455E-02  0.455E-02
 -19.666  0.486E-02  0.486E-02
 -19.656  0.518E-02  0.518E-02
 -19.646  0.551E-02  0.551E-02
 -19.636  0.585E-02  0.585E-02
 -19.626  0.621E-02  0.621E-02
 -19.616  0.658E-02  0.658E-02
 -19.606  0.696E-02  0.696E-02
 -19.596  0.735E-02  0.735E-02
 -19.586  0.775E-02  0.775E-02
 -19.576  0.817E-02  0.817E-02
 -19.566  0.859E-02  0.859E-02
 -19.556  0.902E-02  0.902E-02
 -19.546  0.947E-02  0.947E-02
 -19.536  0.992E-02  0.992E-02
 -19.526  0.104E-01  0.104E-01
 -19.516  0.109E-01  0.109E-01
 -19.506  0.113E-01  0.113E-01
 -19.496  0.118E-01  0.118E-01
 -19.486  0.123E-01  0.123E-01
 -19.476  0.128E-01  0.128E-01
 -19.466  0.133E-01  0.133E-01
 -19.456  0.138E-01  0.138E-01
 -19.446  0.143E-01  0.143E-01
 -19.436  0.149E-01  0.149E-01
 -19.426  0.154E-01  0.154E-01
 -19.416  0.159E-01  0.159E-01
 -19.406  0.164E-01  0.164E-01
 -19.396  0.170E-01  0.170E-01
 -19.386  0.175E-01  0.175E-01
 -19.376  0.180E-01  0.180E-01
 -19.366  0.186E-01  0.186E-01
 -19.356  0.191E-01  0.191E-01
 -19.346  0.196E-01  0.196E-01
 -19.336  0.201E-01  0.201E-01
 -19.326  0.206E-01  0.206E-01
 -19.316  0.212E-01  0.212E-01
 -19.306  0.217E-01  0.217E-01
 -19.296  0.222E-01  0.222E-01
 -19.286  0.227E-01  0.227E-01
 -19.276  0.231E-01  0.231E-01
 -19.266  0.236E-01  0.236E-01
 -19.256  0.241E-01  0.241E-01
 -19.246  0.245E-01  0.245E-01
 -19.236  0.250E-01  0.250E-01
 -19.226  0.254E-01  0.254E-01
 -19.216  0.258E-01  0.258E-01
 -19.206  0.262E-01  0.262E-01
 -19.196  0.266E-01  0.266E-01
 -19.186  0.270E-01  0.270E-01
 -19.176  0.274E-01  0.274E-01
 -19.166  0.277E-01  0.277E-01
 -19.156  0.280E-01  0.280E-01
 -19.146  0.283E-01  0.283E-01
 -19.136  0.286E-01  0.286E-01
 -19.126  0.289E-01  0.289E-01
 -19.116  0.292E-01  0.292E-01
 -19.106  0.294E-01  0.294E-01
 -19.096  0.296E-01  0.296E-01
 -19.086  0.298E-01  0.298E-01
 -19.076  0.300E-01  0.300E-01
 -19.066  0.301E-01  0.301E-01
 -19.056  0.303E-01  0.303E-01
 -19.046  0.304E-01  0.304E-01
 -19.036  0.305E-01  0.305E-01
 -19.026  0.305E-01  0.305E-01
 -19.016  0.306E-01  0.306E-01
 -19.006  0.306E-01  0.306E-01
 -18.996  0.306E-01  0.306E-01
 -18.986  0.306E-01  0.306E-01
 -18.976  0.305E-01  0.305E-01
 -18.966  0.305E-01  0.305E-01
 -18.956  0.304E-01  0.304E-01
 -18.946  0.303E-01  0.303E-01
 -18.936  0.301E-01  0.301E-01
 -18.926  0.300E-01  0.300E-01
 -18.916  0.298E-01  0.298E-01
 -18.906  0.296E-01  0.296E-01
 -18.896  0.294E-01  0.294E-01
 -18.886  0.292E-01  0.292E-01
 -18.876  0.289E-01  0.289E-01
 -18.866  0.286E-01  0.286E-01
 -18.856  0.284E-01  0.284E-01
 -18.846  0.280E-01  0.280E-01
 -18.836  0.277E-01  0.277E-01
 -18.826  0.274E-01  0.274E-01
 -18.816  0.270E-01  0.270E-01
 -18.806  0.266E-01  0.266E-01
 -18.796  0.262E-01  0.262E-01
 -18.786  0.258E-01  0.258E-01
 -18.776  0.254E-01  0.254E-01
 -18.766  0.250E-01  0.250E-01
 -18.756  0.245E-01  0.245E-01
 -18.746  0.241E-01  0.241E-01
 -18.736  0.236E-01  0.236E-01
 -18.726  0.231E-01  0.231E-01
 -18.716  0.227E-01  0.227E-01
 -18.706  0.222E-01  0.222E-01
 -18.696  0.217E-01  0.217E-01
 -18.686  0.211E-01  0.211E-01
 -18.676  0.206E-01  0.206E-01
 -18.666  0.201E-01  0.201E-01
 -18.656  0.196E-01  0.196E-01
 -18.646  0.190E-01  0.190E-01
 -18.636  0.185E-01  0.185E-01
 -18.626  0.180E-01  0.180E-01
 -18.616  0.174E-01  0.174E-01
 -18.606  0.169E-01  0.169E-01
 -18.596  0.163E-01  0.163E-01
 -18.586  0.158E-01  0.158E-01
 -18.576  0.153E-01  0.153E-01
 -18.566  0.147E-01  0.147E-01
 -18.556  0.142E-01  0.142E-01
 -18.546  0.137E-01  0.137E-01
 -18.536  0.131E-01  0.131E-01
 -18.526  0.126E-01  0.126E-01
 -18.516  0.121E-01  0.121E-01
 -18.506  0.116E-01  0.116E-01
 -18.496  0.111E-01  0.111E-01
 -18.486  0.106E-01  0.106E-01
 -18.476  0.101E-01  0.101E-01
 -18.466  0.959E-02  0.959E-02
 -18.456  0.911E-02  0.911E-02
 -18.446  0.863E-02  0.863E-02
 -18.436  0.817E-02  0.817E-02
 -18.426  0.772E-02  0.772E-02
 -18.416  0.727E-02  0.727E-02
 -18.406  0.684E-02  0.684E-02
 -18.396  0.641E-02  0.641E-02
 -18.386  0.600E-02  0.600E-02
 -18.376  0.560E-02  0.560E-02
 -18.366  0.520E-02  0.520E-02
 -18.356  0.482E-02  0.482E-02
 -18.346  0.445E-02  0.445E-02
 -18.336  0.408E-02  0.408E-02
 -18.326  0.373E-02  0.373E-02
 -18.316  0.339E-02  0.339E-02
 -18.306  0.307E-02  0.307E-02
 -18.296  0.275E-02  0.275E-02
 -18.286  0.244E-02  0.244E-02
 -18.276  0.215E-02  0.215E-02
 -18.266  0.186E-02  0.186E-02
 -18.256  0.159E-02  0.159E-02
 -18.246  0.133E-02  0.133E-02
 -18.236  0.108E-02  0.108E-02
 -18.226  0.839E-03  0.839E-03
 -18.216  0.609E-03  0.609E-03
 -18.206  0.390E-03  0.390E-03
 -18.196  0.181E-03  0.181E-03
 -18.186 -0.171E-04 -0.171E-04
 -18.176 -0.206E-03 -0.206E-03
 -18.166 -0.384E-03 -0.384E-03
 -18.156 -0.553E-03 -0.553E-03
 -18.146 -0.713E-03 -0.713E-03
 -18.136 -0.864E-03 -0.864E-03
 -18.126 -0.101E-02 -0.101E-02
 -18.116 -0.114E-02 -0.114E-02
 -18.106 -0.126E-02 -0.126E-02
 -18.096 -0.138E-02 -0.138E-02
 -18.086 -0.149E-02 -0.149E-02
 -18.076 -0.159E-02 -0.159E-02
 -18.066 -0.168E-02 -0.168E-02
 -18.056 -0.177E-02 -0.177E-02
 -18.046 -0.185E-02 -0.185E-02
 -18.036 -0.192E-02 -0.192E-02
 -18.026 -0.198E-02 -0.198E-02
 -18.016 -0.204E-02 -0.204E-02
 -18.006 -0.210E-02 -0.210E-02
 -17.996 -0.215E-02 -0.215E-02
 -17.986 -0.219E-02 -0.219E-02
 -17.976 -0.223E-02 -0.223E-02
 -17.966 -0.226E-02 -0.226E-02
 -17.956 -0.229E-02 -0.229E-02
 -17.946 -0.231E-02 -0.231E-02
 -17.936 -0.233E-02 -0.233E-02
 -17.926 -0.235E-02 -0.235E-02
 -17.916 -0.236E-02 -0.236E-02
 -17.906 -0.236E-02 -0.236E-02
 -17.896 -0.237E-02 -0.237E-02
 -17.886 -0.237E-02 -0.237E-02
 -17.876 -0.237E-02 -0.237E-02
 -17.866 -0.236E-02 -0.236E-02
 -17.856 -0.236E-02 -0.236E-02
 -17.846 -0.235E-02 -0.235E-02
 -17.836 -0.233E-02 -0.233E-02
 -17.826 -0.232E-02 -0.232E-02
 -17.816 -0.230E-02 -0.230E-02
 -17.806 -0.229E-02 -0.229E-02
 -17.796 -0.227E-02 -0.227E-02
 -17.786 -0.224E-02 -0.224E-02
 -17.776 -0.222E-02 -0.222E-02
 -17.766 -0.220E-02 -0.220E-02
 -17.756 -0.217E-02 -0.217E-02
 -17.746 -0.214E-02 -0.214E-02
 -17.736 -0.212E-02 -0.212E-02
 -17.726 -0.209E-02 -0.209E-02
 -17.716 -0.206E-02 -0.206E-02
 -17.706 -0.203E-02 -0.203E-02
 -17.696 -0.200E-02 -0.200E-02
 -17.686 -0.196E-02 -0.196E-02
 -17.676 -0.193E-02 -0.193E-02
 -17.666 -0.190E-02 -0.190E-02
 -17.656 -0.186E-02 -0.186E-02
 -17.646 -0.183E-02 -0.183E-02
 -17.636 -0.180E-02 -0.180E-02
 -17.626 -0.176E-02 -0.176E-02
 -17.616 -0.173E-02 -0.173E-02
 -17.606 -0.169E-02 -0.169E-02
 -17.596 -0.165E-02 -0.165E-02
 -17.586 -0.162E-02 -0.162E-02
 -17.576 -0.158E-02 -0.158E-02
 -17.566 -0.154E-02 -0.154E-02
 -17.556 -0.151E-02 -0.151E-02
 -17.546 -0.147E-02 -0.147E-02
 -17.536 -0.143E-02 -0.143E-02
 -17.526 -0.139E-02 -0.139E-02
 -17.516 -0.136E-02 -0.136E-02
 -17.506 -0.132E-02 -0.132E-02
 -17.496 -0.128E-02 -0.128E-02
 -17.486 -0.124E-02 -0.124E-02
 -17.476 -0.120E-02 -0.120E-02
 -17.466 -0.116E-02 -0.116E-02
 -17.456 -0.112E-02 -0.112E-02
 -17.446 -0.107E-02 -0.107E-02
 -17.436 -0.103E-02 -0.103E-02
 -17.426 -0.986E-03 -0.986E-03
 -17.416 -0.940E-03 -0.940E-03
 -17.406 -0.894E-03 -0.894E-03
 -17.396 -0.846E-03 -0.846E-03
 -17.386 -0.797E-03 -0.797E-03
 -17.376 -0.747E-03 -0.747E-03
 -17.366 -0.695E-03 -0.695E-03
 -17.356 -0.640E-03 -0.640E-03
 -17.346 -0.584E-03 -0.584E-03
 -17.336 -0.526E-03 -0.526E-03
 -17.326 -0.465E-03 -0.465E-03
 -17.316 -0.401E-03 -0.401E-03
 -17.306 -0.335E-03 -0.335E-03
 -17.296 -0.265E-03 -0.265E-03
 -17.286 -0.192E-03 -0.192E-03
 -17.276 -0.115E-03 -0.115E-03
 -17.266 -0.342E-04 -0.342E-04
 -17.256  0.508E-04  0.508E-04
 -17.246  0.141E-03  0.141E-03
 -17.236  0.235E-03  0.235E-03
 -17.226  0.335E-03  0.335E-03
 -17.216  0.441E-03  0.441E-03
 -17.206  0.552E-03  0.552E-03
 -17.196  0.671E-03  0.671E-03
 -17.186  0.796E-03  0.796E-03
 -17.176  0.928E-03  0.928E-03
 -17.166  0.107E-02  0.107E-02
 -17.156  0.122E-02  0.122E-02
 -17.146  0.137E-02  0.137E-02
 -17.136  0.154E-02  0.154E-02
 -17.126  0.172E-02  0.172E-02
 -17.116  0.190E-02  0.190E-02
 -17.106  0.210E-02  0.210E-02
 -17.096  0.231E-02  0.231E-02
 -17.086  0.253E-02  0.253E-02
 -17.076  0.276E-02  0.276E-02
 -17.066  0.301E-02  0.301E-02
 -17.056  0.327E-02  0.327E-02
 -17.046  0.354E-02  0.354E-02
 -17.036  0.383E-02  0.383E-02
 -17.026  0.413E-02  0.413E-02
 -17.016  0.445E-02  0.445E-02
 -17.006  0.479E-02  0.479E-02
 -16.996  0.514E-02  0.514E-02
 -16.986  0.551E-02  0.551E-02
 -16.976  0.590E-02  0.590E-02
 -16.966  0.631E-02  0.631E-02
 -16.956  0.674E-02  0.674E-02
 -16.946  0.719E-02  0.719E-02
 -16.936  0.765E-02  0.765E-02
 -16.926  0.814E-02  0.814E-02
 -16.916  0.866E-02  0.866E-02
 -16.906  0.919E-02  0.919E-02
 -16.896  0.974E-02  0.974E-02
 -16.886  0.103E-01  0.103E-01
 -16.876  0.109E-01  0.109E-01
 -16.866  0.116E-01  0.116E-01
 -16.856  0.122E-01  0.122E-01
 -16.846  0.129E-01  0.129E-01
 -16.836  0.136E-01  0.136E-01
 -16.826  0.143E-01  0.143E-01
 -16.816  0.151E-01  0.151E-01
 -16.806  0.158E-01  0.158E-01
 -16.796  0.166E-01  0.166E-01
 -16.786  0.175E-01  0.175E-01
 -16.776  0.183E-01  0.183E-01
 -16.766  0.192E-01  0.192E-01
 -16.756  0.201E-01  0.201E-01
 -16.746  0.210E-01  0.210E-01
 -16.736  0.220E-01  0.220E-01
 -16.726  0.230E-01  0.230E-01
 -16.716  0.240E-01  0.240E-01
 -16.706  0.250E-01  0.250E-01
 -16.696  0.260E-01  0.260E-01
 -16.686  0.271E-01  0.271E-01
 -16.676  0.282E-01  0.282E-01
 -16.666  0.293E-01  0.293E-01
 -16.656  0.305E-01  0.305E-01
 -16.646  0.316E-01  0.316E-01
 -16.636  0.328E-01  0.328E-01
 -16.626  0.340E-01  0.340E-01
 -16.616  0.352E-01  0.352E-01
 -16.606  0.365E-01  0.365E-01
 -16.596  0.377E-01  0.377E-01
 -16.586  0.390E-01  0.390E-01
 -16.576  0.402E-01  0.402E-01
 -16.566  0.415E-01  0.415E-01
 -16.556  0.428E-01  0.428E-01
 -16.546  0.441E-01  0.441E-01
 -16.536  0.454E-01  0.454E-01
 -16.526  0.468E-01  0.468E-01
 -16.516  0.481E-01  0.481E-01
 -16.506  0.494E-01  0.494E-01
 -16.496  0.507E-01  0.507E-01
 -16.486  0.521E-01  0.521E-01
 -16.476  0.534E-01  0.534E-01
 -16.466  0.547E-01  0.547E-01
 -16.456  0.560E-01  0.560E-01
 -16.446  0.573E-01  0.573E-01
 -16.436  0.586E-01  0.586E-01
 -16.426  0.599E-01  0.599E-01
 -16.416  0.612E-01  0.612E-01
 -16.406  0.624E-01  0.624E-01
 -16.396  0.636E-01  0.636E-01
 -16.386  0.648E-01  0.648E-01
 -16.376  0.660E-01  0.660E-01
 -16.366  0.672E-01  0.672E-01
 -16.356  0.683E-01  0.683E-01
 -16.346  0.695E-01  0.695E-01
 -16.336  0.705E-01  0.705E-01
 -16.326  0.716E-01  0.716E-01
 -16.316  0.726E-01  0.726E-01
 -16.306  0.736E-01  0.736E-01
 -16.296  0.745E-01  0.745E-01
 -16.286  0.754E-01  0.754E-01
 -16.276  0.763E-01  0.763E-01
 -16.266  0.771E-01  0.771E-01
 -16.256  0.779E-01  0.779E-01
 -16.246  0.787E-01  0.787E-01
 -16.236  0.794E-01  0.794E-01
 -16.226  0.800E-01  0.800E-01
 -16.216  0.806E-01  0.806E-01
 -16.206  0.811E-01  0.811E-01
 -16.196  0.816E-01  0.816E-01
 -16.186  0.821E-01  0.821E-01
 -16.176  0.825E-01  0.825E-01
 -16.166  0.828E-01  0.828E-01
 -16.156  0.831E-01  0.831E-01
 -16.146  0.833E-01  0.833E-01
 -16.136  0.835E-01  0.835E-01
 -16.126  0.836E-01  0.836E-01
 -16.116  0.836E-01  0.836E-01
 -16.106  0.836E-01  0.836E-01
 -16.096  0.836E-01  0.836E-01
 -16.086  0.834E-01  0.834E-01
 -16.076  0.833E-01  0.833E-01
 -16.066  0.830E-01  0.830E-01
 -16.056  0.827E-01  0.827E-01
 -16.046  0.824E-01  0.824E-01
 -16.036  0.820E-01  0.820E-01
 -16.026  0.815E-01  0.815E-01
 -16.016  0.810E-01  0.810E-01
 -16.006  0.805E-01  0.805E-01
 -15.996  0.798E-01  0.798E-01
 -15.986  0.792E-01  0.792E-01
 -15.976  0.785E-01  0.785E-01
 -15.966  0.777E-01  0.777E-01
 -15.956  0.769E-01  0.769E-01
 -15.946  0.760E-01  0.760E-01
 -15.936  0.751E-01  0.751E-01
 -15.926  0.741E-01  0.741E-01
 -15.916  0.732E-01  0.732E-01
 -15.906  0.721E-01  0.721E-01
 -15.896  0.710E-01  0.710E-01
 -15.886  0.699E-01  0.699E-01
 -15.876  0.688E-01  0.688E-01
 -15.866  0.676E-01  0.676E-01
 -15.856  0.664E-01  0.664E-01
 -15.846  0.651E-01  0.651E-01
 -15.836  0.639E-01  0.639E-01
 -15.826  0.625E-01  0.625E-01
 -15.816  0.612E-01  0.612E-01
 -15.806  0.599E-01  0.599E-01
 -15.796  0.585E-01  0.585E-01
 -15.786  0.571E-01  0.571E-01
 -15.776  0.557E-01  0.557E-01
 -15.766  0.543E-01  0.543E-01
 -15.756  0.529E-01  0.529E-01
 -15.746  0.514E-01  0.514E-01
 -15.736  0.500E-01  0.500E-01
 -15.726  0.485E-01  0.485E-01
 -15.716  0.471E-01  0.471E-01
 -15.706  0.456E-01  0.456E-01
 -15.696  0.442E-01  0.442E-01
 -15.686  0.427E-01  0.427E-01
 -15.676  0.413E-01  0.413E-01
 -15.666  0.398E-01  0.398E-01
 -15.656  0.384E-01  0.384E-01
 -15.646  0.369E-01  0.369E-01
 -15.636  0.355E-01  0.355E-01
 -15.626  0.341E-01  0.341E-01
 -15.616  0.327E-01  0.327E-01
 -15.606  0.313E-01  0.313E-01
 -15.596  0.300E-01  0.300E-01
 -15.586  0.286E-01  0.286E-01
 -15.576  0.273E-01  0.273E-01
 -15.566  0.260E-01  0.260E-01
 -15.556  0.247E-01  0.247E-01
 -15.546  0.235E-01  0.235E-01
 -15.536  0.222E-01  0.222E-01
 -15.526  0.210E-01  0.210E-01
 -15.516  0.198E-01  0.198E-01
 -15.506  0.187E-01  0.187E-01
 -15.496  0.175E-01  0.175E-01
 -15.486  0.164E-01  0.164E-01
 -15.476  0.154E-01  0.154E-01
 -15.466  0.143E-01  0.143E-01
 -15.456  0.133E-01  0.133E-01
 -15.446  0.123E-01  0.123E-01
 -15.436  0.113E-01  0.113E-01
 -15.426  0.104E-01  0.104E-01
 -15.416  0.952E-02  0.952E-02
 -15.406  0.866E-02  0.866E-02
 -15.396  0.782E-02  0.782E-02
 -15.386  0.701E-02  0.701E-02
 -15.376  0.624E-02  0.624E-02
 -15.366  0.549E-02  0.549E-02
 -15.356  0.477E-02  0.477E-02
 -15.346  0.409E-02  0.409E-02
 -15.336  0.343E-02  0.343E-02
 -15.326  0.281E-02  0.281E-02
 -15.316  0.221E-02  0.221E-02
 -15.306  0.164E-02  0.164E-02
 -15.296  0.110E-02  0.110E-02
 -15.286  0.584E-03  0.584E-03
 -15.276  0.981E-04  0.981E-04
 -15.266 -0.362E-03 -0.362E-03
 -15.256 -0.795E-03 -0.795E-03
 -15.246 -0.120E-02 -0.120E-02
 -15.236 -0.159E-02 -0.159E-02
 -15.226 -0.195E-02 -0.195E-02
 -15.216 -0.228E-02 -0.228E-02
 -15.206 -0.260E-02 -0.260E-02
 -15.196 -0.289E-02 -0.289E-02
 -15.186 -0.316E-02 -0.316E-02
 -15.176 -0.341E-02 -0.341E-02
 -15.166 -0.364E-02 -0.364E-02
 -15.156 -0.385E-02 -0.385E-02
 -15.146 -0.404E-02 -0.404E-02
 -15.136 -0.422E-02 -0.422E-02
 -15.126 -0.438E-02 -0.438E-02
 -15.116 -0.452E-02 -0.452E-02
 -15.106 -0.465E-02 -0.465E-02
 -15.096 -0.476E-02 -0.476E-02
 -15.086 -0.486E-02 -0.486E-02
 -15.076 -0.494E-02 -0.494E-02
 -15.066 -0.502E-02 -0.502E-02
 -15.056 -0.508E-02 -0.508E-02
 -15.046 -0.513E-02 -0.513E-02
 -15.036 -0.517E-02 -0.517E-02
 -15.026 -0.520E-02 -0.520E-02
 -15.016 -0.523E-02 -0.523E-02
 -15.006 -0.524E-02 -0.524E-02
 -14.996 -0.525E-02 -0.525E-02
 -14.986 -0.525E-02 -0.525E-02
 -14.976 -0.524E-02 -0.524E-02
 -14.966 -0.523E-02 -0.523E-02
 -14.956 -0.521E-02 -0.521E-02
 -14.946 -0.519E-02 -0.519E-02
 -14.936 -0.516E-02 -0.516E-02
 -14.926 -0.513E-02 -0.513E-02
 -14.916 -0.509E-02 -0.509E-02
 -14.906 -0.506E-02 -0.506E-02
 -14.896 -0.502E-02 -0.502E-02
 -14.886 -0.497E-02 -0.497E-02
 -14.876 -0.493E-02 -0.493E-02
 -14.866 -0.488E-02 -0.488E-02
 -14.856 -0.484E-02 -0.484E-02
 -14.846 -0.479E-02 -0.479E-02
 -14.836 -0.474E-02 -0.474E-02
 -14.826 -0.469E-02 -0.469E-02
 -14.816 -0.464E-02 -0.464E-02
 -14.806 -0.459E-02 -0.459E-02
 -14.796 -0.454E-02 -0.454E-02
 -14.786 -0.449E-02 -0.449E-02
 -14.776 -0.444E-02 -0.444E-02
 -14.766 -0.440E-02 -0.440E-02
 -14.756 -0.435E-02 -0.435E-02
 -14.746 -0.430E-02 -0.430E-02
 -14.736 -0.426E-02 -0.426E-02
 -14.726 -0.421E-02 -0.421E-02
 -14.716 -0.417E-02 -0.417E-02
 -14.706 -0.412E-02 -0.412E-02
 -14.696 -0.408E-02 -0.408E-02
 -14.686 -0.404E-02 -0.404E-02
 -14.676 -0.399E-02 -0.399E-02
 -14.666 -0.395E-02 -0.395E-02
 -14.656 -0.391E-02 -0.391E-02
 -14.646 -0.387E-02 -0.387E-02
 -14.636 -0.383E-02 -0.383E-02
 -14.626 -0.379E-02 -0.379E-02
 -14.616 -0.374E-02 -0.374E-02
 -14.606 -0.370E-02 -0.370E-02
 -14.596 -0.366E-02 -0.366E-02
 -14.586 -0.361E-02 -0.361E-02
 -14.576 -0.357E-02 -0.357E-02
 -14.566 -0.352E-02 -0.352E-02
 -14.556 -0.347E-02 -0.347E-02
 -14.546 -0.342E-02 -0.342E-02
 -14.536 -0.336E-02 -0.336E-02
 -14.526 -0.330E-02 -0.330E-02
 -14.516 -0.324E-02 -0.324E-02
 -14.506 -0.318E-02 -0.318E-02
 -14.496 -0.311E-02 -0.311E-02
 -14.486 -0.304E-02 -0.304E-02
 -14.476 -0.296E-02 -0.296E-02
 -14.466 -0.288E-02 -0.288E-02
 -14.456 -0.279E-02 -0.279E-02
 -14.446 -0.270E-02 -0.270E-02
 -14.436 -0.260E-02 -0.260E-02
 -14.426 -0.249E-02 -0.249E-02
 -14.416 -0.238E-02 -0.238E-02
 -14.406 -0.225E-02 -0.225E-02
 -14.396 -0.212E-02 -0.212E-02
 -14.386 -0.199E-02 -0.199E-02
 -14.376 -0.184E-02 -0.184E-02
 -14.366 -0.168E-02 -0.168E-02
 -14.356 -0.152E-02 -0.152E-02
 -14.346 -0.134E-02 -0.134E-02
 -14.336 -0.116E-02 -0.116E-02
 -14.326 -0.960E-03 -0.960E-03
 -14.316 -0.751E-03 -0.751E-03
 -14.306 -0.530E-03 -0.530E-03
 -14.296 -0.298E-03 -0.298E-03
 -14.286 -0.524E-04 -0.524E-04
 -14.276  0.206E-03  0.206E-03
 -14.266  0.478E-03  0.478E-03
 -14.256  0.763E-03  0.763E-03
 -14.246  0.106E-02  0.106E-02
 -14.236  0.138E-02  0.138E-02
 -14.226  0.171E-02  0.171E-02
 -14.216  0.205E-02  0.205E-02
 -14.206  0.241E-02  0.241E-02
 -14.196  0.278E-02  0.278E-02
 -14.186  0.317E-02  0.317E-02
 -14.176  0.358E-02  0.358E-02
 -14.166  0.400E-02  0.400E-02
 -14.156  0.444E-02  0.444E-02
 -14.146  0.490E-02  0.490E-02
 -14.136  0.537E-02  0.537E-02
 -14.126  0.586E-02  0.586E-02
 -14.116  0.637E-02  0.637E-02
 -14.106  0.689E-02  0.689E-02
 -14.096  0.743E-02  0.743E-02
 -14.086  0.799E-02  0.799E-02
 -14.076  0.856E-02  0.856E-02
 -14.066  0.916E-02  0.916E-02
 -14.056  0.976E-02  0.976E-02
 -14.046  0.104E-01  0.104E-01
 -14.036  0.110E-01  0.110E-01
 -14.026  0.117E-01  0.117E-01
 -14.016  0.124E-01  0.124E-01
 -14.006  0.130E-01  0.130E-01
 -13.996  0.137E-01  0.137E-01
 -13.986  0.145E-01  0.145E-01
 -13.976  0.152E-01  0.152E-01
 -13.966  0.159E-01  0.159E-01
 -13.956  0.167E-01  0.167E-01
 -13.946  0.175E-01  0.175E-01
 -13.936  0.183E-01  0.183E-01
 -13.926  0.191E-01  0.191E-01
 -13.916  0.199E-01  0.199E-01
 -13.906  0.207E-01  0.207E-01
 -13.896  0.215E-01  0.215E-01
 -13.886  0.223E-01  0.223E-01
 -13.876  0.232E-01  0.232E-01
 -13.866  0.240E-01  0.240E-01
 -13.856  0.249E-01  0.249E-01
 -13.846  0.258E-01  0.258E-01
 -13.836  0.266E-01  0.266E-01
 -13.826  0.275E-01  0.275E-01
 -13.816  0.284E-01  0.284E-01
 -13.806  0.293E-01  0.293E-01
 -13.796  0.301E-01  0.301E-01
 -13.786  0.310E-01  0.310E-01
 -13.776  0.319E-01  0.319E-01
 -13.766  0.328E-01  0.328E-01
 -13.756  0.336E-01  0.336E-01
 -13.746  0.345E-01  0.345E-01
 -13.736  0.354E-01  0.354E-01
 -13.726  0.362E-01  0.362E-01
 -13.716  0.371E-01  0.371E-01
 -13.706  0.379E-01  0.379E-01
 -13.696  0.387E-01  0.387E-01
 -13.686  0.395E-01  0.395E-01
 -13.676  0.403E-01  0.403E-01
 -13.666  0.411E-01  0.411E-01
 -13.656  0.419E-01  0.419E-01
 -13.646  0.426E-01  0.426E-01
 -13.636  0.434E-01  0.434E-01
 -13.626  0.441E-01  0.441E-01
 -13.616  0.448E-01  0.448E-01
 -13.606  0.455E-01  0.455E-01
 -13.596  0.461E-01  0.461E-01
 -13.586  0.468E-01  0.468E-01
 -13.576  0.474E-01  0.474E-01
 -13.566  0.480E-01  0.480E-01
 -13.556  0.485E-01  0.485E-01
 -13.546  0.491E-01  0.491E-01
 -13.536  0.496E-01  0.496E-01
 -13.526  0.501E-01  0.501E-01
 -13.516  0.505E-01  0.505E-01
 -13.506  0.510E-01  0.510E-01
 -13.496  0.514E-01  0.514E-01
 -13.486  0.517E-01  0.517E-01
 -13.476  0.521E-01  0.521E-01
 -13.466  0.524E-01  0.524E-01
 -13.456  0.526E-01  0.526E-01
 -13.446  0.529E-01  0.529E-01
 -13.436  0.531E-01  0.531E-01
 -13.426  0.532E-01  0.532E-01
 -13.416  0.534E-01  0.534E-01
 -13.406  0.535E-01  0.535E-01
 -13.396  0.536E-01  0.536E-01
 -13.386  0.536E-01  0.536E-01
 -13.376  0.536E-01  0.536E-01
 -13.366  0.536E-01  0.536E-01
 -13.356  0.535E-01  0.535E-01
 -13.346  0.534E-01  0.534E-01
 -13.336  0.533E-01  0.533E-01
 -13.326  0.531E-01  0.531E-01
 -13.316  0.529E-01  0.529E-01
 -13.306  0.527E-01  0.527E-01
 -13.296  0.524E-01  0.524E-01
 -13.286  0.521E-01  0.521E-01
 -13.276  0.518E-01  0.518E-01
 -13.266  0.514E-01  0.514E-01
 -13.256  0.510E-01  0.510E-01
 -13.246  0.506E-01  0.506E-01
 -13.236  0.502E-01  0.502E-01
 -13.226  0.497E-01  0.497E-01
 -13.216  0.492E-01  0.492E-01
 -13.206  0.487E-01  0.487E-01
 -13.196  0.481E-01  0.481E-01
 -13.186  0.475E-01  0.475E-01
 -13.176  0.469E-01  0.469E-01
 -13.166  0.463E-01  0.463E-01
 -13.156  0.456E-01  0.456E-01
 -13.146  0.450E-01  0.450E-01
 -13.136  0.443E-01  0.443E-01
 -13.126  0.436E-01  0.436E-01
 -13.116  0.428E-01  0.428E-01
 -13.106  0.421E-01  0.421E-01
 -13.096  0.413E-01  0.413E-01
 -13.086  0.405E-01  0.405E-01
 -13.076  0.397E-01  0.397E-01
 -13.066  0.389E-01  0.389E-01
 -13.056  0.381E-01  0.381E-01
 -13.046  0.373E-01  0.373E-01
 -13.036  0.364E-01  0.364E-01
 -13.026  0.356E-01  0.356E-01
 -13.016  0.347E-01  0.347E-01
 -13.006  0.339E-01  0.339E-01
 -12.996  0.330E-01  0.330E-01
 -12.986  0.321E-01  0.321E-01
 -12.976  0.312E-01  0.312E-01
 -12.966  0.303E-01  0.303E-01
 -12.956  0.295E-01  0.295E-01
 -12.946  0.286E-01  0.286E-01
 -12.936  0.277E-01  0.277E-01
 -12.926  0.268E-01  0.268E-01
 -12.916  0.259E-01  0.259E-01
 -12.906  0.250E-01  0.250E-01
 -12.896  0.241E-01  0.241E-01
 -12.886  0.233E-01  0.233E-01
 -12.876  0.224E-01  0.224E-01
 -12.866  0.215E-01  0.215E-01
 -12.856  0.207E-01  0.207E-01
 -12.846  0.198E-01  0.198E-01
 -12.836  0.189E-01  0.189E-01
 -12.826  0.181E-01  0.181E-01
 -12.816  0.173E-01  0.173E-01
 -12.806  0.164E-01  0.164E-01
 -12.796  0.156E-01  0.156E-01
 -12.786  0.148E-01  0.148E-01
 -12.776  0.140E-01  0.140E-01
 -12.766  0.132E-01  0.132E-01
 -12.756  0.125E-01  0.125E-01
 -12.746  0.117E-01  0.117E-01
 -12.736  0.109E-01  0.109E-01
 -12.726  0.102E-01  0.102E-01
 -12.716  0.947E-02  0.947E-02
 -12.706  0.875E-02  0.875E-02
 -12.696  0.804E-02  0.804E-02
 -12.686  0.734E-02  0.734E-02
 -12.676  0.666E-02  0.666E-02
 -12.666  0.599E-02  0.599E-02
 -12.656  0.533E-02  0.533E-02
 -12.646  0.468E-02  0.468E-02
 -12.636  0.405E-02  0.405E-02
 -12.626  0.343E-02  0.343E-02
 -12.616  0.282E-02  0.282E-02
 -12.606  0.222E-02  0.222E-02
 -12.596  0.164E-02  0.164E-02
 -12.586  0.107E-02  0.107E-02
 -12.576  0.508E-03  0.508E-03
 -12.566 -0.392E-04 -0.392E-04
 -12.556 -0.574E-03 -0.574E-03
 -12.546 -0.110E-02 -0.110E-02
 -12.536 -0.161E-02 -0.161E-02
 -12.526 -0.210E-02 -0.210E-02
 -12.516 -0.259E-02 -0.259E-02
 -12.506 -0.306E-02 -0.306E-02
 -12.496 -0.352E-02 -0.352E-02
 -12.486 -0.397E-02 -0.397E-02
 -12.476 -0.440E-02 -0.440E-02
 -12.466 -0.483E-02 -0.483E-02
 -12.456 -0.524E-02 -0.524E-02
 -12.446 -0.563E-02 -0.563E-02
 -12.436 -0.602E-02 -0.602E-02
 -12.426 -0.639E-02 -0.639E-02
 -12.416 -0.675E-02 -0.675E-02
 -12.406 -0.709E-02 -0.709E-02
 -12.396 -0.742E-02 -0.742E-02
 -12.386 -0.774E-02 -0.774E-02
 -12.376 -0.804E-02 -0.804E-02
 -12.366 -0.833E-02 -0.833E-02
 -12.356 -0.860E-02 -0.860E-02
 -12.346 -0.886E-02 -0.886E-02
 -12.336 -0.910E-02 -0.910E-02
 -12.326 -0.933E-02 -0.933E-02
 -12.316 -0.954E-02 -0.954E-02
 -12.306 -0.973E-02 -0.973E-02
 -12.296 -0.990E-02 -0.990E-02
 -12.286 -0.101E-01 -0.101E-01
 -12.276 -0.102E-01 -0.102E-01
 -12.266 -0.103E-01 -0.103E-01
 -12.256 -0.104E-01 -0.104E-01
 -12.246 -0.105E-01 -0.105E-01
 -12.236 -0.105E-01 -0.105E-01
 -12.226 -0.105E-01 -0.105E-01
 -12.216 -0.105E-01 -0.105E-01
 -12.206 -0.105E-01 -0.105E-01
 -12.196 -0.105E-01 -0.105E-01
 -12.186 -0.104E-01 -0.104E-01
 -12.176 -0.103E-01 -0.103E-01
 -12.166 -0.101E-01 -0.101E-01
 -12.156 -0.998E-02 -0.998E-02
 -12.146 -0.978E-02 -0.978E-02
 -12.136 -0.955E-02 -0.955E-02
 -12.126 -0.928E-02 -0.928E-02
 -12.116 -0.898E-02 -0.898E-02
 -12.106 -0.865E-02 -0.865E-02
 -12.096 -0.827E-02 -0.827E-02
 -12.086 -0.786E-02 -0.786E-02
 -12.076 -0.741E-02 -0.741E-02
 -12.066 -0.692E-02 -0.692E-02
 -12.056 -0.638E-02 -0.638E-02
 -12.046 -0.580E-02 -0.580E-02
 -12.036 -0.518E-02 -0.518E-02
 -12.026 -0.451E-02 -0.451E-02
 -12.016 -0.380E-02 -0.380E-02
 -12.006 -0.303E-02 -0.303E-02
 -11.996 -0.222E-02 -0.222E-02
 -11.986 -0.136E-02 -0.136E-02
 -11.976 -0.446E-03 -0.446E-03
 -11.966  0.518E-03  0.518E-03
 -11.956  0.153E-02  0.153E-02
 -11.946  0.261E-02  0.261E-02
 -11.936  0.373E-02  0.373E-02
 -11.926  0.491E-02  0.491E-02
 -11.916  0.614E-02  0.614E-02
 -11.906  0.743E-02  0.743E-02
 -11.896  0.878E-02  0.878E-02
 -11.886  0.102E-01  0.102E-01
 -11.876  0.116E-01  0.116E-01
 -11.866  0.132E-01  0.132E-01
 -11.856  0.147E-01  0.147E-01
 -11.846  0.164E-01  0.164E-01
 -11.836  0.181E-01  0.181E-01
 -11.826  0.198E-01  0.198E-01
 -11.816  0.216E-01  0.216E-01
 -11.806  0.235E-01  0.235E-01
 -11.796  0.254E-01  0.254E-01
 -11.786  0.273E-01  0.273E-01
 -11.776  0.294E-01  0.294E-01
 -11.766  0.314E-01  0.314E-01
 -11.756  0.336E-01  0.336E-01
 -11.746  0.357E-01  0.357E-01
 -11.736  0.380E-01  0.380E-01
 -11.726  0.402E-01  0.402E-01
 -11.716  0.426E-01  0.426E-01
 -11.706  0.449E-01  0.449E-01
 -11.696  0.473E-01  0.473E-01
 -11.686  0.498E-01  0.498E-01
 -11.676  0.523E-01  0.523E-01
 -11.666  0.548E-01  0.548E-01
 -11.656  0.574E-01  0.574E-01
 -11.646  0.599E-01  0.599E-01
 -11.636  0.626E-01  0.626E-01
 -11.626  0.652E-01  0.652E-01
 -11.616  0.679E-01  0.679E-01
 -11.606  0.706E-01  0.706E-01
 -11.596  0.733E-01  0.733E-01
 -11.586  0.760E-01  0.760E-01
 -11.576  0.787E-01  0.787E-01
 -11.566  0.815E-01  0.815E-01
 -11.556  0.842E-01  0.842E-01
 -11.546  0.870E-01  0.870E-01
 -11.536  0.897E-01  0.897E-01
 -11.526  0.924E-01  0.924E-01
 -11.516  0.952E-01  0.952E-01
 -11.506  0.979E-01  0.979E-01
 -11.496  0.101E+00  0.101E+00
 -11.486  0.103E+00  0.103E+00
 -11.476  0.106E+00  0.106E+00
 -11.466  0.109E+00  0.109E+00
 -11.456  0.111E+00  0.111E+00
 -11.446  0.114E+00  0.114E+00
 -11.436  0.116E+00  0.116E+00
 -11.426  0.119E+00  0.119E+00
 -11.416  0.121E+00  0.121E+00
 -11.406  0.123E+00  0.123E+00
 -11.396  0.126E+00  0.126E+00
 -11.386  0.128E+00  0.128E+00
 -11.376  0.130E+00  0.130E+00
 -11.366  0.132E+00  0.132E+00
 -11.356  0.135E+00  0.135E+00
 -11.346  0.137E+00  0.137E+00
 -11.336  0.138E+00  0.138E+00
 -11.326  0.140E+00  0.140E+00
 -11.316  0.142E+00  0.142E+00
 -11.306  0.144E+00  0.144E+00
 -11.296  0.145E+00  0.145E+00
 -11.286  0.147E+00  0.147E+00
 -11.276  0.148E+00  0.148E+00
 -11.266  0.150E+00  0.150E+00
 -11.256  0.151E+00  0.151E+00
 -11.246  0.152E+00  0.152E+00
 -11.236  0.153E+00  0.153E+00
 -11.226  0.154E+00  0.154E+00
 -11.216  0.155E+00  0.155E+00
 -11.206  0.156E+00  0.156E+00
 -11.196  0.157E+00  0.157E+00
 -11.186  0.157E+00  0.157E+00
 -11.176  0.158E+00  0.158E+00
 -11.166  0.158E+00  0.158E+00
 -11.156  0.158E+00  0.158E+00
 -11.146  0.158E+00  0.158E+00
 -11.136  0.158E+00  0.158E+00
 -11.126  0.158E+00  0.158E+00
 -11.116  0.158E+00  0.158E+00
 -11.106  0.158E+00  0.158E+00
 -11.096  0.158E+00  0.158E+00
 -11.086  0.157E+00  0.157E+00
 -11.076  0.157E+00  0.157E+00
 -11.066  0.156E+00  0.156E+00
 -11.056  0.155E+00  0.155E+00
 -11.046  0.154E+00  0.154E+00
 -11.036  0.154E+00  0.154E+00
 -11.026  0.153E+00  0.153E+00
 -11.016  0.151E+00  0.151E+00
 -11.006  0.150E+00  0.150E+00
 -10.996  0.149E+00  0.149E+00
 -10.986  0.148E+00  0.148E+00
 -10.976  0.146E+00  0.146E+00
 -10.966  0.145E+00  0.145E+00
 -10.956  0.143E+00  0.143E+00
 -10.946  0.142E+00  0.142E+00
 -10.936  0.140E+00  0.140E+00
 -10.926  0.138E+00  0.138E+00
 -10.916  0.136E+00  0.136E+00
 -10.906  0.135E+00  0.135E+00
 -10.896  0.133E+00  0.133E+00
 -10.886  0.131E+00  0.131E+00
 -10.876  0.129E+00  0.129E+00
 -10.866  0.127E+00  0.127E+00
 -10.856  0.125E+00  0.125E+00
 -10.846  0.123E+00  0.123E+00
 -10.836  0.120E+00  0.120E+00
 -10.826  0.118E+00  0.118E+00
 -10.816  0.116E+00  0.116E+00
 -10.806  0.114E+00  0.114E+00
 -10.796  0.112E+00  0.112E+00
 -10.786  0.109E+00  0.109E+00
 -10.776  0.107E+00  0.107E+00
 -10.766  0.105E+00  0.105E+00
 -10.756  0.103E+00  0.103E+00
 -10.746  0.100E+00  0.100E+00
 -10.736  0.980E-01  0.980E-01
 -10.726  0.957E-01  0.957E-01
 -10.716  0.935E-01  0.935E-01
 -10.706  0.912E-01  0.912E-01
 -10.696  0.889E-01  0.889E-01
 -10.686  0.867E-01  0.867E-01
 -10.676  0.845E-01  0.845E-01
 -10.666  0.823E-01  0.823E-01
 -10.656  0.801E-01  0.801E-01
 -10.646  0.779E-01  0.779E-01
 -10.636  0.758E-01  0.758E-01
 -10.626  0.737E-01  0.737E-01
 -10.616  0.716E-01  0.716E-01
 -10.606  0.695E-01  0.695E-01
 -10.596  0.675E-01  0.675E-01
 -10.586  0.655E-01  0.655E-01
 -10.576  0.635E-01  0.635E-01
 -10.566  0.616E-01  0.616E-01
 -10.556  0.597E-01  0.597E-01
 -10.546  0.579E-01  0.579E-01
 -10.536  0.560E-01  0.560E-01
 -10.526  0.542E-01  0.542E-01
 -10.516  0.525E-01  0.525E-01
 -10.506  0.508E-01  0.508E-01
 -10.496  0.491E-01  0.491E-01
 -10.486  0.474E-01  0.474E-01
 -10.476  0.458E-01  0.458E-01
 -10.466  0.443E-01  0.443E-01
 -10.456  0.427E-01  0.427E-01
 -10.446  0.412E-01  0.412E-01
 -10.436  0.398E-01  0.398E-01
 -10.426  0.384E-01  0.384E-01
 -10.416  0.370E-01  0.370E-01
 -10.406  0.356E-01  0.356E-01
 -10.396  0.343E-01  0.343E-01
 -10.386  0.330E-01  0.330E-01
 -10.376  0.318E-01  0.318E-01
 -10.366  0.306E-01  0.306E-01
 -10.356  0.294E-01  0.294E-01
 -10.346  0.283E-01  0.283E-01
 -10.336  0.272E-01  0.272E-01
 -10.326  0.261E-01  0.261E-01
 -10.316  0.251E-01  0.251E-01
 -10.306  0.241E-01  0.241E-01
 -10.296  0.231E-01  0.231E-01
 -10.286  0.221E-01  0.221E-01
 -10.276  0.212E-01  0.212E-01
 -10.266  0.203E-01  0.203E-01
 -10.256  0.194E-01  0.194E-01
 -10.246  0.186E-01  0.186E-01
 -10.236  0.178E-01  0.178E-01
 -10.226  0.170E-01  0.170E-01
 -10.216  0.162E-01  0.162E-01
 -10.206  0.154E-01  0.154E-01
 -10.196  0.147E-01  0.147E-01
 -10.186  0.140E-01  0.140E-01
 -10.176  0.133E-01  0.133E-01
 -10.166  0.126E-01  0.126E-01
 -10.156  0.119E-01  0.119E-01
 -10.146  0.113E-01  0.113E-01
 -10.136  0.107E-01  0.107E-01
 -10.126  0.101E-01  0.101E-01
 -10.116  0.946E-02  0.946E-02
 -10.106  0.888E-02  0.888E-02
 -10.096  0.832E-02  0.832E-02
 -10.086  0.776E-02  0.776E-02
 -10.076  0.722E-02  0.722E-02
 -10.066  0.669E-02  0.669E-02
 -10.056  0.617E-02  0.617E-02
 -10.046  0.566E-02  0.566E-02
 -10.036  0.516E-02  0.516E-02
 -10.026  0.467E-02  0.467E-02
 -10.016  0.419E-02  0.419E-02
 -10.006  0.372E-02  0.372E-02
  -9.996  0.326E-02  0.326E-02
  -9.986  0.280E-02  0.280E-02
  -9.976  0.236E-02  0.236E-02
  -9.966  0.192E-02  0.192E-02
  -9.956  0.148E-02  0.148E-02
  -9.946  0.106E-02  0.106E-02
  -9.936  0.638E-03  0.638E-03
  -9.926  0.223E-03  0.223E-03
  -9.916 -0.185E-03 -0.185E-03
  -9.906 -0.588E-03 -0.588E-03
  -9.896 -0.986E-03 -0.986E-03
  -9.886 -0.138E-02 -0.138E-02
  -9.876 -0.177E-02 -0.177E-02
  -9.866 -0.215E-02 -0.215E-02
  -9.856 -0.253E-02 -0.253E-02
  -9.846 -0.290E-02 -0.290E-02
  -9.836 -0.327E-02 -0.327E-02
  -9.826 -0.363E-02 -0.363E-02
  -9.816 -0.399E-02 -0.399E-02
  -9.806 -0.435E-02 -0.435E-02
  -9.796 -0.470E-02 -0.470E-02
  -9.786 -0.505E-02 -0.505E-02
  -9.776 -0.539E-02 -0.539E-02
  -9.766 -0.573E-02 -0.573E-02
  -9.756 -0.606E-02 -0.606E-02
  -9.746 -0.639E-02 -0.639E-02
  -9.736 -0.671E-02 -0.671E-02
  -9.726 -0.702E-02 -0.702E-02
  -9.716 -0.733E-02 -0.733E-02
  -9.706 -0.764E-02 -0.764E-02
  -9.696 -0.794E-02 -0.794E-02
  -9.686 -0.823E-02 -0.823E-02
  -9.676 -0.851E-02 -0.851E-02
  -9.666 -0.878E-02 -0.878E-02
  -9.656 -0.905E-02 -0.905E-02
  -9.646 -0.931E-02 -0.931E-02
  -9.636 -0.955E-02 -0.955E-02
  -9.626 -0.979E-02 -0.979E-02
  -9.616 -0.100E-01 -0.100E-01
  -9.606 -0.102E-01 -0.102E-01
  -9.596 -0.104E-01 -0.104E-01
  -9.586 -0.106E-01 -0.106E-01
  -9.576 -0.108E-01 -0.108E-01
  -9.566 -0.109E-01 -0.109E-01
  -9.556 -0.111E-01 -0.111E-01
  -9.546 -0.112E-01 -0.112E-01
  -9.536 -0.113E-01 -0.113E-01
  -9.526 -0.114E-01 -0.114E-01
  -9.516 -0.114E-01 -0.114E-01
  -9.506 -0.115E-01 -0.115E-01
  -9.496 -0.115E-01 -0.115E-01
  -9.486 -0.114E-01 -0.114E-01
  -9.476 -0.114E-01 -0.114E-01
  -9.466 -0.113E-01 -0.113E-01
  -9.456 -0.112E-01 -0.112E-01
  -9.446 -0.111E-01 -0.111E-01
  -9.436 -0.109E-01 -0.109E-01
  -9.426 -0.107E-01 -0.107E-01
  -9.416 -0.104E-01 -0.104E-01
  -9.406 -0.101E-01 -0.101E-01
  -9.396 -0.974E-02 -0.974E-02
  -9.386 -0.935E-02 -0.935E-02
  -9.376 -0.890E-02 -0.890E-02
  -9.366 -0.841E-02 -0.841E-02
  -9.356 -0.786E-02 -0.786E-02
  -9.346 -0.726E-02 -0.726E-02
  -9.336 -0.659E-02 -0.659E-02
  -9.326 -0.587E-02 -0.587E-02
  -9.316 -0.508E-02 -0.508E-02
  -9.306 -0.423E-02 -0.423E-02
  -9.296 -0.331E-02 -0.331E-02
  -9.286 -0.231E-02 -0.231E-02
  -9.276 -0.124E-02 -0.124E-02
  -9.266 -0.999E-04 -0.999E-04
  -9.256  0.112E-02  0.112E-02
  -9.246  0.243E-02  0.243E-02
  -9.236  0.382E-02  0.382E-02
  -9.226  0.529E-02  0.529E-02
  -9.216  0.685E-02  0.685E-02
  -9.206  0.851E-02  0.851E-02
  -9.196  0.103E-01  0.103E-01
  -9.186  0.121E-01  0.121E-01
  -9.176  0.140E-01  0.140E-01
  -9.166  0.161E-01  0.161E-01
  -9.156  0.182E-01  0.182E-01
  -9.146  0.205E-01  0.205E-01
  -9.136  0.228E-01  0.228E-01
  -9.126  0.253E-01  0.253E-01
  -9.116  0.279E-01  0.279E-01
  -9.106  0.305E-01  0.305E-01
  -9.096  0.333E-01  0.333E-01
  -9.086  0.362E-01  0.362E-01
  -9.076  0.393E-01  0.393E-01
  -9.066  0.424E-01  0.424E-01
  -9.056  0.457E-01  0.457E-01
  -9.046  0.490E-01  0.490E-01
  -9.036  0.525E-01  0.525E-01
  -9.026  0.561E-01  0.561E-01
  -9.016  0.598E-01  0.598E-01
  -9.006  0.637E-01  0.637E-01
  -8.996  0.676E-01  0.676E-01
  -8.986  0.717E-01  0.717E-01
  -8.976  0.758E-01  0.758E-01
  -8.966  0.801E-01  0.801E-01
  -8.956  0.845E-01  0.845E-01
  -8.946  0.890E-01  0.890E-01
  -8.936  0.936E-01  0.936E-01
  -8.926  0.983E-01  0.983E-01
  -8.916  0.103E+00  0.103E+00
  -8.906  0.108E+00  0.108E+00
  -8.896  0.113E+00  0.113E+00
  -8.886  0.118E+00  0.118E+00
  -8.876  0.123E+00  0.123E+00
  -8.866  0.129E+00  0.129E+00
  -8.856  0.134E+00  0.134E+00
  -8.846  0.139E+00  0.139E+00
  -8.836  0.145E+00  0.145E+00
  -8.826  0.151E+00  0.151E+00
  -8.816  0.156E+00  0.156E+00
  -8.806  0.162E+00  0.162E+00
  -8.796  0.168E+00  0.168E+00
  -8.786  0.173E+00  0.173E+00
  -8.776  0.179E+00  0.179E+00
  -8.766  0.185E+00  0.185E+00
  -8.756  0.191E+00  0.191E+00
  -8.746  0.197E+00  0.197E+00
  -8.736  0.203E+00  0.203E+00
  -8.726  0.209E+00  0.209E+00
  -8.716  0.215E+00  0.215E+00
  -8.706  0.221E+00  0.221E+00
  -8.696  0.226E+00  0.226E+00
  -8.686  0.232E+00  0.232E+00
  -8.676  0.238E+00  0.238E+00
  -8.666  0.244E+00  0.244E+00
  -8.656  0.250E+00  0.250E+00
  -8.646  0.255E+00  0.255E+00
  -8.636  0.261E+00  0.261E+00
  -8.626  0.267E+00  0.267E+00
  -8.616  0.272E+00  0.272E+00
  -8.606  0.278E+00  0.278E+00
  -8.596  0.283E+00  0.283E+00
  -8.586  0.288E+00  0.288E+00
  -8.576  0.293E+00  0.293E+00
  -8.566  0.298E+00  0.298E+00
  -8.556  0.303E+00  0.303E+00
  -8.546  0.308E+00  0.308E+00
  -8.536  0.312E+00  0.312E+00
  -8.526  0.317E+00  0.317E+00
  -8.516  0.321E+00  0.321E+00
  -8.506  0.325E+00  0.325E+00
  -8.496  0.329E+00  0.329E+00
  -8.486  0.333E+00  0.333E+00
  -8.476  0.336E+00  0.336E+00
  -8.466  0.340E+00  0.340E+00
  -8.456  0.343E+00  0.343E+00
  -8.446  0.346E+00  0.346E+00
  -8.436  0.349E+00  0.349E+00
  -8.426  0.351E+00  0.351E+00
  -8.416  0.354E+00  0.354E+00
  -8.406  0.356E+00  0.356E+00
  -8.396  0.358E+00  0.358E+00
  -8.386  0.360E+00  0.360E+00
  -8.376  0.361E+00  0.361E+00
  -8.366  0.363E+00  0.363E+00
  -8.356  0.364E+00  0.364E+00
  -8.346  0.364E+00  0.364E+00
  -8.336  0.365E+00  0.365E+00
  -8.326  0.365E+00  0.365E+00
  -8.316  0.365E+00  0.365E+00
  -8.306  0.365E+00  0.365E+00
  -8.296  0.365E+00  0.365E+00
  -8.286  0.364E+00  0.364E+00
  -8.276  0.363E+00  0.363E+00
  -8.266  0.362E+00  0.362E+00
  -8.256  0.361E+00  0.361E+00
  -8.246  0.360E+00  0.360E+00
  -8.236  0.358E+00  0.358E+00
  -8.226  0.356E+00  0.356E+00
  -8.216  0.354E+00  0.354E+00
  -8.206  0.351E+00  0.351E+00
  -8.196  0.349E+00  0.349E+00
  -8.186  0.346E+00  0.346E+00
  -8.176  0.343E+00  0.343E+00
  -8.166  0.339E+00  0.339E+00
  -8.156  0.336E+00  0.336E+00
  -8.146  0.332E+00  0.332E+00
  -8.136  0.328E+00  0.328E+00
  -8.126  0.324E+00  0.324E+00
  -8.116  0.320E+00  0.320E+00
  -8.106  0.316E+00  0.316E+00
  -8.096  0.311E+00  0.311E+00
  -8.086  0.307E+00  0.307E+00
  -8.076  0.302E+00  0.302E+00
  -8.066  0.297E+00  0.297E+00
  -8.056  0.292E+00  0.292E+00
  -8.046  0.286E+00  0.286E+00
  -8.036  0.281E+00  0.281E+00
  -8.026  0.276E+00  0.276E+00
  -8.016  0.270E+00  0.270E+00
  -8.006  0.265E+00  0.265E+00
  -7.996  0.259E+00  0.259E+00
  -7.986  0.253E+00  0.253E+00
  -7.976  0.247E+00  0.247E+00
  -7.966  0.241E+00  0.241E+00
  -7.956  0.235E+00  0.235E+00
  -7.946  0.229E+00  0.229E+00
  -7.936  0.223E+00  0.223E+00
  -7.926  0.217E+00  0.217E+00
  -7.916  0.211E+00  0.211E+00
  -7.906  0.205E+00  0.205E+00
  -7.896  0.199E+00  0.199E+00
  -7.886  0.193E+00  0.193E+00
  -7.876  0.187E+00  0.187E+00
  -7.866  0.180E+00  0.180E+00
  -7.856  0.174E+00  0.174E+00
  -7.846  0.168E+00  0.168E+00
  -7.836  0.162E+00  0.162E+00
  -7.826  0.156E+00  0.156E+00
  -7.816  0.150E+00  0.150E+00
  -7.806  0.145E+00  0.145E+00
  -7.796  0.139E+00  0.139E+00
  -7.786  0.133E+00  0.133E+00
  -7.776  0.127E+00  0.127E+00
  -7.766  0.122E+00  0.122E+00
  -7.756  0.116E+00  0.116E+00
  -7.746  0.111E+00  0.111E+00
  -7.736  0.105E+00  0.105E+00
  -7.726  0.100E+00  0.100E+00
  -7.716  0.951E-01  0.951E-01
  -7.706  0.900E-01  0.900E-01
  -7.696  0.851E-01  0.851E-01
  -7.686  0.802E-01  0.802E-01
  -7.676  0.755E-01  0.755E-01
  -7.666  0.709E-01  0.709E-01
  -7.656  0.664E-01  0.664E-01
  -7.646  0.620E-01  0.620E-01
  -7.636  0.577E-01  0.577E-01
  -7.626  0.535E-01  0.535E-01
  -7.616  0.495E-01  0.495E-01
  -7.606  0.455E-01  0.455E-01
  -7.596  0.417E-01  0.417E-01
  -7.586  0.381E-01  0.381E-01
  -7.576  0.345E-01  0.345E-01
  -7.566  0.311E-01  0.311E-01
  -7.556  0.277E-01  0.277E-01
  -7.546  0.245E-01  0.245E-01
  -7.536  0.215E-01  0.215E-01
  -7.526  0.185E-01  0.185E-01
  -7.516  0.157E-01  0.157E-01
  -7.506  0.130E-01  0.130E-01
  -7.496  0.104E-01  0.104E-01
  -7.486  0.787E-02  0.787E-02
  -7.476  0.550E-02  0.550E-02
  -7.466  0.325E-02  0.325E-02
  -7.456  0.110E-02  0.110E-02
  -7.446 -0.926E-03 -0.926E-03
  -7.436 -0.285E-02 -0.285E-02
  -7.426 -0.466E-02 -0.466E-02
  -7.416 -0.637E-02 -0.637E-02
  -7.406 -0.797E-02 -0.797E-02
  -7.396 -0.947E-02 -0.947E-02
  -7.386 -0.109E-01 -0.109E-01
  -7.376 -0.122E-01 -0.122E-01
  -7.366 -0.134E-01 -0.134E-01
  -7.356 -0.145E-01 -0.145E-01
  -7.346 -0.155E-01 -0.155E-01
  -7.336 -0.164E-01 -0.164E-01
  -7.326 -0.173E-01 -0.173E-01
  -7.316 -0.180E-01 -0.180E-01
  -7.306 -0.187E-01 -0.187E-01
  -7.296 -0.192E-01 -0.192E-01
  -7.286 -0.197E-01 -0.197E-01
  -7.276 -0.201E-01 -0.201E-01
  -7.266 -0.205E-01 -0.205E-01
  -7.256 -0.207E-01 -0.207E-01
  -7.246 -0.209E-01 -0.209E-01
  -7.236 -0.210E-01 -0.210E-01
  -7.226 -0.210E-01 -0.210E-01
  -7.216 -0.210E-01 -0.210E-01
  -7.206 -0.209E-01 -0.209E-01
  -7.196 -0.207E-01 -0.207E-01
  -7.186 -0.205E-01 -0.205E-01
  -7.176 -0.201E-01 -0.201E-01
  -7.166 -0.198E-01 -0.198E-01
  -7.156 -0.193E-01 -0.193E-01
  -7.146 -0.188E-01 -0.188E-01
  -7.136 -0.182E-01 -0.182E-01
  -7.126 -0.176E-01 -0.176E-01
  -7.116 -0.169E-01 -0.169E-01
  -7.106 -0.161E-01 -0.161E-01
  -7.096 -0.153E-01 -0.153E-01
  -7.086 -0.144E-01 -0.144E-01
  -7.076 -0.134E-01 -0.134E-01
  -7.066 -0.124E-01 -0.124E-01
  -7.056 -0.113E-01 -0.113E-01
  -7.046 -0.102E-01 -0.102E-01
  -7.036 -0.903E-02 -0.903E-02
  -7.026 -0.778E-02 -0.778E-02
  -7.016 -0.647E-02 -0.647E-02
  -7.006 -0.511E-02 -0.511E-02
  -6.996 -0.369E-02 -0.369E-02
  -6.986 -0.221E-02 -0.221E-02
  -6.976 -0.671E-03 -0.671E-03
  -6.966  0.923E-03  0.923E-03
  -6.956  0.257E-02  0.257E-02
  -6.946  0.428E-02  0.428E-02
  -6.936  0.604E-02  0.604E-02
  -6.926  0.786E-02  0.786E-02
  -6.916  0.974E-02  0.974E-02
  -6.906  0.117E-01  0.117E-01
  -6.896  0.137E-01  0.137E-01
  -6.886  0.157E-01  0.157E-01
  -6.876  0.178E-01  0.178E-01
  -6.866  0.199E-01  0.199E-01
  -6.856  0.221E-01  0.221E-01
  -6.846  0.244E-01  0.244E-01
  -6.836  0.266E-01  0.266E-01
  -6.826  0.290E-01  0.290E-01
  -6.816  0.314E-01  0.314E-01
  -6.806  0.338E-01  0.338E-01
  -6.796  0.363E-01  0.363E-01
  -6.786  0.388E-01  0.388E-01
  -6.776  0.414E-01  0.414E-01
  -6.766  0.440E-01  0.440E-01
  -6.756  0.466E-01  0.466E-01
  -6.746  0.493E-01  0.493E-01
  -6.736  0.520E-01  0.520E-01
  -6.726  0.547E-01  0.547E-01
  -6.716  0.575E-01  0.575E-01
  -6.706  0.603E-01  0.603E-01
  -6.696  0.631E-01  0.631E-01
  -6.686  0.660E-01  0.660E-01
  -6.676  0.688E-01  0.688E-01
  -6.666  0.717E-01  0.717E-01
  -6.656  0.746E-01  0.746E-01
  -6.646  0.775E-01  0.775E-01
  -6.636  0.804E-01  0.804E-01
  -6.626  0.833E-01  0.833E-01
  -6.616  0.862E-01  0.862E-01
  -6.606  0.892E-01  0.892E-01
  -6.596  0.921E-01  0.921E-01
  -6.586  0.950E-01  0.950E-01
  -6.576  0.978E-01  0.978E-01
  -6.566  0.101E+00  0.101E+00
  -6.556  0.104E+00  0.104E+00
  -6.546  0.106E+00  0.106E+00
  -6.536  0.109E+00  0.109E+00
  -6.526  0.112E+00  0.112E+00
  -6.516  0.115E+00  0.115E+00
  -6.506  0.117E+00  0.117E+00
  -6.496  0.120E+00  0.120E+00
  -6.486  0.123E+00  0.123E+00
  -6.476  0.125E+00  0.125E+00
  -6.466  0.128E+00  0.128E+00
  -6.456  0.130E+00  0.130E+00
  -6.446  0.132E+00  0.132E+00
  -6.436  0.135E+00  0.135E+00
  -6.426  0.137E+00  0.137E+00
  -6.416  0.139E+00  0.139E+00
  -6.406  0.141E+00  0.141E+00
  -6.396  0.143E+00  0.143E+00
  -6.386  0.145E+00  0.145E+00
  -6.376  0.147E+00  0.147E+00
  -6.366  0.149E+00  0.149E+00
  -6.356  0.150E+00  0.150E+00
  -6.346  0.152E+00  0.152E+00
  -6.336  0.154E+00  0.154E+00
  -6.326  0.155E+00  0.155E+00
  -6.316  0.156E+00  0.156E+00
  -6.306  0.157E+00  0.157E+00
  -6.296  0.158E+00  0.158E+00
  -6.286  0.159E+00  0.159E+00
  -6.276  0.160E+00  0.160E+00
  -6.266  0.161E+00  0.161E+00
  -6.256  0.162E+00  0.162E+00
  -6.246  0.162E+00  0.162E+00
  -6.236  0.162E+00  0.162E+00
  -6.226  0.163E+00  0.163E+00
  -6.216  0.163E+00  0.163E+00
  -6.206  0.163E+00  0.163E+00
  -6.196  0.163E+00  0.163E+00
  -6.186  0.163E+00  0.163E+00
  -6.176  0.162E+00  0.162E+00
  -6.166  0.162E+00  0.162E+00
  -6.156  0.161E+00  0.161E+00
  -6.146  0.161E+00  0.161E+00
  -6.136  0.160E+00  0.160E+00
  -6.126  0.159E+00  0.159E+00
  -6.116  0.158E+00  0.158E+00
  -6.106  0.157E+00  0.157E+00
  -6.096  0.156E+00  0.156E+00
  -6.086  0.155E+00  0.155E+00
  -6.076  0.153E+00  0.153E+00
  -6.066  0.152E+00  0.152E+00
  -6.056  0.150E+00  0.150E+00
  -6.046  0.149E+00  0.149E+00
  -6.036  0.147E+00  0.147E+00
  -6.026  0.145E+00  0.145E+00
  -6.016  0.143E+00  0.143E+00
  -6.006  0.141E+00  0.141E+00
  -5.996  0.139E+00  0.139E+00
  -5.986  0.137E+00  0.137E+00
  -5.976  0.134E+00  0.134E+00
  -5.966  0.132E+00  0.132E+00
  -5.956  0.130E+00  0.130E+00
  -5.946  0.127E+00  0.127E+00
  -5.936  0.125E+00  0.125E+00
  -5.926  0.122E+00  0.122E+00
  -5.916  0.120E+00  0.120E+00
  -5.906  0.117E+00  0.117E+00
  -5.896  0.114E+00  0.114E+00
  -5.886  0.112E+00  0.112E+00
  -5.876  0.109E+00  0.109E+00
  -5.866  0.106E+00  0.106E+00
  -5.856  0.103E+00  0.103E+00
  -5.846  0.101E+00  0.101E+00
  -5.836  0.979E-01  0.979E-01
  -5.826  0.950E-01  0.950E-01
  -5.816  0.922E-01  0.922E-01
  -5.806  0.894E-01  0.894E-01
  -5.796  0.865E-01  0.865E-01
  -5.786  0.837E-01  0.837E-01
  -5.776  0.808E-01  0.808E-01
  -5.766  0.780E-01  0.780E-01
  -5.756  0.752E-01  0.752E-01
  -5.746  0.724E-01  0.724E-01
  -5.736  0.697E-01  0.697E-01
  -5.726  0.669E-01  0.669E-01
  -5.716  0.642E-01  0.642E-01
  -5.706  0.615E-01  0.615E-01
  -5.696  0.588E-01  0.588E-01
  -5.686  0.562E-01  0.562E-01
  -5.676  0.536E-01  0.536E-01
  -5.666  0.511E-01  0.511E-01
  -5.656  0.486E-01  0.486E-01
  -5.646  0.462E-01  0.462E-01
  -5.636  0.438E-01  0.438E-01
  -5.626  0.414E-01  0.414E-01
  -5.616  0.391E-01  0.391E-01
  -5.606  0.368E-01  0.368E-01
  -5.596  0.346E-01  0.346E-01
  -5.586  0.325E-01  0.325E-01
  -5.576  0.304E-01  0.304E-01
  -5.566  0.284E-01  0.284E-01
  -5.556  0.264E-01  0.264E-01
  -5.546  0.245E-01  0.245E-01
  -5.536  0.227E-01  0.227E-01
  -5.526  0.209E-01  0.209E-01
  -5.516  0.192E-01  0.192E-01
  -5.506  0.175E-01  0.175E-01
  -5.496  0.159E-01  0.159E-01
  -5.486  0.144E-01  0.144E-01
  -5.476  0.129E-01  0.129E-01
  -5.466  0.115E-01  0.115E-01
  -5.456  0.101E-01  0.101E-01
  -5.446  0.883E-02  0.883E-02
  -5.436  0.761E-02  0.761E-02
  -5.426  0.645E-02  0.645E-02
  -5.416  0.534E-02  0.534E-02
  -5.406  0.430E-02  0.430E-02
  -5.396  0.332E-02  0.332E-02
  -5.386  0.240E-02  0.240E-02
  -5.376  0.154E-02  0.154E-02
  -5.366  0.735E-03  0.735E-03
  -5.356 -0.119E-04 -0.119E-04
  -5.346 -0.703E-03 -0.703E-03
  -5.336 -0.134E-02 -0.134E-02
  -5.326 -0.192E-02 -0.192E-02
  -5.316 -0.245E-02 -0.245E-02
  -5.306 -0.292E-02 -0.292E-02
  -5.296 -0.335E-02 -0.335E-02
  -5.286 -0.372E-02 -0.372E-02
  -5.276 -0.405E-02 -0.405E-02
  -5.266 -0.433E-02 -0.433E-02
  -5.256 -0.456E-02 -0.456E-02
  -5.246 -0.474E-02 -0.474E-02
  -5.236 -0.489E-02 -0.489E-02
  -5.226 -0.498E-02 -0.498E-02
  -5.216 -0.504E-02 -0.504E-02
  -5.206 -0.506E-02 -0.506E-02
  -5.196 -0.504E-02 -0.504E-02
  -5.186 -0.497E-02 -0.497E-02
  -5.176 -0.488E-02 -0.488E-02
  -5.166 -0.474E-02 -0.474E-02
  -5.156 -0.457E-02 -0.457E-02
  -5.146 -0.437E-02 -0.437E-02
  -5.136 -0.414E-02 -0.414E-02
  -5.126 -0.387E-02 -0.387E-02
  -5.116 -0.358E-02 -0.358E-02
  -5.106 -0.326E-02 -0.326E-02
  -5.096 -0.290E-02 -0.290E-02
  -5.086 -0.253E-02 -0.253E-02
  -5.076 -0.212E-02 -0.212E-02
  -5.066 -0.170E-02 -0.170E-02
  -5.056 -0.125E-02 -0.125E-02
  -5.046 -0.775E-03 -0.775E-03
  -5.036 -0.282E-03 -0.282E-03
  -5.026  0.231E-03  0.231E-03
  -5.016  0.763E-03  0.763E-03
  -5.006  0.131E-02  0.131E-02
  -4.996  0.188E-02  0.188E-02
  -4.986  0.246E-02  0.246E-02
  -4.976  0.306E-02  0.306E-02
  -4.966  0.367E-02  0.367E-02
  -4.956  0.429E-02  0.429E-02
  -4.946  0.493E-02  0.493E-02
  -4.936  0.557E-02  0.557E-02
  -4.926  0.623E-02  0.623E-02
  -4.916  0.690E-02  0.690E-02
  -4.906  0.757E-02  0.757E-02
  -4.896  0.825E-02  0.825E-02
  -4.886  0.894E-02  0.894E-02
  -4.876  0.963E-02  0.963E-02
  -4.866  0.103E-01  0.103E-01
  -4.856  0.110E-01  0.110E-01
  -4.846  0.117E-01  0.117E-01
  -4.836  0.124E-01  0.124E-01
  -4.826  0.131E-01  0.131E-01
  -4.816  0.138E-01  0.138E-01
  -4.806  0.145E-01  0.145E-01
  -4.796  0.152E-01  0.152E-01
  -4.786  0.159E-01  0.159E-01
  -4.776  0.166E-01  0.166E-01
  -4.766  0.173E-01  0.173E-01
  -4.756  0.180E-01  0.180E-01
  -4.746  0.187E-01  0.187E-01
  -4.736  0.194E-01  0.194E-01
  -4.726  0.200E-01  0.200E-01
  -4.716  0.207E-01  0.207E-01
  -4.706  0.213E-01  0.213E-01
  -4.696  0.220E-01  0.220E-01
  -4.686  0.226E-01  0.226E-01
  -4.676  0.232E-01  0.232E-01
  -4.666  0.238E-01  0.238E-01
  -4.656  0.244E-01  0.244E-01
  -4.646  0.249E-01  0.249E-01
  -4.636  0.255E-01  0.255E-01
  -4.626  0.260E-01  0.260E-01
  -4.616  0.265E-01  0.265E-01
  -4.606  0.271E-01  0.271E-01
  -4.596  0.275E-01  0.275E-01
  -4.586  0.280E-01  0.280E-01
  -4.576  0.285E-01  0.285E-01
  -4.566  0.289E-01  0.289E-01
  -4.556  0.293E-01  0.293E-01
  -4.546  0.297E-01  0.297E-01
  -4.536  0.300E-01  0.300E-01
  -4.526  0.304E-01  0.304E-01
  -4.516  0.307E-01  0.307E-01
  -4.506  0.310E-01  0.310E-01
  -4.496  0.313E-01  0.313E-01
  -4.486  0.315E-01  0.315E-01
  -4.476  0.318E-01  0.318E-01
  -4.466  0.320E-01  0.320E-01
  -4.456  0.322E-01  0.322E-01
  -4.446  0.323E-01  0.323E-01
  -4.436  0.325E-01  0.325E-01
  -4.426  0.326E-01  0.326E-01
  -4.416  0.327E-01  0.327E-01
  -4.406  0.327E-01  0.327E-01
  -4.396  0.328E-01  0.328E-01
  -4.386  0.328E-01  0.328E-01
  -4.376  0.328E-01  0.328E-01
  -4.366  0.327E-01  0.327E-01
  -4.356  0.327E-01  0.327E-01
  -4.346  0.326E-01  0.326E-01
  -4.336  0.325E-01  0.325E-01
  -4.326  0.323E-01  0.323E-01
  -4.316  0.322E-01  0.322E-01
  -4.306  0.320E-01  0.320E-01
  -4.296  0.318E-01  0.318E-01
  -4.286  0.316E-01  0.316E-01
  -4.276  0.313E-01  0.313E-01
  -4.266  0.311E-01  0.311E-01
  -4.256  0.308E-01  0.308E-01
  -4.246  0.305E-01  0.305E-01
  -4.236  0.301E-01  0.301E-01
  -4.226  0.298E-01  0.298E-01
  -4.216  0.294E-01  0.294E-01
  -4.206  0.290E-01  0.290E-01
  -4.196  0.286E-01  0.286E-01
  -4.186  0.282E-01  0.282E-01
  -4.176  0.278E-01  0.278E-01
  -4.166  0.274E-01  0.274E-01
  -4.156  0.269E-01  0.269E-01
  -4.146  0.264E-01  0.264E-01
  -4.136  0.259E-01  0.259E-01
  -4.126  0.255E-01  0.255E-01
  -4.116  0.249E-01  0.249E-01
  -4.106  0.244E-01  0.244E-01
  -4.096  0.239E-01  0.239E-01
  -4.086  0.234E-01  0.234E-01
  -4.076  0.228E-01  0.228E-01
  -4.066  0.223E-01  0.223E-01
  -4.056  0.217E-01  0.217E-01
  -4.046  0.212E-01  0.212E-01
  -4.036  0.206E-01  0.206E-01
  -4.026  0.201E-01  0.201E-01
  -4.016  0.195E-01  0.195E-01
  -4.006  0.189E-01  0.189E-01
  -3.996  0.183E-01  0.183E-01
  -3.986  0.178E-01  0.178E-01
  -3.976  0.172E-01  0.172E-01
  -3.966  0.166E-01  0.166E-01
  -3.956  0.161E-01  0.161E-01
  -3.946  0.155E-01  0.155E-01
  -3.936  0.149E-01  0.149E-01
  -3.926  0.144E-01  0.144E-01
  -3.916  0.138E-01  0.138E-01
  -3.906  0.133E-01  0.133E-01
  -3.896  0.128E-01  0.128E-01
  -3.886  0.122E-01  0.122E-01
  -3.876  0.117E-01  0.117E-01
  -3.866  0.112E-01  0.112E-01
  -3.856  0.107E-01  0.107E-01
  -3.846  0.101E-01  0.101E-01
  -3.836  0.965E-02  0.965E-02
  -3.826  0.917E-02  0.917E-02
  -3.816  0.869E-02  0.869E-02
  -3.806  0.822E-02  0.822E-02
  -3.796  0.777E-02  0.777E-02
  -3.786  0.732E-02  0.732E-02
  -3.776  0.689E-02  0.689E-02
  -3.766  0.646E-02  0.646E-02
  -3.756  0.605E-02  0.605E-02
  -3.746  0.565E-02  0.565E-02
  -3.736  0.526E-02  0.526E-02
  -3.726  0.488E-02  0.488E-02
  -3.716  0.451E-02  0.451E-02
  -3.706  0.416E-02  0.416E-02
  -3.696  0.381E-02  0.381E-02
  -3.686  0.348E-02  0.348E-02
  -3.676  0.316E-02  0.316E-02
  -3.666  0.286E-02  0.286E-02
  -3.656  0.256E-02  0.256E-02
  -3.646  0.228E-02  0.228E-02
  -3.636  0.201E-02  0.201E-02
  -3.626  0.175E-02  0.175E-02
  -3.616  0.150E-02  0.150E-02
  -3.606  0.126E-02  0.126E-02
  -3.596  0.103E-02  0.103E-02
  -3.586  0.818E-03  0.818E-03
  -3.576  0.615E-03  0.615E-03
  -3.566  0.421E-03  0.421E-03
  -3.556  0.239E-03  0.239E-03
  -3.546  0.663E-04  0.663E-04
  -3.536 -0.959E-04 -0.959E-04
  -3.526 -0.248E-03 -0.248E-03
  -3.516 -0.391E-03 -0.391E-03
  -3.506 -0.525E-03 -0.525E-03
  -3.496 -0.649E-03 -0.649E-03
  -3.486 -0.764E-03 -0.764E-03
  -3.476 -0.871E-03 -0.871E-03
  -3.466 -0.970E-03 -0.970E-03
  -3.456 -0.106E-02 -0.106E-02
  -3.446 -0.114E-02 -0.114E-02
  -3.436 -0.122E-02 -0.122E-02
  -3.426 -0.129E-02 -0.129E-02
  -3.416 -0.135E-02 -0.135E-02
  -3.406 -0.140E-02 -0.140E-02
  -3.396 -0.145E-02 -0.145E-02
  -3.386 -0.149E-02 -0.149E-02
  -3.376 -0.153E-02 -0.153E-02
  -3.366 -0.156E-02 -0.156E-02
  -3.356 -0.159E-02 -0.159E-02
  -3.346 -0.161E-02 -0.161E-02
  -3.336 -0.162E-02 -0.162E-02
  -3.326 -0.164E-02 -0.164E-02
  -3.316 -0.164E-02 -0.164E-02
  -3.306 -0.165E-02 -0.165E-02
  -3.296 -0.165E-02 -0.165E-02
  -3.286 -0.164E-02 -0.164E-02
  -3.276 -0.164E-02 -0.164E-02
  -3.266 -0.163E-02 -0.163E-02
  -3.256 -0.161E-02 -0.161E-02
  -3.246 -0.160E-02 -0.160E-02
  -3.236 -0.158E-02 -0.158E-02
  -3.226 -0.156E-02 -0.156E-02
  -3.216 -0.154E-02 -0.154E-02
  -3.206 -0.152E-02 -0.152E-02
  -3.196 -0.149E-02 -0.149E-02
  -3.186 -0.146E-02 -0.146E-02
  -3.176 -0.144E-02 -0.144E-02
  -3.166 -0.141E-02 -0.141E-02
  -3.156 -0.138E-02 -0.138E-02
  -3.146 -0.135E-02 -0.135E-02
  -3.136 -0.131E-02 -0.131E-02
  -3.126 -0.128E-02 -0.128E-02
  -3.116 -0.125E-02 -0.125E-02
  -3.106 -0.122E-02 -0.122E-02
  -3.096 -0.118E-02 -0.118E-02
  -3.086 -0.115E-02 -0.115E-02
  -3.076 -0.111E-02 -0.111E-02
  -3.066 -0.108E-02 -0.108E-02
  -3.056 -0.105E-02 -0.105E-02
  -3.046 -0.101E-02 -0.101E-02
  -3.036 -0.979E-03 -0.979E-03
  -3.026 -0.946E-03 -0.946E-03
  -3.016 -0.913E-03 -0.913E-03
  -3.006 -0.881E-03 -0.881E-03
  -2.996 -0.849E-03 -0.849E-03
  -2.986 -0.817E-03 -0.817E-03
  -2.976 -0.786E-03 -0.786E-03
  -2.966 -0.756E-03 -0.756E-03
  -2.956 -0.726E-03 -0.726E-03
  -2.946 -0.697E-03 -0.697E-03
  -2.936 -0.668E-03 -0.668E-03
  -2.926 -0.640E-03 -0.640E-03
  -2.916 -0.613E-03 -0.613E-03
  -2.906 -0.587E-03 -0.587E-03
  -2.896 -0.561E-03 -0.561E-03
  -2.886 -0.536E-03 -0.536E-03
  -2.876 -0.511E-03 -0.511E-03
  -2.866 -0.487E-03 -0.487E-03
  -2.856 -0.464E-03 -0.464E-03
  -2.846 -0.442E-03 -0.442E-03
  -2.836 -0.421E-03 -0.421E-03
  -2.826 -0.400E-03 -0.400E-03
  -2.816 -0.380E-03 -0.380E-03
  -2.806 -0.360E-03 -0.360E-03
  -2.796 -0.341E-03 -0.341E-03
  -2.786 -0.323E-03 -0.323E-03
  -2.776 -0.306E-03 -0.306E-03
  -2.766 -0.289E-03 -0.289E-03
  -2.756 -0.273E-03 -0.273E-03
  -2.746 -0.258E-03 -0.258E-03
  -2.736 -0.243E-03 -0.243E-03
  -2.726 -0.228E-03 -0.228E-03
  -2.716 -0.215E-03 -0.215E-03
  -2.706 -0.202E-03 -0.202E-03
  -2.696 -0.189E-03 -0.189E-03
  -2.686 -0.177E-03 -0.177E-03
  -2.676 -0.166E-03 -0.166E-03
  -2.666 -0.155E-03 -0.155E-03
  -2.656 -0.144E-03 -0.144E-03
  -2.646 -0.134E-03 -0.134E-03
  -2.636 -0.124E-03 -0.124E-03
  -2.626 -0.115E-03 -0.115E-03
  -2.616 -0.107E-03 -0.107E-03
  -2.606 -0.982E-04 -0.982E-04
  -2.596 -0.903E-04 -0.903E-04
  -2.586 -0.827E-04 -0.827E-04
  -2.576 -0.755E-04 -0.755E-04
  -2.566 -0.686E-04 -0.686E-04
  -2.556 -0.621E-04 -0.621E-04
  -2.546 -0.559E-04 -0.559E-04
  -2.536 -0.500E-04 -0.500E-04
  -2.526 -0.444E-04 -0.444E-04
  -2.516 -0.390E-04 -0.390E-04
  -2.506 -0.339E-04 -0.339E-04
  -2.496 -0.291E-04 -0.291E-04
  -2.486 -0.244E-04 -0.244E-04
  -2.476 -0.201E-04 -0.201E-04
  -2.466 -0.159E-04 -0.159E-04
  -2.456 -0.119E-04 -0.119E-04
  -2.446 -0.812E-05 -0.812E-05
  -2.436 -0.451E-05 -0.451E-05
  -2.426 -0.108E-05 -0.108E-05
  -2.416  0.220E-05  0.220E-05
  -2.406  0.532E-05  0.532E-05
  -2.396  0.829E-05  0.829E-05
  -2.386  0.111E-04  0.111E-04
  -2.376  0.138E-04  0.138E-04
  -2.366  0.164E-04  0.164E-04
  -2.356  0.189E-04  0.189E-04
  -2.346  0.213E-04  0.213E-04
  -2.336  0.236E-04  0.236E-04
  -2.326  0.257E-04  0.257E-04
  -2.316  0.278E-04  0.278E-04
  -2.306  0.298E-04  0.298E-04
  -2.296  0.318E-04  0.318E-04
  -2.286  0.336E-04  0.336E-04
  -2.276  0.354E-04  0.354E-04
  -2.266  0.371E-04  0.371E-04
  -2.256  0.388E-04  0.388E-04
  -2.246  0.404E-04  0.404E-04
  -2.236  0.419E-04  0.419E-04
  -2.226  0.434E-04  0.434E-04
  -2.216  0.449E-04  0.449E-04
  -2.206  0.463E-04  0.463E-04
  -2.196  0.477E-04  0.477E-04
  -2.186  0.490E-04  0.490E-04
  -2.176  0.503E-04  0.503E-04
  -2.166  0.515E-04  0.515E-04
  -2.156  0.527E-04  0.527E-04
  -2.146  0.539E-04  0.539E-04
  -2.136  0.550E-04  0.550E-04
  -2.126  0.561E-04  0.561E-04
  -2.116  0.572E-04  0.572E-04
  -2.106  0.583E-04  0.583E-04
  -2.096  0.593E-04  0.593E-04
  -2.086  0.603E-04  0.603E-04
  -2.076  0.612E-04  0.612E-04
  -2.066  0.622E-04  0.622E-04
  -2.056  0.631E-04  0.631E-04
  -2.046  0.640E-04  0.640E-04
  -2.036  0.648E-04  0.648E-04
  -2.026  0.657E-04  0.657E-04
  -2.016  0.665E-04  0.665E-04
  -2.006  0.672E-04  0.672E-04
  -1.996  0.680E-04  0.680E-04
  -1.986  0.687E-04  0.687E-04
  -1.976  0.694E-04  0.694E-04
  -1.966  0.701E-04  0.701E-04
  -1.956  0.707E-04  0.707E-04
  -1.946  0.713E-04  0.713E-04
  -1.936  0.719E-04  0.719E-04
  -1.926  0.725E-04  0.725E-04
  -1.916  0.730E-04  0.730E-04
  -1.906  0.735E-04  0.735E-04
  -1.896  0.739E-04  0.739E-04
  -1.886  0.744E-04  0.744E-04
  -1.876  0.748E-04  0.748E-04
  -1.866  0.752E-04  0.752E-04
  -1.856  0.755E-04  0.755E-04
  -1.846  0.758E-04  0.758E-04
  -1.836  0.761E-04  0.761E-04
  -1.826  0.763E-04  0.763E-04
  -1.816  0.766E-04  0.766E-04
  -1.806  0.768E-04  0.768E-04
  -1.796  0.769E-04  0.769E-04
  -1.786  0.770E-04  0.770E-04
  -1.776  0.771E-04  0.771E-04
  -1.766  0.772E-04  0.772E-04
  -1.756  0.772E-04  0.772E-04
  -1.746  0.772E-04  0.772E-04
  -1.736  0.772E-04  0.772E-04
  -1.726  0.771E-04  0.771E-04
  -1.716  0.770E-04  0.770E-04
  -1.706  0.769E-04  0.769E-04
  -1.696  0.768E-04  0.768E-04
  -1.686  0.766E-04  0.766E-04
  -1.676  0.764E-04  0.764E-04
  -1.666  0.762E-04  0.762E-04
  -1.656  0.759E-04  0.759E-04
  -1.646  0.756E-04  0.756E-04
  -1.636  0.753E-04  0.753E-04
  -1.626  0.749E-04  0.749E-04
  -1.616  0.746E-04  0.746E-04
  -1.606  0.742E-04  0.742E-04
  -1.596  0.738E-04  0.738E-04
  -1.586  0.733E-04  0.733E-04
  -1.576  0.728E-04  0.728E-04
  -1.566  0.724E-04  0.724E-04
  -1.556  0.719E-04  0.719E-04
  -1.546  0.713E-04  0.713E-04
  -1.536  0.708E-04  0.708E-04
  -1.526  0.702E-04  0.702E-04
  -1.516  0.696E-04  0.696E-04
  -1.506  0.690E-04  0.690E-04
  -1.496  0.684E-04  0.684E-04
  -1.486  0.678E-04  0.678E-04
  -1.476  0.671E-04  0.671E-04
  -1.466  0.665E-04  0.665E-04
  -1.456  0.658E-04  0.658E-04
  -1.446  0.651E-04  0.651E-04
  -1.436  0.644E-04  0.644E-04
  -1.426  0.637E-04  0.637E-04
  -1.416  0.630E-04  0.630E-04
  -1.406  0.623E-04  0.623E-04
  -1.396  0.616E-04  0.616E-04
  -1.386  0.608E-04  0.608E-04
  -1.376  0.601E-04  0.601E-04
  -1.366  0.593E-04  0.593E-04
  -1.356  0.586E-04  0.586E-04
  -1.346  0.578E-04  0.578E-04
  -1.336  0.570E-04  0.570E-04
  -1.326  0.563E-04  0.563E-04
  -1.316  0.555E-04  0.555E-04
  -1.306  0.547E-04  0.547E-04
  -1.296  0.539E-04  0.539E-04
  -1.286  0.531E-04  0.531E-04
  -1.276  0.524E-04  0.524E-04
  -1.266  0.516E-04  0.516E-04
  -1.256  0.508E-04  0.508E-04
  -1.246  0.500E-04  0.500E-04
  -1.236  0.492E-04  0.492E-04
  -1.226  0.485E-04  0.485E-04
  -1.216  0.477E-04  0.477E-04
  -1.206  0.469E-04  0.469E-04
  -1.196  0.461E-04  0.461E-04
  -1.186  0.453E-04  0.453E-04
  -1.176  0.446E-04  0.446E-04
  -1.166  0.438E-04  0.438E-04
  -1.156  0.430E-04  0.430E-04
  -1.146  0.423E-04  0.423E-04
  -1.136  0.415E-04  0.415E-04
  -1.126  0.408E-04  0.408E-04
  -1.116  0.400E-04  0.400E-04
  -1.106  0.393E-04  0.393E-04
  -1.096  0.385E-04  0.385E-04
  -1.086  0.378E-04  0.378E-04
  -1.076  0.371E-04  0.371E-04
  -1.066  0.364E-04  0.364E-04
  -1.056  0.357E-04  0.357E-04
  -1.046  0.350E-04  0.350E-04
  -1.036  0.343E-04  0.343E-04
  -1.026  0.336E-04  0.336E-04
  -1.016  0.329E-04  0.329E-04
  -1.006  0.323E-04  0.323E-04
  -0.996  0.317E-04  0.317E-04
  -0.986  0.310E-04  0.310E-04
  -0.976  0.304E-04  0.304E-04
  -0.966  0.298E-04  0.298E-04
  -0.956  0.292E-04  0.292E-04
  -0.946  0.287E-04  0.287E-04
  -0.936  0.282E-04  0.282E-04
  -0.926  0.276E-04  0.276E-04
  -0.916  0.271E-04  0.271E-04
  -0.906  0.267E-04  0.267E-04
  -0.896  0.262E-04  0.262E-04
  -0.886  0.258E-04  0.258E-04
  -0.876  0.254E-04  0.254E-04
  -0.866  0.251E-04  0.251E-04
  -0.856  0.248E-04  0.248E-04
  -0.846  0.245E-04  0.245E-04
  -0.836  0.243E-04  0.243E-04
  -0.826  0.241E-04  0.241E-04
  -0.816  0.239E-04  0.239E-04
  -0.806  0.238E-04  0.238E-04
  -0.796  0.237E-04  0.237E-04
  -0.786  0.237E-04  0.237E-04
  -0.776  0.238E-04  0.238E-04
  -0.766  0.239E-04  0.239E-04
  -0.756  0.240E-04  0.240E-04
  -0.746  0.242E-04  0.242E-04
  -0.736  0.245E-04  0.245E-04
  -0.726  0.249E-04  0.249E-04
  -0.716  0.253E-04  0.253E-04
  -0.706  0.258E-04  0.258E-04
  -0.696  0.263E-04  0.263E-04
  -0.686  0.270E-04  0.270E-04
  -0.676  0.277E-04  0.277E-04
  -0.666  0.285E-04  0.285E-04
  -0.656  0.294E-04  0.294E-04
  -0.646  0.304E-04  0.304E-04
  -0.636  0.315E-04  0.315E-04
  -0.626  0.326E-04  0.326E-04
  -0.616  0.339E-04  0.339E-04
  -0.606  0.353E-04  0.353E-04
  -0.596  0.368E-04  0.368E-04
  -0.586  0.383E-04  0.383E-04
  -0.576  0.400E-04  0.400E-04
  -0.566  0.418E-04  0.418E-04
  -0.556  0.437E-04  0.437E-04
  -0.546  0.457E-04  0.457E-04
  -0.536  0.479E-04  0.479E-04
  -0.526  0.501E-04  0.501E-04
  -0.516  0.525E-04  0.525E-04
  -0.506  0.549E-04  0.549E-04
  -0.496  0.575E-04  0.575E-04
  -0.486  0.603E-04  0.603E-04
  -0.476  0.631E-04  0.631E-04
  -0.466  0.661E-04  0.661E-04
  -0.456  0.692E-04  0.692E-04
  -0.446  0.724E-04  0.724E-04
  -0.436  0.757E-04  0.757E-04
  -0.426  0.791E-04  0.791E-04
  -0.416  0.827E-04  0.827E-04
  -0.406  0.864E-04  0.864E-04
  -0.396  0.902E-04  0.902E-04
  -0.386  0.941E-04  0.941E-04
  -0.376  0.981E-04  0.981E-04
  -0.366  0.102E-03  0.102E-03
  -0.356  0.106E-03  0.106E-03
  -0.346  0.111E-03  0.111E-03
  -0.336  0.115E-03  0.115E-03
  -0.326  0.120E-03  0.120E-03
  -0.316  0.124E-03  0.124E-03
  -0.306  0.129E-03  0.129E-03
  -0.296  0.134E-03  0.134E-03
  -0.286  0.139E-03  0.139E-03
  -0.276  0.144E-03  0.144E-03
  -0.266  0.149E-03  0.149E-03
  -0.256  0.154E-03  0.154E-03
  -0.246  0.159E-03  0.159E-03
  -0.236  0.164E-03  0.164E-03
  -0.226  0.169E-03  0.169E-03
  -0.216  0.175E-03  0.175E-03
  -0.206  0.180E-03  0.180E-03
  -0.196  0.185E-03  0.185E-03
  -0.186  0.191E-03  0.191E-03
  -0.176  0.196E-03  0.196E-03
  -0.166  0.201E-03  0.201E-03
  -0.156  0.206E-03  0.206E-03
  -0.146  0.212E-03  0.212E-03
  -0.136  0.217E-03  0.217E-03
  -0.126  0.222E-03  0.222E-03
  -0.116  0.227E-03  0.227E-03
  -0.106  0.232E-03  0.232E-03
  -0.096  0.237E-03  0.237E-03
  -0.086  0.242E-03  0.242E-03
  -0.076  0.247E-03  0.247E-03
  -0.066  0.252E-03  0.252E-03
  -0.056  0.256E-03  0.256E-03
  -0.046  0.261E-03  0.261E-03
  -0.036  0.265E-03  0.265E-03
  -0.026  0.269E-03  0.269E-03
  -0.016  0.273E-03  0.273E-03
  -0.006  0.277E-03  0.277E-03
   0.004  0.280E-03  0.280E-03
   0.014  0.284E-03  0.284E-03
   0.024  0.287E-03  0.287E-03
   0.034  0.290E-03  0.290E-03
   0.044  0.293E-03  0.293E-03
   0.054  0.295E-03  0.295E-03
   0.064  0.297E-03  0.297E-03
   0.074  0.299E-03  0.299E-03
   0.084  0.300E-03  0.300E-03
   0.094  0.302E-03  0.302E-03
   0.104  0.302E-03  0.302E-03
   0.114  0.303E-03  0.303E-03
   0.124  0.303E-03  0.303E-03
   0.134  0.303E-03  0.303E-03
   0.144  0.302E-03  0.302E-03
   0.154  0.301E-03  0.301E-03
   0.164  0.299E-03  0.299E-03
   0.174  0.297E-03  0.297E-03
   0.184  0.295E-03  0.295E-03
   0.194  0.292E-03  0.292E-03
   0.204  0.289E-03  0.289E-03
   0.214  0.285E-03  0.285E-03
   0.224  0.280E-03  0.280E-03
   0.234  0.275E-03  0.275E-03
   0.244  0.269E-03  0.269E-03
   0.254  0.263E-03  0.263E-03
   0.264  0.256E-03  0.256E-03
   0.274  0.248E-03  0.248E-03
   0.284  0.240E-03  0.240E-03
   0.294  0.231E-03  0.231E-03
   0.304  0.221E-03  0.221E-03
   0.314  0.211E-03  0.211E-03
   0.324  0.200E-03  0.200E-03
   0.334  0.188E-03  0.188E-03
   0.344  0.175E-03  0.175E-03
   0.354  0.161E-03  0.161E-03
   0.364  0.146E-03  0.146E-03
   0.374  0.131E-03  0.131E-03
   0.384  0.114E-03  0.114E-03
   0.394  0.969E-04  0.969E-04
   0.404  0.784E-04  0.784E-04
   0.414  0.589E-04  0.589E-04
   0.424  0.383E-04  0.383E-04
   0.434  0.165E-04  0.165E-04
   0.444 -0.636E-05 -0.636E-05
   0.454 -0.304E-04 -0.304E-04
   0.464 -0.558E-04 -0.558E-04
   0.474 -0.823E-04 -0.823E-04
   0.484 -0.110E-03 -0.110E-03
   0.494 -0.140E-03 -0.140E-03
   0.504 -0.170E-03 -0.170E-03
   0.514 -0.202E-03 -0.202E-03
   0.524 -0.236E-03 -0.236E-03
   0.534 -0.271E-03 -0.271E-03
   0.544 -0.308E-03 -0.308E-03
   0.554 -0.346E-03 -0.346E-03
   0.564 -0.386E-03 -0.386E-03
   0.574 -0.428E-03 -0.428E-03
   0.584 -0.471E-03 -0.471E-03
   0.594 -0.517E-03 -0.517E-03
   0.604 -0.564E-03 -0.564E-03
   0.614 -0.613E-03 -0.613E-03
   0.624 -0.665E-03 -0.665E-03
   0.634 -0.718E-03 -0.718E-03
   0.644 -0.773E-03 -0.773E-03
   0.654 -0.831E-03 -0.831E-03
   0.664 -0.891E-03 -0.891E-03
   0.674 -0.953E-03 -0.953E-03
   0.684 -0.102E-02 -0.102E-02
   0.694 -0.108E-02 -0.108E-02
   0.704 -0.115E-02 -0.115E-02
   0.714 -0.122E-02 -0.122E-02
   0.724 -0.130E-02 -0.130E-02
   0.734 -0.138E-02 -0.138E-02
   0.744 -0.145E-02 -0.145E-02
   0.754 -0.154E-02 -0.154E-02
   0.764 -0.162E-02 -0.162E-02
   0.774 -0.171E-02 -0.171E-02
   0.784 -0.180E-02 -0.180E-02
   0.794 -0.189E-02 -0.189E-02
   0.804 -0.199E-02 -0.199E-02
   0.814 -0.209E-02 -0.209E-02
   0.824 -0.219E-02 -0.219E-02
   0.834 -0.229E-02 -0.229E-02
   0.844 -0.240E-02 -0.240E-02
   0.854 -0.251E-02 -0.251E-02
   0.864 -0.262E-02 -0.262E-02
   0.874 -0.274E-02 -0.274E-02
   0.884 -0.286E-02 -0.286E-02
   0.894 -0.298E-02 -0.298E-02
   0.904 -0.310E-02 -0.310E-02
   0.914 -0.323E-02 -0.323E-02
   0.924 -0.336E-02 -0.336E-02
   0.934 -0.349E-02 -0.349E-02
   0.944 -0.362E-02 -0.362E-02
   0.954 -0.376E-02 -0.376E-02
   0.964 -0.390E-02 -0.390E-02
   0.974 -0.404E-02 -0.404E-02
   0.984 -0.418E-02 -0.418E-02
   0.994 -0.433E-02 -0.433E-02
   1.004 -0.447E-02 -0.447E-02
   1.014 -0.462E-02 -0.462E-02
   1.024 -0.477E-02 -0.477E-02
   1.034 -0.491E-02 -0.491E-02
   1.044 -0.506E-02 -0.506E-02
   1.054 -0.521E-02 -0.521E-02
   1.064 -0.536E-02 -0.536E-02
   1.074 -0.551E-02 -0.551E-02
   1.084 -0.566E-02 -0.566E-02
   1.094 -0.581E-02 -0.581E-02
   1.104 -0.595E-02 -0.595E-02
   1.114 -0.610E-02 -0.610E-02
   1.124 -0.624E-02 -0.624E-02
   1.134 -0.638E-02 -0.638E-02
   1.144 -0.651E-02 -0.651E-02
   1.154 -0.664E-02 -0.664E-02
   1.164 -0.677E-02 -0.677E-02
   1.174 -0.689E-02 -0.689E-02
   1.184 -0.700E-02 -0.700E-02
   1.194 -0.711E-02 -0.711E-02
   1.204 -0.721E-02 -0.721E-02
   1.214 -0.730E-02 -0.730E-02
   1.224 -0.738E-02 -0.738E-02
   1.234 -0.746E-02 -0.746E-02
   1.244 -0.752E-02 -0.752E-02
   1.254 -0.757E-02 -0.757E-02
   1.264 -0.761E-02 -0.761E-02
   1.274 -0.763E-02 -0.763E-02
   1.284 -0.764E-02 -0.764E-02
   1.294 -0.764E-02 -0.764E-02
   1.304 -0.762E-02 -0.762E-02
   1.314 -0.758E-02 -0.758E-02
   1.324 -0.752E-02 -0.752E-02
   1.334 -0.744E-02 -0.744E-02
   1.344 -0.734E-02 -0.734E-02
   1.354 -0.722E-02 -0.722E-02
   1.364 -0.708E-02 -0.708E-02
   1.374 -0.691E-02 -0.691E-02
   1.384 -0.671E-02 -0.671E-02
   1.394 -0.649E-02 -0.649E-02
   1.404 -0.624E-02 -0.624E-02
   1.414 -0.596E-02 -0.596E-02
   1.424 -0.565E-02 -0.565E-02
   1.434 -0.530E-02 -0.530E-02
   1.444 -0.492E-02 -0.492E-02
   1.454 -0.450E-02 -0.450E-02
   1.464 -0.405E-02 -0.405E-02
   1.474 -0.356E-02 -0.356E-02
   1.484 -0.303E-02 -0.303E-02
   1.494 -0.246E-02 -0.246E-02
   1.504 -0.184E-02 -0.184E-02
   1.514 -0.118E-02 -0.118E-02
   1.524 -0.478E-03 -0.478E-03
   1.534  0.274E-03  0.274E-03
   1.544  0.107E-02  0.107E-02
   1.554  0.192E-02  0.192E-02
   1.564  0.282E-02  0.282E-02
   1.574  0.377E-02  0.377E-02
   1.584  0.478E-02  0.478E-02
   1.594  0.584E-02  0.584E-02
   1.604  0.695E-02  0.695E-02
   1.614  0.813E-02  0.813E-02
   1.624  0.935E-02  0.935E-02
   1.634  0.106E-01  0.106E-01
   1.644  0.120E-01  0.120E-01
   1.654  0.134E-01  0.134E-01
   1.664  0.149E-01  0.149E-01
   1.674  0.164E-01  0.164E-01
   1.684  0.180E-01  0.180E-01
   1.694  0.196E-01  0.196E-01
   1.704  0.214E-01  0.214E-01
   1.714  0.231E-01  0.231E-01
   1.724  0.250E-01  0.250E-01
   1.734  0.269E-01  0.269E-01
   1.744  0.289E-01  0.289E-01
   1.754  0.309E-01  0.309E-01
   1.764  0.330E-01  0.330E-01
   1.774  0.352E-01  0.352E-01
   1.784  0.374E-01  0.374E-01
   1.794  0.397E-01  0.397E-01
   1.804  0.421E-01  0.421E-01
   1.814  0.445E-01  0.445E-01
   1.824  0.469E-01  0.469E-01
   1.834  0.495E-01  0.495E-01
   1.844  0.521E-01  0.521E-01
   1.854  0.547E-01  0.547E-01
   1.864  0.574E-01  0.574E-01
   1.874  0.602E-01  0.602E-01
   1.884  0.630E-01  0.630E-01
   1.894  0.658E-01  0.658E-01
   1.904  0.687E-01  0.687E-01
   1.914  0.717E-01  0.717E-01
   1.924  0.747E-01  0.747E-01
   1.934  0.777E-01  0.777E-01
   1.944  0.808E-01  0.808E-01
   1.954  0.839E-01  0.839E-01
   1.964  0.871E-01  0.871E-01
   1.974  0.902E-01  0.902E-01
   1.984  0.935E-01  0.935E-01
   1.994  0.967E-01  0.967E-01
   2.004  0.999E-01  0.999E-01
   2.014  0.103E+00  0.103E+00
   2.024  0.107E+00  0.107E+00
   2.034  0.110E+00  0.110E+00
   2.044  0.113E+00  0.113E+00
   2.054  0.116E+00  0.116E+00
   2.064  0.120E+00  0.120E+00
   2.074  0.123E+00  0.123E+00
   2.084  0.126E+00  0.126E+00
   2.094  0.130E+00  0.130E+00
   2.104  0.133E+00  0.133E+00
   2.114  0.136E+00  0.136E+00
   2.124  0.140E+00  0.140E+00
   2.134  0.143E+00  0.143E+00
   2.144  0.146E+00  0.146E+00
   2.154  0.149E+00  0.149E+00
   2.164  0.152E+00  0.152E+00
   2.174  0.155E+00  0.155E+00
   2.184  0.159E+00  0.159E+00
   2.194  0.162E+00  0.162E+00
   2.204  0.165E+00  0.165E+00
   2.214  0.167E+00  0.167E+00
   2.224  0.170E+00  0.170E+00
   2.234  0.173E+00  0.173E+00
   2.244  0.176E+00  0.176E+00
   2.254  0.179E+00  0.179E+00
   2.264  0.181E+00  0.181E+00
   2.274  0.184E+00  0.184E+00
   2.284  0.186E+00  0.186E+00
   2.294  0.189E+00  0.189E+00
   2.304  0.191E+00  0.191E+00
   2.314  0.193E+00  0.193E+00
   2.324  0.195E+00  0.195E+00
   2.334  0.197E+00  0.197E+00
   2.344  0.199E+00  0.199E+00
   2.354  0.201E+00  0.201E+00
   2.364  0.203E+00  0.203E+00
   2.374  0.205E+00  0.205E+00
   2.384  0.206E+00  0.206E+00
   2.394  0.208E+00  0.208E+00
   2.404  0.209E+00  0.209E+00
   2.414  0.211E+00  0.211E+00
   2.424  0.212E+00  0.212E+00
   2.434  0.213E+00  0.213E+00
   2.444  0.214E+00  0.214E+00
   2.454  0.215E+00  0.215E+00
   2.464  0.216E+00  0.216E+00
   2.474  0.217E+00  0.217E+00
   2.484  0.217E+00  0.217E+00
   2.494  0.218E+00  0.218E+00
   2.504  0.218E+00  0.218E+00
   2.514  0.219E+00  0.219E+00
   2.524  0.219E+00  0.219E+00
   2.534  0.219E+00  0.219E+00
   2.544  0.219E+00  0.219E+00
   2.554  0.219E+00  0.219E+00
   2.564  0.219E+00  0.219E+00
   2.574  0.219E+00  0.219E+00
   2.584  0.218E+00  0.218E+00
   2.594  0.218E+00  0.218E+00
   2.604  0.218E+00  0.218E+00
   2.614  0.217E+00  0.217E+00
   2.624  0.216E+00  0.216E+00
   2.634  0.216E+00  0.216E+00
   2.644  0.215E+00  0.215E+00
   2.654  0.214E+00  0.214E+00
   2.664  0.213E+00  0.213E+00
   2.674  0.212E+00  0.212E+00
   2.684  0.211E+00  0.211E+00
   2.694  0.210E+00  0.210E+00
   2.704  0.209E+00  0.209E+00
   2.714  0.207E+00  0.207E+00
   2.724  0.206E+00  0.206E+00
   2.734  0.205E+00  0.205E+00
   2.744  0.203E+00  0.203E+00
   2.754  0.202E+00  0.202E+00
   2.764  0.200E+00  0.200E+00
   2.774  0.199E+00  0.199E+00
   2.784  0.197E+00  0.197E+00
   2.794  0.195E+00  0.195E+00
   2.804  0.194E+00  0.194E+00
   2.814  0.192E+00  0.192E+00
   2.824  0.190E+00  0.190E+00
   2.834  0.188E+00  0.188E+00
   2.844  0.186E+00  0.186E+00
   2.854  0.185E+00  0.185E+00
   2.864  0.183E+00  0.183E+00
   2.874  0.181E+00  0.181E+00
   2.884  0.179E+00  0.179E+00
   2.894  0.177E+00  0.177E+00
   2.904  0.175E+00  0.175E+00
   2.914  0.173E+00  0.173E+00
   2.924  0.171E+00  0.171E+00
   2.934  0.169E+00  0.169E+00
   2.944  0.167E+00  0.167E+00
   2.954  0.165E+00  0.165E+00
   2.964  0.162E+00  0.162E+00
   2.974  0.160E+00  0.160E+00
   2.984  0.158E+00  0.158E+00
   2.994  0.156E+00  0.156E+00
   3.004  0.154E+00  0.154E+00
   3.014  0.152E+00  0.152E+00
   3.024  0.150E+00  0.150E+00
   3.034  0.148E+00  0.148E+00
   3.044  0.146E+00  0.146E+00
   3.054  0.143E+00  0.143E+00
   3.064  0.141E+00  0.141E+00
   3.074  0.139E+00  0.139E+00
   3.084  0.137E+00  0.137E+00
   3.094  0.135E+00  0.135E+00
   3.104  0.133E+00  0.133E+00
   3.114  0.130E+00  0.130E+00
   3.124  0.128E+00  0.128E+00
   3.134  0.126E+00  0.126E+00
   3.144  0.124E+00  0.124E+00
   3.154  0.122E+00  0.122E+00
   3.164  0.120E+00  0.120E+00
   3.174  0.118E+00  0.118E+00
   3.184  0.115E+00  0.115E+00
   3.194  0.113E+00  0.113E+00
   3.204  0.111E+00  0.111E+00
   3.214  0.109E+00  0.109E+00
   3.224  0.107E+00  0.107E+00
   3.234  0.105E+00  0.105E+00
   3.244  0.103E+00  0.103E+00
   3.254  0.100E+00  0.100E+00
   3.264  0.984E-01  0.984E-01
   3.274  0.963E-01  0.963E-01
   3.284  0.942E-01  0.942E-01
   3.294  0.921E-01  0.921E-01
   3.304  0.900E-01  0.900E-01
   3.314  0.879E-01  0.879E-01
   3.324  0.858E-01  0.858E-01
   3.334  0.838E-01  0.838E-01
   3.344  0.817E-01  0.817E-01
   3.354  0.797E-01  0.797E-01
   3.364  0.776E-01  0.776E-01
   3.374  0.756E-01  0.756E-01
   3.384  0.736E-01  0.736E-01
   3.394  0.716E-01  0.716E-01
   3.404  0.696E-01  0.696E-01
   3.414  0.676E-01  0.676E-01
   3.424  0.657E-01  0.657E-01
   3.434  0.637E-01  0.637E-01
   3.444  0.618E-01  0.618E-01
   3.454  0.599E-01  0.599E-01
   3.464  0.580E-01  0.580E-01
   3.474  0.561E-01  0.561E-01
   3.484  0.542E-01  0.542E-01
   3.494  0.524E-01  0.524E-01
   3.504  0.505E-01  0.505E-01
   3.514  0.487E-01  0.487E-01
   3.524  0.470E-01  0.470E-01
   3.534  0.452E-01  0.452E-01
   3.544  0.435E-01  0.435E-01
   3.554  0.418E-01  0.418E-01
   3.564  0.401E-01  0.401E-01
   3.574  0.384E-01  0.384E-01
   3.584  0.368E-01  0.368E-01
   3.594  0.352E-01  0.352E-01
   3.604  0.336E-01  0.336E-01
   3.614  0.320E-01  0.320E-01
   3.624  0.305E-01  0.305E-01
   3.634  0.290E-01  0.290E-01
   3.644  0.275E-01  0.275E-01
   3.654  0.261E-01  0.261E-01
   3.664  0.247E-01  0.247E-01
   3.674  0.233E-01  0.233E-01
   3.684  0.220E-01  0.220E-01
   3.694  0.207E-01  0.207E-01
   3.704  0.194E-01  0.194E-01
   3.714  0.181E-01  0.181E-01
   3.724  0.169E-01  0.169E-01
   3.734  0.158E-01  0.158E-01
   3.744  0.146E-01  0.146E-01
   3.754  0.135E-01  0.135E-01
   3.764  0.124E-01  0.124E-01
   3.774  0.114E-01  0.114E-01
   3.784  0.104E-01  0.104E-01
   3.794  0.940E-02  0.940E-02
   3.804  0.846E-02  0.846E-02
   3.814  0.755E-02  0.755E-02
   3.824  0.667E-02  0.667E-02
   3.834  0.583E-02  0.583E-02
   3.844  0.502E-02  0.502E-02
   3.854  0.425E-02  0.425E-02
   3.864  0.351E-02  0.351E-02
   3.874  0.280E-02  0.280E-02
   3.884  0.212E-02  0.212E-02
   3.894  0.147E-02  0.147E-02
   3.904  0.859E-03  0.859E-03
   3.914  0.275E-03  0.275E-03
   3.924 -0.280E-03 -0.280E-03
   3.934 -0.804E-03 -0.804E-03
   3.944 -0.130E-02 -0.130E-02
   3.954 -0.177E-02 -0.177E-02
   3.964 -0.220E-02 -0.220E-02
   3.974 -0.262E-02 -0.262E-02
   3.984 -0.300E-02 -0.300E-02
   3.994 -0.336E-02 -0.336E-02
   4.004 -0.369E-02 -0.369E-02
   4.014 -0.400E-02 -0.400E-02
   4.024 -0.429E-02 -0.429E-02
   4.034 -0.455E-02 -0.455E-02
   4.044 -0.479E-02 -0.479E-02
   4.054 -0.500E-02 -0.500E-02
   4.064 -0.520E-02 -0.520E-02
   4.074 -0.538E-02 -0.538E-02
   4.084 -0.553E-02 -0.553E-02
   4.094 -0.567E-02 -0.567E-02
   4.104 -0.579E-02 -0.579E-02
   4.114 -0.589E-02 -0.589E-02
   4.124 -0.598E-02 -0.598E-02
   4.134 -0.605E-02 -0.605E-02
   4.144 -0.610E-02 -0.610E-02
   4.154 -0.614E-02 -0.614E-02
   4.164 -0.617E-02 -0.617E-02
   4.174 -0.618E-02 -0.618E-02
   4.184 -0.619E-02 -0.619E-02
   4.194 -0.618E-02 -0.618E-02
   4.204 -0.616E-02 -0.616E-02
   4.214 -0.613E-02 -0.613E-02
   4.224 -0.609E-02 -0.609E-02
   4.234 -0.604E-02 -0.604E-02
   4.244 -0.598E-02 -0.598E-02
   4.254 -0.591E-02 -0.591E-02
   4.264 -0.584E-02 -0.584E-02
   4.274 -0.576E-02 -0.576E-02
   4.284 -0.568E-02 -0.568E-02
   4.294 -0.559E-02 -0.559E-02
   4.304 -0.549E-02 -0.549E-02
   4.314 -0.540E-02 -0.540E-02
   4.324 -0.529E-02 -0.529E-02
   4.334 -0.519E-02 -0.519E-02
   4.344 -0.508E-02 -0.508E-02
   4.354 -0.496E-02 -0.496E-02
   4.364 -0.485E-02 -0.485E-02
   4.374 -0.473E-02 -0.473E-02
   4.384 -0.462E-02 -0.462E-02
   4.394 -0.450E-02 -0.450E-02
   4.404 -0.438E-02 -0.438E-02
   4.414 -0.426E-02 -0.426E-02
   4.424 -0.414E-02 -0.414E-02
   4.434 -0.402E-02 -0.402E-02
   4.444 -0.390E-02 -0.390E-02
   4.454 -0.378E-02 -0.378E-02
   4.464 -0.366E-02 -0.366E-02
   4.474 -0.354E-02 -0.354E-02
   4.484 -0.342E-02 -0.342E-02
   4.494 -0.331E-02 -0.331E-02
   4.504 -0.319E-02 -0.319E-02
   4.514 -0.308E-02 -0.308E-02
   4.524 -0.297E-02 -0.297E-02
   4.534 -0.286E-02 -0.286E-02
   4.544 -0.276E-02 -0.276E-02
   4.554 -0.265E-02 -0.265E-02
   4.564 -0.255E-02 -0.255E-02
   4.574 -0.245E-02 -0.245E-02
   4.584 -0.235E-02 -0.235E-02
   4.594 -0.226E-02 -0.226E-02
   4.604 -0.216E-02 -0.216E-02
   4.614 -0.207E-02 -0.207E-02
   4.624 -0.199E-02 -0.199E-02
   4.634 -0.190E-02 -0.190E-02
   4.644 -0.182E-02 -0.182E-02
   4.654 -0.174E-02 -0.174E-02
   4.664 -0.166E-02 -0.166E-02
   4.674 -0.159E-02 -0.159E-02
   4.684 -0.151E-02 -0.151E-02
   4.694 -0.144E-02 -0.144E-02
   4.704 -0.137E-02 -0.137E-02
   4.714 -0.131E-02 -0.131E-02
   4.724 -0.125E-02 -0.125E-02
   4.734 -0.118E-02 -0.118E-02
   4.744 -0.113E-02 -0.113E-02
   4.754 -0.107E-02 -0.107E-02
   4.764 -0.102E-02 -0.102E-02
   4.774 -0.964E-03 -0.964E-03
   4.784 -0.914E-03 -0.914E-03
   4.794 -0.867E-03 -0.867E-03
   4.804 -0.821E-03 -0.821E-03
   4.814 -0.777E-03 -0.777E-03
   4.824 -0.736E-03 -0.736E-03
   4.834 -0.696E-03 -0.696E-03
   4.844 -0.658E-03 -0.658E-03
   4.854 -0.621E-03 -0.621E-03
   4.864 -0.586E-03 -0.586E-03
   4.874 -0.553E-03 -0.553E-03
   4.884 -0.522E-03 -0.522E-03
   4.894 -0.492E-03 -0.492E-03
   4.904 -0.463E-03 -0.463E-03
   4.914 -0.436E-03 -0.436E-03
   4.924 -0.411E-03 -0.411E-03
   4.934 -0.386E-03 -0.386E-03
   4.944 -0.363E-03 -0.363E-03
   4.954 -0.341E-03 -0.341E-03
   4.964 -0.320E-03 -0.320E-03
   4.974 -0.301E-03 -0.301E-03
   4.984 -0.282E-03 -0.282E-03
   4.994 -0.264E-03 -0.264E-03
   5.004 -0.248E-03 -0.248E-03
   5.014 -0.232E-03 -0.232E-03
   5.024 -0.217E-03 -0.217E-03
   5.034 -0.203E-03 -0.203E-03
   5.044 -0.190E-03 -0.190E-03
   5.054 -0.178E-03 -0.178E-03
   5.064 -0.166E-03 -0.166E-03
   5.074 -0.155E-03 -0.155E-03
   5.084 -0.145E-03 -0.145E-03
   5.094 -0.135E-03 -0.135E-03
   5.104 -0.126E-03 -0.126E-03
   5.114 -0.117E-03 -0.117E-03
   5.124 -0.109E-03 -0.109E-03
   5.134 -0.102E-03 -0.102E-03
   5.144 -0.945E-04 -0.945E-04
   5.154 -0.878E-04 -0.878E-04
   5.164 -0.816E-04 -0.816E-04
   5.174 -0.758E-04 -0.758E-04
   5.184 -0.704E-04 -0.704E-04
   5.194 -0.653E-04 -0.653E-04
   5.204 -0.606E-04 -0.606E-04
   5.214 -0.562E-04 -0.562E-04
   5.224 -0.521E-04 -0.521E-04
   5.234 -0.482E-04 -0.482E-04
   5.244 -0.446E-04 -0.446E-04
   5.254 -0.413E-04 -0.413E-04
   5.264 -0.382E-04 -0.382E-04
   5.274 -0.353E-04 -0.353E-04
   5.284 -0.326E-04 -0.326E-04
   5.294 -0.301E-04 -0.301E-04
