# E (eV)   ldos(E)   pdos(E)   
 -27.116 -0.562E-06 -0.562E-06
 -27.106 -0.606E-06 -0.606E-06
 -27.096 -0.654E-06 -0.654E-06
 -27.086 -0.705E-06 -0.705E-06
 -27.076 -0.760E-06 -0.760E-06
 -27.066 -0.819E-06 -0.819E-06
 -27.056 -0.882E-06 -0.882E-06
 -27.046 -0.949E-06 -0.949E-06
 -27.036 -0.102E-05 -0.102E-05
 -27.026 -0.110E-05 -0.110E-05
 -27.016 -0.118E-05 -0.118E-05
 -27.006 -0.127E-05 -0.127E-05
 -26.996 -0.136E-05 -0.136E-05
 -26.986 -0.146E-05 -0.146E-05
 -26.976 -0.156E-05 -0.156E-05
 -26.966 -0.167E-05 -0.167E-05
 -26.956 -0.179E-05 -0.179E-05
 -26.946 -0.192E-05 -0.192E-05
 -26.936 -0.205E-05 -0.205E-05
 -26.926 -0.220E-05 -0.220E-05
 -26.916 -0.235E-05 -0.235E-05
 -26.906 -0.251E-05 -0.251E-05
 -26.896 -0.268E-05 -0.268E-05
 -26.886 -0.286E-05 -0.286E-05
 -26.876 -0.304E-05 -0.304E-05
 -26.866 -0.324E-05 -0.324E-05
 -26.856 -0.346E-05 -0.346E-05
 -26.846 -0.368E-05 -0.368E-05
 -26.836 -0.392E-05 -0.392E-05
 -26.826 -0.416E-05 -0.416E-05
 -26.816 -0.443E-05 -0.443E-05
 -26.806 -0.470E-05 -0.470E-05
 -26.796 -0.499E-05 -0.499E-05
 -26.786 -0.529E-05 -0.529E-05
 -26.776 -0.561E-05 -0.561E-05
 -26.766 -0.595E-05 -0.595E-05
 -26.756 -0.630E-05 -0.630E-05
 -26.746 -0.667E-05 -0.667E-05
 -26.736 -0.706E-05 -0.706E-05
 -26.726 -0.746E-05 -0.746E-05
 -26.716 -0.788E-05 -0.788E-05
 -26.706 -0.833E-05 -0.833E-05
 -26.696 -0.879E-05 -0.879E-05
 -26.686 -0.927E-05 -0.927E-05
 -26.676 -0.977E-05 -0.977E-05
 -26.666 -0.103E-04 -0.103E-04
 -26.656 -0.108E-04 -0.108E-04
 -26.646 -0.114E-04 -0.114E-04
 -26.636 -0.120E-04 -0.120E-04
 -26.626 -0.126E-04 -0.126E-04
 -26.616 -0.132E-04 -0.132E-04
 -26.606 -0.139E-04 -0.139E-04
 -26.596 -0.146E-04 -0.146E-04
 -26.586 -0.153E-04 -0.153E-04
 -26.576 -0.160E-04 -0.160E-04
 -26.566 -0.167E-04 -0.167E-04
 -26.556 -0.175E-04 -0.175E-04
 -26.546 -0.183E-04 -0.183E-04
 -26.536 -0.191E-04 -0.191E-04
 -26.526 -0.199E-04 -0.199E-04
 -26.516 -0.208E-04 -0.208E-04
 -26.506 -0.217E-04 -0.217E-04
 -26.496 -0.226E-04 -0.226E-04
 -26.486 -0.235E-04 -0.235E-04
 -26.476 -0.244E-04 -0.244E-04
 -26.466 -0.254E-04 -0.254E-04
 -26.456 -0.264E-04 -0.264E-04
 -26.446 -0.274E-04 -0.274E-04
 -26.436 -0.284E-04 -0.284E-04
 -26.426 -0.294E-04 -0.294E-04
 -26.416 -0.304E-04 -0.304E-04
 -26.406 -0.315E-04 -0.315E-04
 -26.396 -0.325E-04 -0.325E-04
 -26.386 -0.336E-04 -0.336E-04
 -26.376 -0.346E-04 -0.346E-04
 -26.366 -0.357E-04 -0.357E-04
 -26.356 -0.368E-04 -0.368E-04
 -26.346 -0.378E-04 -0.378E-04
 -26.336 -0.389E-04 -0.389E-04
 -26.326 -0.399E-04 -0.399E-04
 -26.316 -0.409E-04 -0.409E-04
 -26.306 -0.419E-04 -0.419E-04
 -26.296 -0.429E-04 -0.429E-04
 -26.286 -0.439E-04 -0.439E-04
 -26.276 -0.448E-04 -0.448E-04
 -26.266 -0.457E-04 -0.457E-04
 -26.256 -0.466E-04 -0.466E-04
 -26.246 -0.474E-04 -0.474E-04
 -26.236 -0.481E-04 -0.481E-04
 -26.226 -0.488E-04 -0.488E-04
 -26.216 -0.495E-04 -0.495E-04
 -26.206 -0.501E-04 -0.501E-04
 -26.196 -0.506E-04 -0.506E-04
 -26.186 -0.510E-04 -0.510E-04
 -26.176 -0.514E-04 -0.514E-04
 -26.166 -0.517E-04 -0.517E-04
 -26.156 -0.518E-04 -0.518E-04
 -26.146 -0.519E-04 -0.519E-04
 -26.136 -0.518E-04 -0.518E-04
 -26.126 -0.517E-04 -0.517E-04
 -26.116 -0.514E-04 -0.514E-04
 -26.106 -0.509E-04 -0.509E-04
 -26.096 -0.504E-04 -0.504E-04
 -26.086 -0.496E-04 -0.496E-04
 -26.076 -0.488E-04 -0.488E-04
 -26.066 -0.477E-04 -0.477E-04
 -26.056 -0.465E-04 -0.465E-04
 -26.046 -0.451E-04 -0.451E-04
 -26.036 -0.435E-04 -0.435E-04
 -26.026 -0.417E-04 -0.417E-04
 -26.016 -0.397E-04 -0.397E-04
 -26.006 -0.375E-04 -0.375E-04
 -25.996 -0.350E-04 -0.350E-04
 -25.986 -0.323E-04 -0.323E-04
 -25.976 -0.294E-04 -0.294E-04
 -25.966 -0.262E-04 -0.262E-04
 -25.956 -0.228E-04 -0.228E-04
 -25.946 -0.191E-04 -0.191E-04
 -25.936 -0.151E-04 -0.151E-04
 -25.926 -0.109E-04 -0.109E-04
 -25.916 -0.635E-05 -0.635E-05
 -25.906 -0.151E-05 -0.151E-05
 -25.896  0.362E-05  0.362E-05
 -25.886  0.907E-05  0.907E-05
 -25.876  0.148E-04  0.148E-04
 -25.866  0.209E-04  0.209E-04
 -25.856  0.273E-04  0.273E-04
 -25.846  0.341E-04  0.341E-04
 -25.836  0.412E-04  0.412E-04
 -25.826  0.486E-04  0.486E-04
 -25.816  0.563E-04  0.563E-04
 -25.806  0.645E-04  0.645E-04
 -25.796  0.729E-04  0.729E-04
 -25.786  0.817E-04  0.817E-04
 -25.776  0.909E-04  0.909E-04
 -25.766  0.100E-03  0.100E-03
 -25.756  0.110E-03  0.110E-03
 -25.746  0.120E-03  0.120E-03
 -25.736  0.131E-03  0.131E-03
 -25.726  0.142E-03  0.142E-03
 -25.716  0.153E-03  0.153E-03
 -25.706  0.165E-03  0.165E-03
 -25.696  0.177E-03  0.177E-03
 -25.686  0.189E-03  0.189E-03
 -25.676  0.202E-03  0.202E-03
 -25.666  0.215E-03  0.215E-03
 -25.656  0.228E-03  0.228E-03
 -25.646  0.241E-03  0.241E-03
 -25.636  0.255E-03  0.255E-03
 -25.626  0.269E-03  0.269E-03
 -25.616  0.284E-03  0.284E-03
 -25.606  0.298E-03  0.298E-03
 -25.596  0.313E-03  0.313E-03
 -25.586  0.328E-03  0.328E-03
 -25.576  0.344E-03  0.344E-03
 -25.566  0.359E-03  0.359E-03
 -25.556  0.375E-03  0.375E-03
 -25.546  0.391E-03  0.391E-03
 -25.536  0.407E-03  0.407E-03
 -25.526  0.423E-03  0.423E-03
 -25.516  0.440E-03  0.440E-03
 -25.506  0.456E-03  0.456E-03
 -25.496  0.473E-03  0.473E-03
 -25.486  0.489E-03  0.489E-03
 -25.476  0.506E-03  0.506E-03
 -25.466  0.523E-03  0.523E-03
 -25.456  0.539E-03  0.539E-03
 -25.446  0.556E-03  0.556E-03
 -25.436  0.573E-03  0.573E-03
 -25.426  0.589E-03  0.589E-03
 -25.416  0.605E-03  0.605E-03
 -25.406  0.622E-03  0.622E-03
 -25.396  0.638E-03  0.638E-03
 -25.386  0.654E-03  0.654E-03
 -25.376  0.670E-03  0.670E-03
 -25.366  0.685E-03  0.685E-03
 -25.356  0.701E-03  0.701E-03
 -25.346  0.716E-03  0.716E-03
 -25.336  0.730E-03  0.730E-03
 -25.326  0.745E-03  0.745E-03
 -25.316  0.759E-03  0.759E-03
 -25.306  0.773E-03  0.773E-03
 -25.296  0.786E-03  0.786E-03
 -25.286  0.799E-03  0.799E-03
 -25.276  0.812E-03  0.812E-03
 -25.266  0.824E-03  0.824E-03
 -25.256  0.836E-03  0.836E-03
 -25.246  0.847E-03  0.847E-03
 -25.236  0.858E-03  0.858E-03
 -25.226  0.868E-03  0.868E-03
 -25.216  0.877E-03  0.877E-03
 -25.206  0.887E-03  0.887E-03
 -25.196  0.895E-03  0.895E-03
 -25.186  0.903E-03  0.903E-03
 -25.176  0.910E-03  0.910E-03
 -25.166  0.917E-03  0.917E-03
 -25.156  0.923E-03  0.923E-03
 -25.146  0.928E-03  0.928E-03
 -25.136  0.933E-03  0.933E-03
 -25.126  0.937E-03  0.937E-03
 -25.116  0.941E-03  0.941E-03
 -25.106  0.944E-03  0.944E-03
 -25.096  0.946E-03  0.946E-03
 -25.086  0.947E-03  0.947E-03
 -25.076  0.948E-03  0.948E-03
 -25.066  0.948E-03  0.948E-03
 -25.056  0.947E-03  0.947E-03
 -25.046  0.946E-03  0.946E-03
 -25.036  0.944E-03  0.944E-03
 -25.026  0.942E-03  0.942E-03
 -25.016  0.938E-03  0.938E-03
 -25.006  0.934E-03  0.934E-03
 -24.996  0.930E-03  0.930E-03
 -24.986  0.924E-03  0.924E-03
 -24.976  0.918E-03  0.918E-03
 -24.966  0.912E-03  0.912E-03
 -24.956  0.905E-03  0.905E-03
 -24.946  0.897E-03  0.897E-03
 -24.936  0.889E-03  0.889E-03
 -24.926  0.880E-03  0.880E-03
 -24.916  0.870E-03  0.870E-03
 -24.906  0.860E-03  0.860E-03
 -24.896  0.850E-03  0.850E-03
 -24.886  0.838E-03  0.838E-03
 -24.876  0.827E-03  0.827E-03
 -24.866  0.815E-03  0.815E-03
 -24.856  0.802E-03  0.802E-03
 -24.846  0.789E-03  0.789E-03
 -24.836  0.776E-03  0.776E-03
 -24.826  0.762E-03  0.762E-03
 -24.816  0.748E-03  0.748E-03
 -24.806  0.734E-03  0.734E-03
 -24.796  0.719E-03  0.719E-03
 -24.786  0.704E-03  0.704E-03
 -24.776  0.689E-03  0.689E-03
 -24.766  0.673E-03  0.673E-03
 -24.756  0.658E-03  0.658E-03
 -24.746  0.642E-03  0.642E-03
 -24.736  0.626E-03  0.626E-03
 -24.726  0.609E-03  0.609E-03
 -24.716  0.593E-03  0.593E-03
 -24.706  0.576E-03  0.576E-03
 -24.696  0.560E-03  0.560E-03
 -24.686  0.543E-03  0.543E-03
 -24.676  0.527E-03  0.527E-03
 -24.666  0.510E-03  0.510E-03
 -24.656  0.493E-03  0.493E-03
 -24.646  0.477E-03  0.477E-03
 -24.636  0.460E-03  0.460E-03
 -24.626  0.444E-03  0.444E-03
 -24.616  0.427E-03  0.427E-03
 -24.606  0.411E-03  0.411E-03
 -24.596  0.395E-03  0.395E-03
 -24.586  0.379E-03  0.379E-03
 -24.576  0.363E-03  0.363E-03
 -24.566  0.348E-03  0.348E-03
 -24.556  0.332E-03  0.332E-03
 -24.546  0.317E-03  0.317E-03
 -24.536  0.302E-03  0.302E-03
 -24.526  0.287E-03  0.287E-03
 -24.516  0.273E-03  0.273E-03
 -24.506  0.259E-03  0.259E-03
 -24.496  0.245E-03  0.245E-03
 -24.486  0.231E-03  0.231E-03
 -24.476  0.218E-03  0.218E-03
 -24.466  0.205E-03  0.205E-03
 -24.456  0.192E-03  0.192E-03
 -24.446  0.180E-03  0.180E-03
 -24.436  0.168E-03  0.168E-03
 -24.426  0.156E-03  0.156E-03
 -24.416  0.145E-03  0.145E-03
 -24.406  0.134E-03  0.134E-03
 -24.396  0.123E-03  0.123E-03
 -24.386  0.113E-03  0.113E-03
 -24.376  0.103E-03  0.103E-03
 -24.366  0.931E-04  0.931E-04
 -24.356  0.839E-04  0.839E-04
 -24.346  0.750E-04  0.750E-04
 -24.336  0.664E-04  0.664E-04
 -24.326  0.582E-04  0.582E-04
 -24.316  0.504E-04  0.504E-04
 -24.306  0.429E-04  0.429E-04
 -24.296  0.357E-04  0.357E-04
 -24.286  0.289E-04  0.289E-04
 -24.276  0.224E-04  0.224E-04
 -24.266  0.162E-04  0.162E-04
 -24.256  0.104E-04  0.104E-04
 -24.246  0.489E-05  0.489E-05
 -24.236 -0.325E-06 -0.325E-06
 -24.226 -0.523E-05 -0.523E-05
 -24.216 -0.984E-05 -0.984E-05
 -24.206 -0.142E-04 -0.142E-04
 -24.196 -0.182E-04 -0.182E-04
 -24.186 -0.220E-04 -0.220E-04
 -24.176 -0.255E-04 -0.255E-04
 -24.166 -0.287E-04 -0.287E-04
 -24.156 -0.317E-04 -0.317E-04
 -24.146 -0.344E-04 -0.344E-04
 -24.136 -0.369E-04 -0.369E-04
 -24.126 -0.392E-04 -0.392E-04
 -24.116 -0.412E-04 -0.412E-04
 -24.106 -0.431E-04 -0.431E-04
 -24.096 -0.447E-04 -0.447E-04
 -24.086 -0.462E-04 -0.462E-04
 -24.076 -0.474E-04 -0.474E-04
 -24.066 -0.485E-04 -0.485E-04
 -24.056 -0.494E-04 -0.494E-04
 -24.046 -0.502E-04 -0.502E-04
 -24.036 -0.508E-04 -0.508E-04
 -24.026 -0.513E-04 -0.513E-04
 -24.016 -0.516E-04 -0.516E-04
 -24.006 -0.518E-04 -0.518E-04
 -23.996 -0.519E-04 -0.519E-04
 -23.986 -0.518E-04 -0.518E-04
 -23.976 -0.517E-04 -0.517E-04
 -23.966 -0.515E-04 -0.515E-04
 -23.956 -0.511E-04 -0.511E-04
 -23.946 -0.507E-04 -0.507E-04
 -23.936 -0.502E-04 -0.502E-04
 -23.926 -0.496E-04 -0.496E-04
 -23.916 -0.490E-04 -0.490E-04
 -23.906 -0.483E-04 -0.483E-04
 -23.896 -0.476E-04 -0.476E-04
 -23.886 -0.468E-04 -0.468E-04
 -23.876 -0.459E-04 -0.459E-04
 -23.866 -0.450E-04 -0.450E-04
 -23.856 -0.441E-04 -0.441E-04
 -23.846 -0.431E-04 -0.431E-04
 -23.836 -0.422E-04 -0.422E-04
 -23.826 -0.412E-04 -0.412E-04
 -23.816 -0.401E-04 -0.401E-04
 -23.806 -0.391E-04 -0.391E-04
 -23.796 -0.381E-04 -0.381E-04
 -23.786 -0.370E-04 -0.370E-04
 -23.776 -0.359E-04 -0.359E-04
 -23.766 -0.349E-04 -0.349E-04
 -23.756 -0.338E-04 -0.338E-04
 -23.746 -0.328E-04 -0.328E-04
 -23.736 -0.317E-04 -0.317E-04
 -23.726 -0.307E-04 -0.307E-04
 -23.716 -0.296E-04 -0.296E-04
 -23.706 -0.286E-04 -0.286E-04
 -23.696 -0.276E-04 -0.276E-04
 -23.686 -0.266E-04 -0.266E-04
 -23.676 -0.256E-04 -0.256E-04
 -23.666 -0.247E-04 -0.247E-04
 -23.656 -0.237E-04 -0.237E-04
 -23.646 -0.228E-04 -0.228E-04
 -23.636 -0.219E-04 -0.219E-04
 -23.626 -0.210E-04 -0.210E-04
 -23.616 -0.201E-04 -0.201E-04
 -23.606 -0.193E-04 -0.193E-04
 -23.596 -0.185E-04 -0.185E-04
 -23.586 -0.177E-04 -0.177E-04
 -23.576 -0.169E-04 -0.169E-04
 -23.566 -0.162E-04 -0.162E-04
 -23.556 -0.154E-04 -0.154E-04
 -23.546 -0.147E-04 -0.147E-04
 -23.536 -0.140E-04 -0.140E-04
 -23.526 -0.134E-04 -0.134E-04
 -23.516 -0.127E-04 -0.127E-04
 -23.506 -0.121E-04 -0.121E-04
 -23.496 -0.115E-04 -0.115E-04
 -23.486 -0.110E-04 -0.110E-04
 -23.476 -0.104E-04 -0.104E-04
 -23.466 -0.989E-05 -0.989E-05
 -23.456 -0.938E-05 -0.938E-05
 -23.446 -0.890E-05 -0.890E-05
 -23.436 -0.843E-05 -0.843E-05
 -23.426 -0.799E-05 -0.799E-05
 -23.416 -0.756E-05 -0.756E-05
 -23.406 -0.715E-05 -0.715E-05
 -23.396 -0.676E-05 -0.676E-05
 -23.386 -0.639E-05 -0.639E-05
 -23.376 -0.603E-05 -0.603E-05
 -23.366 -0.569E-05 -0.569E-05
 -23.356 -0.537E-05 -0.537E-05
 -23.346 -0.506E-05 -0.506E-05
 -23.336 -0.477E-05 -0.477E-05
 -23.326 -0.449E-05 -0.449E-05
 -23.316 -0.422E-05 -0.422E-05
 -23.306 -0.397E-05 -0.397E-05
 -23.296 -0.373E-05 -0.373E-05
 -23.286 -0.351E-05 -0.351E-05
 -23.276 -0.329E-05 -0.329E-05
 -23.266 -0.309E-05 -0.309E-05
 -23.256 -0.290E-05 -0.290E-05
 -23.246 -0.272E-05 -0.272E-05
 -23.236 -0.255E-05 -0.255E-05
 -23.226 -0.238E-05 -0.238E-05
 -23.216 -0.223E-05 -0.223E-05
 -23.206 -0.209E-05 -0.209E-05
 -23.196 -0.195E-05 -0.195E-05
 -23.186 -0.182E-05 -0.182E-05
 -23.176 -0.170E-05 -0.170E-05
 -23.166 -0.159E-05 -0.159E-05
 -23.156 -0.148E-05 -0.148E-05
 -23.146 -0.138E-05 -0.138E-05
 -23.136 -0.129E-05 -0.129E-05
 -23.126 -0.120E-05 -0.120E-05
 -23.116 -0.112E-05 -0.112E-05
 -23.106 -0.104E-05 -0.104E-05
 -23.096 -0.966E-06 -0.966E-06
 -23.086 -0.898E-06 -0.898E-06
 -23.076 -0.834E-06 -0.834E-06
 -23.066 -0.774E-06 -0.774E-06
 -23.056 -0.719E-06 -0.719E-06
 -23.046 -0.667E-06 -0.667E-06
 -23.036 -0.618E-06 -0.618E-06
 -23.026 -0.573E-06 -0.573E-06
 -23.016 -0.531E-06 -0.531E-06
 -23.006 -0.491E-06 -0.491E-06
 -22.996 -0.455E-06 -0.455E-06
 -22.986 -0.421E-06 -0.421E-06
 -22.976 -0.389E-06 -0.389E-06
 -22.966 -0.360E-06 -0.360E-06
 -22.956 -0.332E-06 -0.332E-06
 -22.946 -0.307E-06 -0.307E-06
 -22.936 -0.284E-06 -0.284E-06
 -22.926 -0.262E-06 -0.262E-06
 -22.916 -0.242E-06 -0.242E-06
 -22.906 -0.223E-06 -0.223E-06
 -22.896 -0.206E-06 -0.206E-06
 -22.886 -0.191E-06 -0.191E-06
 -22.876 -0.176E-06 -0.176E-06
 -22.866 -0.163E-06 -0.163E-06
 -22.856 -0.150E-06 -0.150E-06
 -22.846 -0.139E-06 -0.139E-06
 -22.836 -0.129E-06 -0.129E-06
 -22.826 -0.120E-06 -0.120E-06
 -22.816 -0.111E-06 -0.111E-06
 -22.806 -0.104E-06 -0.104E-06
 -22.796 -0.967E-07 -0.967E-07
 -22.786 -0.906E-07 -0.906E-07
 -22.776 -0.851E-07 -0.851E-07
 -22.766 -0.803E-07 -0.803E-07
 -22.756 -0.761E-07 -0.761E-07
 -22.746 -0.726E-07 -0.726E-07
 -22.736 -0.696E-07 -0.696E-07
 -22.726 -0.672E-07 -0.672E-07
 -22.716 -0.653E-07 -0.653E-07
 -22.706 -0.640E-07 -0.640E-07
 -22.696 -0.632E-07 -0.632E-07
 -22.686 -0.629E-07 -0.629E-07
 -22.676 -0.631E-07 -0.631E-07
 -22.666 -0.639E-07 -0.639E-07
 -22.656 -0.652E-07 -0.652E-07
 -22.646 -0.670E-07 -0.670E-07
 -22.636 -0.694E-07 -0.694E-07
 -22.626 -0.724E-07 -0.724E-07
 -22.616 -0.759E-07 -0.759E-07
 -22.606 -0.801E-07 -0.801E-07
 -22.596 -0.849E-07 -0.849E-07
 -22.586 -0.904E-07 -0.904E-07
 -22.576 -0.965E-07 -0.965E-07
 -22.566 -0.103E-06 -0.103E-06
 -22.556 -0.111E-06 -0.111E-06
 -22.546 -0.120E-06 -0.120E-06
 -22.536 -0.129E-06 -0.129E-06
 -22.526 -0.139E-06 -0.139E-06
 -22.516 -0.151E-06 -0.151E-06
 -22.506 -0.163E-06 -0.163E-06
 -22.496 -0.176E-06 -0.176E-06
 -22.486 -0.191E-06 -0.191E-06
 -22.476 -0.207E-06 -0.207E-06
 -22.466 -0.224E-06 -0.224E-06
 -22.456 -0.243E-06 -0.243E-06
 -22.446 -0.264E-06 -0.264E-06
 -22.436 -0.286E-06 -0.286E-06
 -22.426 -0.309E-06 -0.309E-06
 -22.416 -0.335E-06 -0.335E-06
 -22.406 -0.363E-06 -0.363E-06
 -22.396 -0.393E-06 -0.393E-06
 -22.386 -0.425E-06 -0.425E-06
 -22.376 -0.460E-06 -0.460E-06
 -22.366 -0.498E-06 -0.498E-06
 -22.356 -0.538E-06 -0.538E-06
 -22.346 -0.581E-06 -0.581E-06
 -22.336 -0.628E-06 -0.628E-06
 -22.326 -0.677E-06 -0.677E-06
 -22.316 -0.731E-06 -0.731E-06
 -22.306 -0.788E-06 -0.788E-06
 -22.296 -0.850E-06 -0.850E-06
 -22.286 -0.915E-06 -0.915E-06
 -22.276 -0.986E-06 -0.986E-06
 -22.266 -0.106E-05 -0.106E-05
 -22.256 -0.114E-05 -0.114E-05
 -22.246 -0.123E-05 -0.123E-05
 -22.236 -0.132E-05 -0.132E-05
 -22.226 -0.142E-05 -0.142E-05
 -22.216 -0.152E-05 -0.152E-05
 -22.206 -0.163E-05 -0.163E-05
 -22.196 -0.175E-05 -0.175E-05
 -22.186 -0.188E-05 -0.188E-05
 -22.176 -0.201E-05 -0.201E-05
 -22.166 -0.215E-05 -0.215E-05
 -22.156 -0.230E-05 -0.230E-05
 -22.146 -0.246E-05 -0.246E-05
 -22.136 -0.263E-05 -0.263E-05
 -22.126 -0.281E-05 -0.281E-05
 -22.116 -0.300E-05 -0.300E-05
 -22.106 -0.320E-05 -0.320E-05
 -22.096 -0.342E-05 -0.342E-05
 -22.086 -0.364E-05 -0.364E-05
 -22.076 -0.388E-05 -0.388E-05
 -22.066 -0.413E-05 -0.413E-05
 -22.056 -0.440E-05 -0.440E-05
 -22.046 -0.468E-05 -0.468E-05
 -22.036 -0.498E-05 -0.498E-05
 -22.026 -0.529E-05 -0.529E-05
 -22.016 -0.561E-05 -0.561E-05
 -22.006 -0.596E-05 -0.596E-05
 -21.996 -0.632E-05 -0.632E-05
 -21.986 -0.670E-05 -0.670E-05
 -21.976 -0.710E-05 -0.710E-05
 -21.966 -0.752E-05 -0.752E-05
 -21.956 -0.795E-05 -0.795E-05
 -21.946 -0.841E-05 -0.841E-05
 -21.936 -0.889E-05 -0.889E-05
 -21.926 -0.939E-05 -0.939E-05
 -21.916 -0.991E-05 -0.991E-05
 -21.906 -0.105E-04 -0.105E-04
 -21.896 -0.110E-04 -0.110E-04
 -21.886 -0.116E-04 -0.116E-04
 -21.876 -0.122E-04 -0.122E-04
 -21.866 -0.129E-04 -0.129E-04
 -21.856 -0.135E-04 -0.135E-04
 -21.846 -0.142E-04 -0.142E-04
 -21.836 -0.150E-04 -0.150E-04
 -21.826 -0.157E-04 -0.157E-04
 -21.816 -0.165E-04 -0.165E-04
 -21.806 -0.173E-04 -0.173E-04
 -21.796 -0.181E-04 -0.181E-04
 -21.786 -0.190E-04 -0.190E-04
 -21.776 -0.198E-04 -0.198E-04
 -21.766 -0.207E-04 -0.207E-04
 -21.756 -0.217E-04 -0.217E-04
 -21.746 -0.226E-04 -0.226E-04
 -21.736 -0.236E-04 -0.236E-04
 -21.726 -0.246E-04 -0.246E-04
 -21.716 -0.257E-04 -0.257E-04
 -21.706 -0.267E-04 -0.267E-04
 -21.696 -0.278E-04 -0.278E-04
 -21.686 -0.289E-04 -0.289E-04
 -21.676 -0.300E-04 -0.300E-04
 -21.666 -0.312E-04 -0.312E-04
 -21.656 -0.323E-04 -0.323E-04
 -21.646 -0.335E-04 -0.335E-04
 -21.636 -0.347E-04 -0.347E-04
 -21.626 -0.359E-04 -0.359E-04
 -21.616 -0.371E-04 -0.371E-04
 -21.606 -0.384E-04 -0.384E-04
 -21.596 -0.396E-04 -0.396E-04
 -21.586 -0.408E-04 -0.408E-04
 -21.576 -0.421E-04 -0.421E-04
 -21.566 -0.433E-04 -0.433E-04
 -21.556 -0.446E-04 -0.446E-04
 -21.546 -0.458E-04 -0.458E-04
 -21.536 -0.470E-04 -0.470E-04
 -21.526 -0.482E-04 -0.482E-04
 -21.516 -0.494E-04 -0.494E-04
 -21.506 -0.505E-04 -0.505E-04
 -21.496 -0.517E-04 -0.517E-04
 -21.486 -0.528E-04 -0.528E-04
 -21.476 -0.538E-04 -0.538E-04
 -21.466 -0.548E-04 -0.548E-04
 -21.456 -0.558E-04 -0.558E-04
 -21.446 -0.567E-04 -0.567E-04
 -21.436 -0.575E-04 -0.575E-04
 -21.426 -0.583E-04 -0.583E-04
 -21.416 -0.590E-04 -0.590E-04
 -21.406 -0.596E-04 -0.596E-04
 -21.396 -0.602E-04 -0.602E-04
 -21.386 -0.606E-04 -0.606E-04
 -21.376 -0.610E-04 -0.610E-04
 -21.366 -0.612E-04 -0.612E-04
 -21.356 -0.613E-04 -0.613E-04
 -21.346 -0.613E-04 -0.613E-04
 -21.336 -0.612E-04 -0.612E-04
 -21.326 -0.609E-04 -0.609E-04
 -21.316 -0.605E-04 -0.605E-04
 -21.306 -0.599E-04 -0.599E-04
 -21.296 -0.592E-04 -0.592E-04
 -21.286 -0.583E-04 -0.583E-04
 -21.276 -0.572E-04 -0.572E-04
 -21.266 -0.559E-04 -0.559E-04
 -21.256 -0.544E-04 -0.544E-04
 -21.246 -0.528E-04 -0.528E-04
 -21.236 -0.509E-04 -0.509E-04
 -21.226 -0.488E-04 -0.488E-04
 -21.216 -0.464E-04 -0.464E-04
 -21.206 -0.439E-04 -0.439E-04
 -21.196 -0.411E-04 -0.411E-04
 -21.186 -0.380E-04 -0.380E-04
 -21.176 -0.347E-04 -0.347E-04
 -21.166 -0.311E-04 -0.311E-04
 -21.156 -0.273E-04 -0.273E-04
 -21.146 -0.232E-04 -0.232E-04
 -21.136 -0.188E-04 -0.188E-04
 -21.126 -0.141E-04 -0.141E-04
 -21.116 -0.911E-05 -0.911E-05
 -21.106 -0.385E-05 -0.385E-05
 -21.096  0.171E-05  0.171E-05
 -21.086  0.756E-05  0.756E-05
 -21.076  0.137E-04  0.137E-04
 -21.066  0.202E-04  0.202E-04
 -21.056  0.269E-04  0.269E-04
 -21.046  0.340E-04  0.340E-04
 -21.036  0.413E-04  0.413E-04
 -21.026  0.490E-04  0.490E-04
 -21.016  0.569E-04  0.569E-04
 -21.006  0.652E-04  0.652E-04
 -20.996  0.737E-04  0.737E-04
 -20.986  0.825E-04  0.825E-04
 -20.976  0.915E-04  0.915E-04
 -20.966  0.101E-03  0.101E-03
 -20.956  0.110E-03  0.110E-03
 -20.946  0.120E-03  0.120E-03
 -20.936  0.130E-03  0.130E-03
 -20.926  0.141E-03  0.141E-03
 -20.916  0.151E-03  0.151E-03
 -20.906  0.162E-03  0.162E-03
 -20.896  0.172E-03  0.172E-03
 -20.886  0.183E-03  0.183E-03
 -20.876  0.194E-03  0.194E-03
 -20.866  0.206E-03  0.206E-03
 -20.856  0.217E-03  0.217E-03
 -20.846  0.228E-03  0.228E-03
 -20.836  0.240E-03  0.240E-03
 -20.826  0.251E-03  0.251E-03
 -20.816  0.262E-03  0.262E-03
 -20.806  0.274E-03  0.274E-03
 -20.796  0.285E-03  0.285E-03
 -20.786  0.296E-03  0.296E-03
 -20.776  0.307E-03  0.307E-03
 -20.766  0.318E-03  0.318E-03
 -20.756  0.328E-03  0.328E-03
 -20.746  0.338E-03  0.338E-03
 -20.736  0.348E-03  0.348E-03
 -20.726  0.358E-03  0.358E-03
 -20.716  0.367E-03  0.367E-03
 -20.706  0.376E-03  0.376E-03
 -20.696  0.385E-03  0.385E-03
 -20.686  0.393E-03  0.393E-03
 -20.676  0.400E-03  0.400E-03
 -20.666  0.407E-03  0.407E-03
 -20.656  0.413E-03  0.413E-03
 -20.646  0.419E-03  0.419E-03
 -20.636  0.424E-03  0.424E-03
 -20.626  0.428E-03  0.428E-03
 -20.616  0.431E-03  0.431E-03
 -20.606  0.434E-03  0.434E-03
 -20.596  0.435E-03  0.435E-03
 -20.586  0.436E-03  0.436E-03
 -20.576  0.436E-03  0.436E-03
 -20.566  0.435E-03  0.435E-03
 -20.556  0.432E-03  0.432E-03
 -20.546  0.429E-03  0.429E-03
 -20.536  0.425E-03  0.425E-03
 -20.526  0.419E-03  0.419E-03
 -20.516  0.412E-03  0.412E-03
 -20.506  0.405E-03  0.405E-03
 -20.496  0.395E-03  0.395E-03
 -20.486  0.385E-03  0.385E-03
 -20.476  0.374E-03  0.374E-03
 -20.466  0.361E-03  0.361E-03
 -20.456  0.347E-03  0.347E-03
 -20.446  0.331E-03  0.331E-03
 -20.436  0.315E-03  0.315E-03
 -20.426  0.297E-03  0.297E-03
 -20.416  0.277E-03  0.277E-03
 -20.406  0.257E-03  0.257E-03
 -20.396  0.235E-03  0.235E-03
 -20.386  0.212E-03  0.212E-03
 -20.376  0.188E-03  0.188E-03
 -20.366  0.162E-03  0.162E-03
 -20.356  0.136E-03  0.136E-03
 -20.346  0.108E-03  0.108E-03
 -20.336  0.790E-04  0.790E-04
 -20.326  0.491E-04  0.491E-04
 -20.316  0.183E-04  0.183E-04
 -20.306 -0.134E-04 -0.134E-04
 -20.296 -0.459E-04 -0.459E-04
 -20.286 -0.791E-04 -0.791E-04
 -20.276 -0.113E-03 -0.113E-03
 -20.266 -0.147E-03 -0.147E-03
 -20.256 -0.182E-03 -0.182E-03
 -20.246 -0.217E-03 -0.217E-03
 -20.236 -0.253E-03 -0.253E-03
 -20.226 -0.288E-03 -0.288E-03
 -20.216 -0.324E-03 -0.324E-03
 -20.206 -0.359E-03 -0.359E-03
 -20.196 -0.393E-03 -0.393E-03
 -20.186 -0.428E-03 -0.428E-03
 -20.176 -0.461E-03 -0.461E-03
 -20.166 -0.494E-03 -0.494E-03
 -20.156 -0.526E-03 -0.526E-03
 -20.146 -0.556E-03 -0.556E-03
 -20.136 -0.585E-03 -0.585E-03
 -20.126 -0.612E-03 -0.612E-03
 -20.116 -0.637E-03 -0.637E-03
 -20.106 -0.661E-03 -0.661E-03
 -20.096 -0.682E-03 -0.682E-03
 -20.086 -0.700E-03 -0.700E-03
 -20.076 -0.715E-03 -0.715E-03
 -20.066 -0.728E-03 -0.728E-03
 -20.056 -0.737E-03 -0.737E-03
 -20.046 -0.742E-03 -0.742E-03
 -20.036 -0.744E-03 -0.744E-03
 -20.026 -0.741E-03 -0.741E-03
 -20.016 -0.734E-03 -0.734E-03
 -20.006 -0.722E-03 -0.722E-03
 -19.996 -0.705E-03 -0.705E-03
 -19.986 -0.683E-03 -0.683E-03
 -19.976 -0.655E-03 -0.655E-03
 -19.966 -0.621E-03 -0.621E-03
 -19.956 -0.581E-03 -0.581E-03
 -19.946 -0.535E-03 -0.535E-03
 -19.936 -0.482E-03 -0.482E-03
 -19.926 -0.421E-03 -0.421E-03
 -19.916 -0.354E-03 -0.354E-03
 -19.906 -0.278E-03 -0.278E-03
 -19.896 -0.195E-03 -0.195E-03
 -19.886 -0.104E-03 -0.104E-03
 -19.876 -0.363E-05 -0.363E-05
 -19.866  0.105E-03  0.105E-03
 -19.856  0.223E-03  0.223E-03
 -19.846  0.350E-03  0.350E-03
 -19.836  0.487E-03  0.487E-03
 -19.826  0.634E-03  0.634E-03
 -19.816  0.790E-03  0.790E-03
 -19.806  0.957E-03  0.957E-03
 -19.796  0.113E-02  0.113E-02
 -19.786  0.132E-02  0.132E-02
 -19.776  0.152E-02  0.152E-02
 -19.766  0.173E-02  0.173E-02
 -19.756  0.195E-02  0.195E-02
 -19.746  0.218E-02  0.218E-02
 -19.736  0.243E-02  0.243E-02
 -19.726  0.268E-02  0.268E-02
 -19.716  0.295E-02  0.295E-02
 -19.706  0.323E-02  0.323E-02
 -19.696  0.351E-02  0.351E-02
 -19.686  0.382E-02  0.382E-02
 -19.676  0.413E-02  0.413E-02
 -19.666  0.445E-02  0.445E-02
 -19.656  0.479E-02  0.479E-02
 -19.646  0.513E-02  0.513E-02
 -19.636  0.549E-02  0.549E-02
 -19.626  0.586E-02  0.586E-02
 -19.616  0.624E-02  0.624E-02
 -19.606  0.663E-02  0.663E-02
 -19.596  0.703E-02  0.703E-02
 -19.586  0.745E-02  0.745E-02
 -19.576  0.787E-02  0.787E-02
 -19.566  0.830E-02  0.830E-02
 -19.556  0.874E-02  0.874E-02
 -19.546  0.919E-02  0.919E-02
 -19.536  0.965E-02  0.965E-02
 -19.526  0.101E-01  0.101E-01
 -19.516  0.106E-01  0.106E-01
 -19.506  0.111E-01  0.111E-01
 -19.496  0.116E-01  0.116E-01
 -19.486  0.121E-01  0.121E-01
 -19.476  0.126E-01  0.126E-01
 -19.466  0.131E-01  0.131E-01
 -19.456  0.136E-01  0.136E-01
 -19.446  0.141E-01  0.141E-01
 -19.436  0.146E-01  0.146E-01
 -19.426  0.151E-01  0.151E-01
 -19.416  0.157E-01  0.157E-01
 -19.406  0.162E-01  0.162E-01
 -19.396  0.167E-01  0.167E-01
 -19.386  0.172E-01  0.172E-01
 -19.376  0.178E-01  0.178E-01
 -19.366  0.183E-01  0.183E-01
 -19.356  0.188E-01  0.188E-01
 -19.346  0.193E-01  0.193E-01
 -19.336  0.198E-01  0.198E-01
 -19.326  0.203E-01  0.203E-01
 -19.316  0.208E-01  0.208E-01
 -19.306  0.213E-01  0.213E-01
 -19.296  0.218E-01  0.218E-01
 -19.286  0.223E-01  0.223E-01
 -19.276  0.228E-01  0.228E-01
 -19.266  0.233E-01  0.233E-01
 -19.256  0.237E-01  0.237E-01
 -19.246  0.242E-01  0.242E-01
 -19.236  0.246E-01  0.246E-01
 -19.226  0.250E-01  0.250E-01
 -19.216  0.254E-01  0.254E-01
 -19.206  0.258E-01  0.258E-01
 -19.196  0.262E-01  0.262E-01
 -19.186  0.266E-01  0.266E-01
 -19.176  0.269E-01  0.269E-01
 -19.166  0.273E-01  0.273E-01
 -19.156  0.276E-01  0.276E-01
 -19.146  0.279E-01  0.279E-01
 -19.136  0.282E-01  0.282E-01
 -19.126  0.285E-01  0.285E-01
 -19.116  0.287E-01  0.287E-01
 -19.106  0.289E-01  0.289E-01
 -19.096  0.292E-01  0.292E-01
 -19.086  0.293E-01  0.293E-01
 -19.076  0.295E-01  0.295E-01
 -19.066  0.297E-01  0.297E-01
 -19.056  0.298E-01  0.298E-01
 -19.046  0.299E-01  0.299E-01
 -19.036  0.300E-01  0.300E-01
 -19.026  0.300E-01  0.300E-01
 -19.016  0.301E-01  0.301E-01
 -19.006  0.301E-01  0.301E-01
 -18.996  0.301E-01  0.301E-01
 -18.986  0.301E-01  0.301E-01
 -18.976  0.300E-01  0.300E-01
 -18.966  0.300E-01  0.300E-01
 -18.956  0.299E-01  0.299E-01
 -18.946  0.298E-01  0.298E-01
 -18.936  0.297E-01  0.297E-01
 -18.926  0.295E-01  0.295E-01
 -18.916  0.293E-01  0.293E-01
 -18.906  0.291E-01  0.291E-01
 -18.896  0.289E-01  0.289E-01
 -18.886  0.287E-01  0.287E-01
 -18.876  0.284E-01  0.284E-01
 -18.866  0.282E-01  0.282E-01
 -18.856  0.279E-01  0.279E-01
 -18.846  0.276E-01  0.276E-01
 -18.836  0.273E-01  0.273E-01
 -18.826  0.269E-01  0.269E-01
 -18.816  0.266E-01  0.266E-01
 -18.806  0.262E-01  0.262E-01
 -18.796  0.258E-01  0.258E-01
 -18.786  0.254E-01  0.254E-01
 -18.776  0.250E-01  0.250E-01
 -18.766  0.246E-01  0.246E-01
 -18.756  0.241E-01  0.241E-01
 -18.746  0.237E-01  0.237E-01
 -18.736  0.232E-01  0.232E-01
 -18.726  0.228E-01  0.228E-01
 -18.716  0.223E-01  0.223E-01
 -18.706  0.218E-01  0.218E-01
 -18.696  0.213E-01  0.213E-01
 -18.686  0.208E-01  0.208E-01
 -18.676  0.203E-01  0.203E-01
 -18.666  0.198E-01  0.198E-01
 -18.656  0.192E-01  0.192E-01
 -18.646  0.187E-01  0.187E-01
 -18.636  0.182E-01  0.182E-01
 -18.626  0.177E-01  0.177E-01
 -18.616  0.171E-01  0.171E-01
 -18.606  0.166E-01  0.166E-01
 -18.596  0.161E-01  0.161E-01
 -18.586  0.156E-01  0.156E-01
 -18.576  0.150E-01  0.150E-01
 -18.566  0.145E-01  0.145E-01
 -18.556  0.140E-01  0.140E-01
 -18.546  0.134E-01  0.134E-01
 -18.536  0.129E-01  0.129E-01
 -18.526  0.124E-01  0.124E-01
 -18.516  0.119E-01  0.119E-01
 -18.506  0.114E-01  0.114E-01
 -18.496  0.109E-01  0.109E-01
 -18.486  0.104E-01  0.104E-01
 -18.476  0.993E-02  0.993E-02
 -18.466  0.946E-02  0.946E-02
 -18.456  0.899E-02  0.899E-02
 -18.446  0.853E-02  0.853E-02
 -18.436  0.807E-02  0.807E-02
 -18.426  0.763E-02  0.763E-02
 -18.416  0.720E-02  0.720E-02
 -18.406  0.677E-02  0.677E-02
 -18.396  0.636E-02  0.636E-02
 -18.386  0.595E-02  0.595E-02
 -18.376  0.556E-02  0.556E-02
 -18.366  0.517E-02  0.517E-02
 -18.356  0.480E-02  0.480E-02
 -18.346  0.444E-02  0.444E-02
 -18.336  0.408E-02  0.408E-02
 -18.326  0.374E-02  0.374E-02
 -18.316  0.341E-02  0.341E-02
 -18.306  0.309E-02  0.309E-02
 -18.296  0.278E-02  0.278E-02
 -18.286  0.249E-02  0.249E-02
 -18.276  0.220E-02  0.220E-02
 -18.266  0.193E-02  0.193E-02
 -18.256  0.166E-02  0.166E-02
 -18.246  0.141E-02  0.141E-02
 -18.236  0.117E-02  0.117E-02
 -18.226  0.933E-03  0.933E-03
 -18.216  0.712E-03  0.712E-03
 -18.206  0.500E-03  0.500E-03
 -18.196  0.299E-03  0.299E-03
 -18.186  0.108E-03  0.108E-03
 -18.176 -0.731E-04 -0.731E-04
 -18.166 -0.245E-03 -0.245E-03
 -18.156 -0.407E-03 -0.407E-03
 -18.146 -0.560E-03 -0.560E-03
 -18.136 -0.704E-03 -0.704E-03
 -18.126 -0.840E-03 -0.840E-03
 -18.116 -0.967E-03 -0.967E-03
 -18.106 -0.109E-02 -0.109E-02
 -18.096 -0.120E-02 -0.120E-02
 -18.086 -0.130E-02 -0.130E-02
 -18.076 -0.139E-02 -0.139E-02
 -18.066 -0.148E-02 -0.148E-02
 -18.056 -0.156E-02 -0.156E-02
 -18.046 -0.164E-02 -0.164E-02
 -18.036 -0.171E-02 -0.171E-02
 -18.026 -0.177E-02 -0.177E-02
 -18.016 -0.183E-02 -0.183E-02
 -18.006 -0.188E-02 -0.188E-02
 -17.996 -0.192E-02 -0.192E-02
 -17.986 -0.196E-02 -0.196E-02
 -17.976 -0.200E-02 -0.200E-02
 -17.966 -0.203E-02 -0.203E-02
 -17.956 -0.206E-02 -0.206E-02
 -17.946 -0.208E-02 -0.208E-02
 -17.936 -0.210E-02 -0.210E-02
 -17.926 -0.212E-02 -0.212E-02
 -17.916 -0.213E-02 -0.213E-02
 -17.906 -0.214E-02 -0.214E-02
 -17.896 -0.214E-02 -0.214E-02
 -17.886 -0.215E-02 -0.215E-02
 -17.876 -0.215E-02 -0.215E-02
 -17.866 -0.215E-02 -0.215E-02
 -17.856 -0.215E-02 -0.215E-02
 -17.846 -0.214E-02 -0.214E-02
 -17.836 -0.214E-02 -0.214E-02
 -17.826 -0.213E-02 -0.213E-02
 -17.816 -0.212E-02 -0.212E-02
 -17.806 -0.212E-02 -0.212E-02
 -17.796 -0.211E-02 -0.211E-02
 -17.786 -0.209E-02 -0.209E-02
 -17.776 -0.208E-02 -0.208E-02
 -17.766 -0.207E-02 -0.207E-02
 -17.756 -0.206E-02 -0.206E-02
 -17.746 -0.205E-02 -0.205E-02
 -17.736 -0.204E-02 -0.204E-02
 -17.726 -0.202E-02 -0.202E-02
 -17.716 -0.201E-02 -0.201E-02
 -17.706 -0.200E-02 -0.200E-02
 -17.696 -0.199E-02 -0.199E-02
 -17.686 -0.198E-02 -0.198E-02
 -17.676 -0.197E-02 -0.197E-02
 -17.666 -0.196E-02 -0.196E-02
 -17.656 -0.195E-02 -0.195E-02
 -17.646 -0.195E-02 -0.195E-02
 -17.636 -0.194E-02 -0.194E-02
 -17.626 -0.193E-02 -0.193E-02
 -17.616 -0.193E-02 -0.193E-02
 -17.606 -0.193E-02 -0.193E-02
 -17.596 -0.192E-02 -0.192E-02
 -17.586 -0.192E-02 -0.192E-02
 -17.576 -0.192E-02 -0.192E-02
 -17.566 -0.192E-02 -0.192E-02
 -17.556 -0.192E-02 -0.192E-02
 -17.546 -0.193E-02 -0.193E-02
 -17.536 -0.193E-02 -0.193E-02
 -17.526 -0.193E-02 -0.193E-02
 -17.516 -0.194E-02 -0.194E-02
 -17.506 -0.195E-02 -0.195E-02
 -17.496 -0.195E-02 -0.195E-02
 -17.486 -0.196E-02 -0.196E-02
 -17.476 -0.197E-02 -0.197E-02
 -17.466 -0.198E-02 -0.198E-02
 -17.456 -0.199E-02 -0.199E-02
 -17.446 -0.200E-02 -0.200E-02
 -17.436 -0.201E-02 -0.201E-02
 -17.426 -0.202E-02 -0.202E-02
 -17.416 -0.203E-02 -0.203E-02
 -17.406 -0.204E-02 -0.204E-02
 -17.396 -0.205E-02 -0.205E-02
 -17.386 -0.206E-02 -0.206E-02
 -17.376 -0.207E-02 -0.207E-02
 -17.366 -0.208E-02 -0.208E-02
 -17.356 -0.208E-02 -0.208E-02
 -17.346 -0.209E-02 -0.209E-02
 -17.336 -0.209E-02 -0.209E-02
 -17.326 -0.209E-02 -0.209E-02
 -17.316 -0.209E-02 -0.209E-02
 -17.306 -0.209E-02 -0.209E-02
 -17.296 -0.208E-02 -0.208E-02
 -17.286 -0.208E-02 -0.208E-02
 -17.276 -0.206E-02 -0.206E-02
 -17.266 -0.205E-02 -0.205E-02
 -17.256 -0.203E-02 -0.203E-02
 -17.246 -0.200E-02 -0.200E-02
 -17.236 -0.197E-02 -0.197E-02
 -17.226 -0.193E-02 -0.193E-02
 -17.216 -0.189E-02 -0.189E-02
 -17.206 -0.184E-02 -0.184E-02
 -17.196 -0.178E-02 -0.178E-02
 -17.186 -0.172E-02 -0.172E-02
 -17.176 -0.165E-02 -0.165E-02
 -17.166 -0.157E-02 -0.157E-02
 -17.156 -0.148E-02 -0.148E-02
 -17.146 -0.138E-02 -0.138E-02
 -17.136 -0.127E-02 -0.127E-02
 -17.126 -0.115E-02 -0.115E-02
 -17.116 -0.102E-02 -0.102E-02
 -17.106 -0.875E-03 -0.875E-03
 -17.096 -0.718E-03 -0.718E-03
 -17.086 -0.548E-03 -0.548E-03
 -17.076 -0.364E-03 -0.364E-03
 -17.066 -0.165E-03 -0.165E-03
 -17.056  0.495E-04  0.495E-04
 -17.046  0.280E-03  0.280E-03
 -17.036  0.527E-03  0.527E-03
 -17.026  0.791E-03  0.791E-03
 -17.016  0.107E-02  0.107E-02
 -17.006  0.137E-02  0.137E-02
 -16.996  0.170E-02  0.170E-02
 -16.986  0.204E-02  0.204E-02
 -16.976  0.240E-02  0.240E-02
 -16.966  0.278E-02  0.278E-02
 -16.956  0.318E-02  0.318E-02
 -16.946  0.361E-02  0.361E-02
 -16.936  0.406E-02  0.406E-02
 -16.926  0.453E-02  0.453E-02
 -16.916  0.503E-02  0.503E-02
 -16.906  0.555E-02  0.555E-02
 -16.896  0.610E-02  0.610E-02
 -16.886  0.667E-02  0.667E-02
 -16.876  0.727E-02  0.727E-02
 -16.866  0.790E-02  0.790E-02
 -16.856  0.855E-02  0.855E-02
 -16.846  0.923E-02  0.923E-02
 -16.836  0.994E-02  0.994E-02
 -16.826  0.107E-01  0.107E-01
 -16.816  0.114E-01  0.114E-01
 -16.806  0.122E-01  0.122E-01
 -16.796  0.130E-01  0.130E-01
 -16.786  0.139E-01  0.139E-01
 -16.776  0.148E-01  0.148E-01
 -16.766  0.157E-01  0.157E-01
 -16.756  0.166E-01  0.166E-01
 -16.746  0.176E-01  0.176E-01
 -16.736  0.185E-01  0.185E-01
 -16.726  0.195E-01  0.195E-01
 -16.716  0.206E-01  0.206E-01
 -16.706  0.217E-01  0.217E-01
 -16.696  0.227E-01  0.227E-01
 -16.686  0.239E-01  0.239E-01
 -16.676  0.250E-01  0.250E-01
 -16.666  0.262E-01  0.262E-01
 -16.656  0.273E-01  0.273E-01
 -16.646  0.286E-01  0.286E-01
 -16.636  0.298E-01  0.298E-01
 -16.626  0.310E-01  0.310E-01
 -16.616  0.323E-01  0.323E-01
 -16.606  0.336E-01  0.336E-01
 -16.596  0.349E-01  0.349E-01
 -16.586  0.362E-01  0.362E-01
 -16.576  0.375E-01  0.375E-01
 -16.566  0.389E-01  0.389E-01
 -16.556  0.402E-01  0.402E-01
 -16.546  0.416E-01  0.416E-01
 -16.536  0.430E-01  0.430E-01
 -16.526  0.443E-01  0.443E-01
 -16.516  0.457E-01  0.457E-01
 -16.506  0.471E-01  0.471E-01
 -16.496  0.485E-01  0.485E-01
 -16.486  0.499E-01  0.499E-01
 -16.476  0.513E-01  0.513E-01
 -16.466  0.526E-01  0.526E-01
 -16.456  0.540E-01  0.540E-01
 -16.446  0.554E-01  0.554E-01
 -16.436  0.567E-01  0.567E-01
 -16.426  0.581E-01  0.581E-01
 -16.416  0.594E-01  0.594E-01
 -16.406  0.607E-01  0.607E-01
 -16.396  0.620E-01  0.620E-01
 -16.386  0.633E-01  0.633E-01
 -16.376  0.645E-01  0.645E-01
 -16.366  0.657E-01  0.657E-01
 -16.356  0.669E-01  0.669E-01
 -16.346  0.681E-01  0.681E-01
 -16.336  0.693E-01  0.693E-01
 -16.326  0.704E-01  0.704E-01
 -16.316  0.714E-01  0.714E-01
 -16.306  0.725E-01  0.725E-01
 -16.296  0.735E-01  0.735E-01
 -16.286  0.744E-01  0.744E-01
 -16.276  0.753E-01  0.753E-01
 -16.266  0.762E-01  0.762E-01
 -16.256  0.770E-01  0.770E-01
 -16.246  0.778E-01  0.778E-01
 -16.236  0.786E-01  0.786E-01
 -16.226  0.792E-01  0.792E-01
 -16.216  0.799E-01  0.799E-01
 -16.206  0.805E-01  0.805E-01
 -16.196  0.810E-01  0.810E-01
 -16.186  0.815E-01  0.815E-01
 -16.176  0.819E-01  0.819E-01
 -16.166  0.823E-01  0.823E-01
 -16.156  0.826E-01  0.826E-01
 -16.146  0.828E-01  0.828E-01
 -16.136  0.830E-01  0.830E-01
 -16.126  0.832E-01  0.832E-01
 -16.116  0.833E-01  0.833E-01
 -16.106  0.833E-01  0.833E-01
 -16.096  0.833E-01  0.833E-01
 -16.086  0.832E-01  0.832E-01
 -16.076  0.830E-01  0.830E-01
 -16.066  0.828E-01  0.828E-01
 -16.056  0.825E-01  0.825E-01
 -16.046  0.822E-01  0.822E-01
 -16.036  0.818E-01  0.818E-01
 -16.026  0.814E-01  0.814E-01
 -16.016  0.809E-01  0.809E-01
 -16.006  0.804E-01  0.804E-01
 -15.996  0.798E-01  0.798E-01
 -15.986  0.791E-01  0.791E-01
 -15.976  0.784E-01  0.784E-01
 -15.966  0.776E-01  0.776E-01
 -15.956  0.768E-01  0.768E-01
 -15.946  0.760E-01  0.760E-01
 -15.936  0.751E-01  0.751E-01
 -15.926  0.741E-01  0.741E-01
 -15.916  0.732E-01  0.732E-01
 -15.906  0.721E-01  0.721E-01
 -15.896  0.711E-01  0.711E-01
 -15.886  0.700E-01  0.700E-01
 -15.876  0.688E-01  0.688E-01
 -15.866  0.676E-01  0.676E-01
 -15.856  0.664E-01  0.664E-01
 -15.846  0.652E-01  0.652E-01
 -15.836  0.639E-01  0.639E-01
 -15.826  0.626E-01  0.626E-01
 -15.816  0.613E-01  0.613E-01
 -15.806  0.599E-01  0.599E-01
 -15.796  0.586E-01  0.586E-01
 -15.786  0.572E-01  0.572E-01
 -15.776  0.558E-01  0.558E-01
 -15.766  0.544E-01  0.544E-01
 -15.756  0.530E-01  0.530E-01
 -15.746  0.515E-01  0.515E-01
 -15.736  0.501E-01  0.501E-01
 -15.726  0.486E-01  0.486E-01
 -15.716  0.472E-01  0.472E-01
 -15.706  0.457E-01  0.457E-01
 -15.696  0.443E-01  0.443E-01
 -15.686  0.428E-01  0.428E-01
 -15.676  0.413E-01  0.413E-01
 -15.666  0.399E-01  0.399E-01
 -15.656  0.385E-01  0.385E-01
 -15.646  0.370E-01  0.370E-01
 -15.636  0.356E-01  0.356E-01
 -15.626  0.342E-01  0.342E-01
 -15.616  0.328E-01  0.328E-01
 -15.606  0.314E-01  0.314E-01
 -15.596  0.301E-01  0.301E-01
 -15.586  0.287E-01  0.287E-01
 -15.576  0.274E-01  0.274E-01
 -15.566  0.261E-01  0.261E-01
 -15.556  0.248E-01  0.248E-01
 -15.546  0.235E-01  0.235E-01
 -15.536  0.223E-01  0.223E-01
 -15.526  0.211E-01  0.211E-01
 -15.516  0.199E-01  0.199E-01
 -15.506  0.187E-01  0.187E-01
 -15.496  0.176E-01  0.176E-01
 -15.486  0.165E-01  0.165E-01
 -15.476  0.154E-01  0.154E-01
 -15.466  0.143E-01  0.143E-01
 -15.456  0.133E-01  0.133E-01
 -15.446  0.123E-01  0.123E-01
 -15.436  0.114E-01  0.114E-01
 -15.426  0.104E-01  0.104E-01
 -15.416  0.953E-02  0.953E-02
 -15.406  0.866E-02  0.866E-02
 -15.396  0.782E-02  0.782E-02
 -15.386  0.701E-02  0.701E-02
 -15.376  0.623E-02  0.623E-02
 -15.366  0.548E-02  0.548E-02
 -15.356  0.476E-02  0.476E-02
 -15.346  0.407E-02  0.407E-02
 -15.336  0.341E-02  0.341E-02
 -15.326  0.278E-02  0.278E-02
 -15.316  0.218E-02  0.218E-02
 -15.306  0.160E-02  0.160E-02
 -15.296  0.106E-02  0.106E-02
 -15.286  0.543E-03  0.543E-03
 -15.276  0.530E-04  0.530E-04
 -15.266 -0.410E-03 -0.410E-03
 -15.256 -0.847E-03 -0.847E-03
 -15.246 -0.126E-02 -0.126E-02
 -15.236 -0.165E-02 -0.165E-02
 -15.226 -0.201E-02 -0.201E-02
 -15.216 -0.235E-02 -0.235E-02
 -15.206 -0.266E-02 -0.266E-02
 -15.196 -0.296E-02 -0.296E-02
 -15.186 -0.323E-02 -0.323E-02
 -15.176 -0.348E-02 -0.348E-02
 -15.166 -0.371E-02 -0.371E-02
 -15.156 -0.393E-02 -0.393E-02
 -15.146 -0.412E-02 -0.412E-02
 -15.136 -0.430E-02 -0.430E-02
 -15.126 -0.445E-02 -0.445E-02
 -15.116 -0.460E-02 -0.460E-02
 -15.106 -0.472E-02 -0.472E-02
 -15.096 -0.484E-02 -0.484E-02
 -15.086 -0.493E-02 -0.493E-02
 -15.076 -0.502E-02 -0.502E-02
 -15.066 -0.509E-02 -0.509E-02
 -15.056 -0.515E-02 -0.515E-02
 -15.046 -0.519E-02 -0.519E-02
 -15.036 -0.523E-02 -0.523E-02
 -15.026 -0.526E-02 -0.526E-02
 -15.016 -0.527E-02 -0.527E-02
 -15.006 -0.528E-02 -0.528E-02
 -14.996 -0.528E-02 -0.528E-02
 -14.986 -0.527E-02 -0.527E-02
 -14.976 -0.525E-02 -0.525E-02
 -14.966 -0.523E-02 -0.523E-02
 -14.956 -0.520E-02 -0.520E-02
 -14.946 -0.516E-02 -0.516E-02
 -14.936 -0.512E-02 -0.512E-02
 -14.926 -0.507E-02 -0.507E-02
 -14.916 -0.502E-02 -0.502E-02
 -14.906 -0.496E-02 -0.496E-02
 -14.896 -0.490E-02 -0.490E-02
 -14.886 -0.484E-02 -0.484E-02
 -14.876 -0.477E-02 -0.477E-02
 -14.866 -0.470E-02 -0.470E-02
 -14.856 -0.463E-02 -0.463E-02
 -14.846 -0.455E-02 -0.455E-02
 -14.836 -0.448E-02 -0.448E-02
 -14.826 -0.440E-02 -0.440E-02
 -14.816 -0.431E-02 -0.431E-02
 -14.806 -0.423E-02 -0.423E-02
 -14.796 -0.415E-02 -0.415E-02
 -14.786 -0.406E-02 -0.406E-02
 -14.776 -0.397E-02 -0.397E-02
 -14.766 -0.388E-02 -0.388E-02
 -14.756 -0.379E-02 -0.379E-02
 -14.746 -0.370E-02 -0.370E-02
 -14.736 -0.360E-02 -0.360E-02
 -14.726 -0.351E-02 -0.351E-02
 -14.716 -0.341E-02 -0.341E-02
 -14.706 -0.332E-02 -0.332E-02
 -14.696 -0.322E-02 -0.322E-02
 -14.686 -0.312E-02 -0.312E-02
 -14.676 -0.302E-02 -0.302E-02
 -14.666 -0.292E-02 -0.292E-02
 -14.656 -0.281E-02 -0.281E-02
 -14.646 -0.271E-02 -0.271E-02
 -14.636 -0.260E-02 -0.260E-02
 -14.626 -0.249E-02 -0.249E-02
 -14.616 -0.238E-02 -0.238E-02
 -14.606 -0.227E-02 -0.227E-02
 -14.596 -0.215E-02 -0.215E-02
 -14.586 -0.204E-02 -0.204E-02
 -14.576 -0.192E-02 -0.192E-02
 -14.566 -0.180E-02 -0.180E-02
 -14.556 -0.167E-02 -0.167E-02
 -14.546 -0.155E-02 -0.155E-02
 -14.536 -0.142E-02 -0.142E-02
 -14.526 -0.129E-02 -0.129E-02
 -14.516 -0.115E-02 -0.115E-02
 -14.506 -0.101E-02 -0.101E-02
 -14.496 -0.868E-03 -0.868E-03
 -14.486 -0.722E-03 -0.722E-03
 -14.476 -0.572E-03 -0.572E-03
 -14.466 -0.418E-03 -0.418E-03
 -14.456 -0.261E-03 -0.261E-03
 -14.446 -0.990E-04 -0.990E-04
 -14.436  0.671E-04  0.671E-04
 -14.426  0.238E-03  0.238E-03
 -14.416  0.412E-03  0.412E-03
 -14.406  0.592E-03  0.592E-03
 -14.396  0.776E-03  0.776E-03
 -14.386  0.965E-03  0.965E-03
 -14.376  0.116E-02  0.116E-02
 -14.366  0.136E-02  0.136E-02
 -14.356  0.156E-02  0.156E-02
 -14.346  0.177E-02  0.177E-02
 -14.336  0.199E-02  0.199E-02
 -14.326  0.221E-02  0.221E-02
 -14.316  0.243E-02  0.243E-02
 -14.306  0.266E-02  0.266E-02
 -14.296  0.290E-02  0.290E-02
 -14.286  0.314E-02  0.314E-02
 -14.276  0.338E-02  0.338E-02
 -14.266  0.363E-02  0.363E-02
 -14.256  0.389E-02  0.389E-02
 -14.246  0.415E-02  0.415E-02
 -14.236  0.442E-02  0.442E-02
 -14.226  0.470E-02  0.470E-02
 -14.216  0.497E-02  0.497E-02
 -14.206  0.526E-02  0.526E-02
 -14.196  0.555E-02  0.555E-02
 -14.186  0.584E-02  0.584E-02
 -14.176  0.614E-02  0.614E-02
 -14.166  0.645E-02  0.645E-02
 -14.156  0.676E-02  0.676E-02
 -14.146  0.707E-02  0.707E-02
 -14.136  0.739E-02  0.739E-02
 -14.126  0.771E-02  0.771E-02
 -14.116  0.804E-02  0.804E-02
 -14.106  0.837E-02  0.837E-02
 -14.096  0.871E-02  0.871E-02
 -14.086  0.905E-02  0.905E-02
 -14.076  0.940E-02  0.940E-02
 -14.066  0.975E-02  0.975E-02
 -14.056  0.101E-01  0.101E-01
 -14.046  0.105E-01  0.105E-01
 -14.036  0.108E-01  0.108E-01
 -14.026  0.112E-01  0.112E-01
 -14.016  0.116E-01  0.116E-01
 -14.006  0.119E-01  0.119E-01
 -13.996  0.123E-01  0.123E-01
 -13.986  0.127E-01  0.127E-01
 -13.976  0.131E-01  0.131E-01
 -13.966  0.134E-01  0.134E-01
 -13.956  0.138E-01  0.138E-01
 -13.946  0.142E-01  0.142E-01
 -13.936  0.146E-01  0.146E-01
 -13.926  0.150E-01  0.150E-01
 -13.916  0.154E-01  0.154E-01
 -13.906  0.158E-01  0.158E-01
 -13.896  0.162E-01  0.162E-01
 -13.886  0.166E-01  0.166E-01
 -13.876  0.170E-01  0.170E-01
 -13.866  0.174E-01  0.174E-01
 -13.856  0.178E-01  0.178E-01
 -13.846  0.182E-01  0.182E-01
 -13.836  0.186E-01  0.186E-01
 -13.826  0.190E-01  0.190E-01
 -13.816  0.194E-01  0.194E-01
 -13.806  0.198E-01  0.198E-01
 -13.796  0.202E-01  0.202E-01
 -13.786  0.206E-01  0.206E-01
 -13.776  0.210E-01  0.210E-01
 -13.766  0.214E-01  0.214E-01
 -13.756  0.218E-01  0.218E-01
 -13.746  0.222E-01  0.222E-01
 -13.736  0.226E-01  0.226E-01
 -13.726  0.230E-01  0.230E-01
 -13.716  0.234E-01  0.234E-01
 -13.706  0.238E-01  0.238E-01
 -13.696  0.242E-01  0.242E-01
 -13.686  0.246E-01  0.246E-01
 -13.676  0.250E-01  0.250E-01
 -13.666  0.254E-01  0.254E-01
 -13.656  0.258E-01  0.258E-01
 -13.646  0.262E-01  0.262E-01
 -13.636  0.266E-01  0.266E-01
 -13.626  0.269E-01  0.269E-01
 -13.616  0.273E-01  0.273E-01
 -13.606  0.277E-01  0.277E-01
 -13.596  0.281E-01  0.281E-01
 -13.586  0.285E-01  0.285E-01
 -13.576  0.288E-01  0.288E-01
 -13.566  0.292E-01  0.292E-01
 -13.556  0.296E-01  0.296E-01
 -13.546  0.299E-01  0.299E-01
 -13.536  0.303E-01  0.303E-01
 -13.526  0.307E-01  0.307E-01
 -13.516  0.310E-01  0.310E-01
 -13.506  0.314E-01  0.314E-01
 -13.496  0.317E-01  0.317E-01
 -13.486  0.321E-01  0.321E-01
 -13.476  0.324E-01  0.324E-01
 -13.466  0.327E-01  0.327E-01
 -13.456  0.331E-01  0.331E-01
 -13.446  0.334E-01  0.334E-01
 -13.436  0.337E-01  0.337E-01
 -13.426  0.340E-01  0.340E-01
 -13.416  0.343E-01  0.343E-01
 -13.406  0.346E-01  0.346E-01
 -13.396  0.349E-01  0.349E-01
 -13.386  0.352E-01  0.352E-01
 -13.376  0.354E-01  0.354E-01
 -13.366  0.357E-01  0.357E-01
 -13.356  0.360E-01  0.360E-01
 -13.346  0.362E-01  0.362E-01
 -13.336  0.365E-01  0.365E-01
 -13.326  0.367E-01  0.367E-01
 -13.316  0.369E-01  0.369E-01
 -13.306  0.371E-01  0.371E-01
 -13.296  0.373E-01  0.373E-01
 -13.286  0.375E-01  0.375E-01
 -13.276  0.377E-01  0.377E-01
 -13.266  0.379E-01  0.379E-01
 -13.256  0.381E-01  0.381E-01
 -13.246  0.382E-01  0.382E-01
 -13.236  0.383E-01  0.383E-01
 -13.226  0.385E-01  0.385E-01
 -13.216  0.386E-01  0.386E-01
 -13.206  0.387E-01  0.387E-01
 -13.196  0.388E-01  0.388E-01
 -13.186  0.388E-01  0.388E-01
 -13.176  0.389E-01  0.389E-01
 -13.166  0.389E-01  0.389E-01
 -13.156  0.390E-01  0.390E-01
 -13.146  0.390E-01  0.390E-01
 -13.136  0.390E-01  0.390E-01
 -13.126  0.390E-01  0.390E-01
 -13.116  0.389E-01  0.389E-01
 -13.106  0.389E-01  0.389E-01
 -13.096  0.388E-01  0.388E-01
 -13.086  0.387E-01  0.387E-01
 -13.076  0.386E-01  0.386E-01
 -13.066  0.385E-01  0.385E-01
 -13.056  0.384E-01  0.384E-01
 -13.046  0.382E-01  0.382E-01
 -13.036  0.381E-01  0.381E-01
 -13.026  0.379E-01  0.379E-01
 -13.016  0.377E-01  0.377E-01
 -13.006  0.375E-01  0.375E-01
 -12.996  0.372E-01  0.372E-01
 -12.986  0.370E-01  0.370E-01
 -12.976  0.367E-01  0.367E-01
 -12.966  0.364E-01  0.364E-01
 -12.956  0.361E-01  0.361E-01
 -12.946  0.358E-01  0.358E-01
 -12.936  0.354E-01  0.354E-01
 -12.926  0.351E-01  0.351E-01
 -12.916  0.347E-01  0.347E-01
 -12.906  0.343E-01  0.343E-01
 -12.896  0.339E-01  0.339E-01
 -12.886  0.335E-01  0.335E-01
 -12.876  0.330E-01  0.330E-01
 -12.866  0.326E-01  0.326E-01
 -12.856  0.321E-01  0.321E-01
 -12.846  0.316E-01  0.316E-01
 -12.836  0.311E-01  0.311E-01
 -12.826  0.306E-01  0.306E-01
 -12.816  0.300E-01  0.300E-01
 -12.806  0.295E-01  0.295E-01
 -12.796  0.289E-01  0.289E-01
 -12.786  0.283E-01  0.283E-01
 -12.776  0.278E-01  0.278E-01
 -12.766  0.272E-01  0.272E-01
 -12.756  0.265E-01  0.265E-01
 -12.746  0.259E-01  0.259E-01
 -12.736  0.253E-01  0.253E-01
 -12.726  0.246E-01  0.246E-01
 -12.716  0.240E-01  0.240E-01
 -12.706  0.233E-01  0.233E-01
 -12.696  0.226E-01  0.226E-01
 -12.686  0.219E-01  0.219E-01
 -12.676  0.212E-01  0.212E-01
 -12.666  0.206E-01  0.206E-01
 -12.656  0.198E-01  0.198E-01
 -12.646  0.191E-01  0.191E-01
 -12.636  0.184E-01  0.184E-01
 -12.626  0.177E-01  0.177E-01
 -12.616  0.170E-01  0.170E-01
 -12.606  0.162E-01  0.162E-01
 -12.596  0.155E-01  0.155E-01
 -12.586  0.148E-01  0.148E-01
 -12.576  0.140E-01  0.140E-01
 -12.566  0.133E-01  0.133E-01
 -12.556  0.126E-01  0.126E-01
 -12.546  0.118E-01  0.118E-01
 -12.536  0.111E-01  0.111E-01
 -12.526  0.104E-01  0.104E-01
 -12.516  0.965E-02  0.965E-02
 -12.506  0.893E-02  0.893E-02
 -12.496  0.821E-02  0.821E-02
 -12.486  0.750E-02  0.750E-02
 -12.476  0.680E-02  0.680E-02
 -12.466  0.610E-02  0.610E-02
 -12.456  0.541E-02  0.541E-02
 -12.446  0.472E-02  0.472E-02
 -12.436  0.405E-02  0.405E-02
 -12.426  0.339E-02  0.339E-02
 -12.416  0.273E-02  0.273E-02
 -12.406  0.209E-02  0.209E-02
 -12.396  0.146E-02  0.146E-02
 -12.386  0.849E-03  0.849E-03
 -12.376  0.249E-03  0.249E-03
 -12.366 -0.337E-03 -0.337E-03
 -12.356 -0.906E-03 -0.906E-03
 -12.346 -0.146E-02 -0.146E-02
 -12.336 -0.199E-02 -0.199E-02
 -12.326 -0.251E-02 -0.251E-02
 -12.316 -0.300E-02 -0.300E-02
 -12.306 -0.348E-02 -0.348E-02
 -12.296 -0.393E-02 -0.393E-02
 -12.286 -0.436E-02 -0.436E-02
 -12.276 -0.477E-02 -0.477E-02
 -12.266 -0.515E-02 -0.515E-02
 -12.256 -0.551E-02 -0.551E-02
 -12.246 -0.584E-02 -0.584E-02
 -12.236 -0.614E-02 -0.614E-02
 -12.226 -0.641E-02 -0.641E-02
 -12.216 -0.666E-02 -0.666E-02
 -12.206 -0.687E-02 -0.687E-02
 -12.196 -0.705E-02 -0.705E-02
 -12.186 -0.720E-02 -0.720E-02
 -12.176 -0.731E-02 -0.731E-02
 -12.166 -0.739E-02 -0.739E-02
 -12.156 -0.743E-02 -0.743E-02
 -12.146 -0.744E-02 -0.744E-02
 -12.136 -0.740E-02 -0.740E-02
 -12.126 -0.733E-02 -0.733E-02
 -12.116 -0.721E-02 -0.721E-02
 -12.106 -0.706E-02 -0.706E-02
 -12.096 -0.686E-02 -0.686E-02
 -12.086 -0.662E-02 -0.662E-02
 -12.076 -0.633E-02 -0.633E-02
 -12.066 -0.599E-02 -0.599E-02
 -12.056 -0.561E-02 -0.561E-02
 -12.046 -0.518E-02 -0.518E-02
 -12.036 -0.471E-02 -0.471E-02
 -12.026 -0.418E-02 -0.418E-02
 -12.016 -0.360E-02 -0.360E-02
 -12.006 -0.297E-02 -0.297E-02
 -11.996 -0.229E-02 -0.229E-02
 -11.986 -0.155E-02 -0.155E-02
 -11.976 -0.758E-03 -0.758E-03
 -11.966  0.874E-04  0.874E-04
 -11.956  0.988E-03  0.988E-03
 -11.946  0.195E-02  0.195E-02
 -11.936  0.296E-02  0.296E-02
 -11.926  0.403E-02  0.403E-02
 -11.916  0.516E-02  0.516E-02
 -11.906  0.634E-02  0.634E-02
 -11.896  0.759E-02  0.759E-02
 -11.886  0.889E-02  0.889E-02
 -11.876  0.103E-01  0.103E-01
 -11.866  0.117E-01  0.117E-01
 -11.856  0.131E-01  0.131E-01
 -11.846  0.147E-01  0.147E-01
 -11.836  0.163E-01  0.163E-01
 -11.826  0.179E-01  0.179E-01
 -11.816  0.196E-01  0.196E-01
 -11.806  0.214E-01  0.214E-01
 -11.796  0.232E-01  0.232E-01
 -11.786  0.251E-01  0.251E-01
 -11.776  0.270E-01  0.270E-01
 -11.766  0.290E-01  0.290E-01
 -11.756  0.310E-01  0.310E-01
 -11.746  0.331E-01  0.331E-01
 -11.736  0.352E-01  0.352E-01
 -11.726  0.374E-01  0.374E-01
 -11.716  0.396E-01  0.396E-01
 -11.706  0.419E-01  0.419E-01
 -11.696  0.442E-01  0.442E-01
 -11.686  0.465E-01  0.465E-01
 -11.676  0.489E-01  0.489E-01
 -11.666  0.513E-01  0.513E-01
 -11.656  0.538E-01  0.538E-01
 -11.646  0.563E-01  0.563E-01
 -11.636  0.588E-01  0.588E-01
 -11.626  0.613E-01  0.613E-01
 -11.616  0.639E-01  0.639E-01
 -11.606  0.665E-01  0.665E-01
 -11.596  0.691E-01  0.691E-01
 -11.586  0.717E-01  0.717E-01
 -11.576  0.743E-01  0.743E-01
 -11.566  0.770E-01  0.770E-01
 -11.556  0.796E-01  0.796E-01
 -11.546  0.822E-01  0.822E-01
 -11.536  0.849E-01  0.849E-01
 -11.526  0.875E-01  0.875E-01
 -11.516  0.901E-01  0.901E-01
 -11.506  0.927E-01  0.927E-01
 -11.496  0.953E-01  0.953E-01
 -11.486  0.979E-01  0.979E-01
 -11.476  0.100E+00  0.100E+00
 -11.466  0.103E+00  0.103E+00
 -11.456  0.105E+00  0.105E+00
 -11.446  0.108E+00  0.108E+00
 -11.436  0.110E+00  0.110E+00
 -11.426  0.113E+00  0.113E+00
 -11.416  0.115E+00  0.115E+00
 -11.406  0.117E+00  0.117E+00
 -11.396  0.120E+00  0.120E+00
 -11.386  0.122E+00  0.122E+00
 -11.376  0.124E+00  0.124E+00
 -11.366  0.126E+00  0.126E+00
 -11.356  0.128E+00  0.128E+00
 -11.346  0.130E+00  0.130E+00
 -11.336  0.132E+00  0.132E+00
 -11.326  0.134E+00  0.134E+00
 -11.316  0.135E+00  0.135E+00
 -11.306  0.137E+00  0.137E+00
 -11.296  0.139E+00  0.139E+00
 -11.286  0.140E+00  0.140E+00
 -11.276  0.142E+00  0.142E+00
 -11.266  0.143E+00  0.143E+00
 -11.256  0.144E+00  0.144E+00
 -11.246  0.145E+00  0.145E+00
 -11.236  0.146E+00  0.146E+00
 -11.226  0.147E+00  0.147E+00
 -11.216  0.148E+00  0.148E+00
 -11.206  0.149E+00  0.149E+00
 -11.196  0.150E+00  0.150E+00
 -11.186  0.150E+00  0.150E+00
 -11.176  0.151E+00  0.151E+00
 -11.166  0.151E+00  0.151E+00
 -11.156  0.151E+00  0.151E+00
 -11.146  0.152E+00  0.152E+00
 -11.136  0.152E+00  0.152E+00
 -11.126  0.152E+00  0.152E+00
 -11.116  0.152E+00  0.152E+00
 -11.106  0.151E+00  0.151E+00
 -11.096  0.151E+00  0.151E+00
 -11.086  0.151E+00  0.151E+00
 -11.076  0.150E+00  0.150E+00
 -11.066  0.150E+00  0.150E+00
 -11.056  0.149E+00  0.149E+00
 -11.046  0.149E+00  0.149E+00
 -11.036  0.148E+00  0.148E+00
 -11.026  0.147E+00  0.147E+00
 -11.016  0.146E+00  0.146E+00
 -11.006  0.145E+00  0.145E+00
 -10.996  0.144E+00  0.144E+00
 -10.986  0.143E+00  0.143E+00
 -10.976  0.141E+00  0.141E+00
 -10.966  0.140E+00  0.140E+00
 -10.956  0.139E+00  0.139E+00
 -10.946  0.137E+00  0.137E+00
 -10.936  0.136E+00  0.136E+00
 -10.926  0.134E+00  0.134E+00
 -10.916  0.132E+00  0.132E+00
 -10.906  0.131E+00  0.131E+00
 -10.896  0.129E+00  0.129E+00
 -10.886  0.127E+00  0.127E+00
 -10.876  0.125E+00  0.125E+00
 -10.866  0.123E+00  0.123E+00
 -10.856  0.122E+00  0.122E+00
 -10.846  0.120E+00  0.120E+00
 -10.836  0.118E+00  0.118E+00
 -10.826  0.116E+00  0.116E+00
 -10.816  0.114E+00  0.114E+00
 -10.806  0.112E+00  0.112E+00
 -10.796  0.110E+00  0.110E+00
 -10.786  0.108E+00  0.108E+00
 -10.776  0.106E+00  0.106E+00
 -10.766  0.103E+00  0.103E+00
 -10.756  0.101E+00  0.101E+00
 -10.746  0.993E-01  0.993E-01
 -10.736  0.972E-01  0.972E-01
 -10.726  0.951E-01  0.951E-01
 -10.716  0.930E-01  0.930E-01
 -10.706  0.909E-01  0.909E-01
 -10.696  0.889E-01  0.889E-01
 -10.686  0.868E-01  0.868E-01
 -10.676  0.848E-01  0.848E-01
 -10.666  0.828E-01  0.828E-01
 -10.656  0.807E-01  0.807E-01
 -10.646  0.788E-01  0.788E-01
 -10.636  0.768E-01  0.768E-01
 -10.626  0.748E-01  0.748E-01
 -10.616  0.729E-01  0.729E-01
 -10.606  0.710E-01  0.710E-01
 -10.596  0.691E-01  0.691E-01
 -10.586  0.673E-01  0.673E-01
 -10.576  0.655E-01  0.655E-01
 -10.566  0.637E-01  0.637E-01
 -10.556  0.619E-01  0.619E-01
 -10.546  0.602E-01  0.602E-01
 -10.536  0.585E-01  0.585E-01
 -10.526  0.568E-01  0.568E-01
 -10.516  0.552E-01  0.552E-01
 -10.506  0.536E-01  0.536E-01
 -10.496  0.520E-01  0.520E-01
 -10.486  0.504E-01  0.504E-01
 -10.476  0.489E-01  0.489E-01
 -10.466  0.475E-01  0.475E-01
 -10.456  0.460E-01  0.460E-01
 -10.446  0.446E-01  0.446E-01
 -10.436  0.432E-01  0.432E-01
 -10.426  0.419E-01  0.419E-01
 -10.416  0.406E-01  0.406E-01
 -10.406  0.393E-01  0.393E-01
 -10.396  0.381E-01  0.381E-01
 -10.386  0.368E-01  0.368E-01
 -10.376  0.357E-01  0.357E-01
 -10.366  0.345E-01  0.345E-01
 -10.356  0.334E-01  0.334E-01
 -10.346  0.323E-01  0.323E-01
 -10.336  0.312E-01  0.312E-01
 -10.326  0.302E-01  0.302E-01
 -10.316  0.291E-01  0.291E-01
 -10.306  0.282E-01  0.282E-01
 -10.296  0.272E-01  0.272E-01
 -10.286  0.262E-01  0.262E-01
 -10.276  0.253E-01  0.253E-01
 -10.266  0.244E-01  0.244E-01
 -10.256  0.236E-01  0.236E-01
 -10.246  0.227E-01  0.227E-01
 -10.236  0.219E-01  0.219E-01
 -10.226  0.211E-01  0.211E-01
 -10.216  0.203E-01  0.203E-01
 -10.206  0.196E-01  0.196E-01
 -10.196  0.188E-01  0.188E-01
 -10.186  0.181E-01  0.181E-01
 -10.176  0.174E-01  0.174E-01
 -10.166  0.167E-01  0.167E-01
 -10.156  0.160E-01  0.160E-01
 -10.146  0.154E-01  0.154E-01
 -10.136  0.147E-01  0.147E-01
 -10.126  0.141E-01  0.141E-01
 -10.116  0.135E-01  0.135E-01
 -10.106  0.129E-01  0.129E-01
 -10.096  0.123E-01  0.123E-01
 -10.086  0.117E-01  0.117E-01
 -10.076  0.112E-01  0.112E-01
 -10.066  0.106E-01  0.106E-01
 -10.056  0.101E-01  0.101E-01
 -10.046  0.959E-02  0.959E-02
 -10.036  0.908E-02  0.908E-02
 -10.026  0.859E-02  0.859E-02
 -10.016  0.810E-02  0.810E-02
 -10.006  0.762E-02  0.762E-02
  -9.996  0.715E-02  0.715E-02
  -9.986  0.670E-02  0.670E-02
  -9.976  0.625E-02  0.625E-02
  -9.966  0.581E-02  0.581E-02
  -9.956  0.538E-02  0.538E-02
  -9.946  0.495E-02  0.495E-02
  -9.936  0.454E-02  0.454E-02
  -9.926  0.413E-02  0.413E-02
  -9.916  0.373E-02  0.373E-02
  -9.906  0.334E-02  0.334E-02
  -9.896  0.296E-02  0.296E-02
  -9.886  0.258E-02  0.258E-02
  -9.876  0.221E-02  0.221E-02
  -9.866  0.185E-02  0.185E-02
  -9.856  0.149E-02  0.149E-02
  -9.846  0.114E-02  0.114E-02
  -9.836  0.789E-03  0.789E-03
  -9.826  0.447E-03  0.447E-03
  -9.816  0.111E-03  0.111E-03
  -9.806 -0.219E-03 -0.219E-03
  -9.796 -0.546E-03 -0.546E-03
  -9.786 -0.867E-03 -0.867E-03
  -9.776 -0.118E-02 -0.118E-02
  -9.766 -0.150E-02 -0.150E-02
  -9.756 -0.181E-02 -0.181E-02
  -9.746 -0.211E-02 -0.211E-02
  -9.736 -0.241E-02 -0.241E-02
  -9.726 -0.271E-02 -0.271E-02
  -9.716 -0.300E-02 -0.300E-02
  -9.706 -0.330E-02 -0.330E-02
  -9.696 -0.358E-02 -0.358E-02
  -9.686 -0.387E-02 -0.387E-02
  -9.676 -0.415E-02 -0.415E-02
  -9.666 -0.443E-02 -0.443E-02
  -9.656 -0.471E-02 -0.471E-02
  -9.646 -0.498E-02 -0.498E-02
  -9.636 -0.525E-02 -0.525E-02
  -9.626 -0.552E-02 -0.552E-02
  -9.616 -0.578E-02 -0.578E-02
  -9.606 -0.604E-02 -0.604E-02
  -9.596 -0.630E-02 -0.630E-02
  -9.586 -0.655E-02 -0.655E-02
  -9.576 -0.680E-02 -0.680E-02
  -9.566 -0.704E-02 -0.704E-02
  -9.556 -0.728E-02 -0.728E-02
  -9.546 -0.752E-02 -0.752E-02
  -9.536 -0.775E-02 -0.775E-02
  -9.526 -0.797E-02 -0.797E-02
  -9.516 -0.818E-02 -0.818E-02
  -9.506 -0.839E-02 -0.839E-02
  -9.496 -0.859E-02 -0.859E-02
  -9.486 -0.878E-02 -0.878E-02
  -9.476 -0.896E-02 -0.896E-02
  -9.466 -0.912E-02 -0.912E-02
  -9.456 -0.928E-02 -0.928E-02
  -9.446 -0.942E-02 -0.942E-02
  -9.436 -0.955E-02 -0.955E-02
  -9.426 -0.966E-02 -0.966E-02
  -9.416 -0.975E-02 -0.975E-02
  -9.406 -0.983E-02 -0.983E-02
  -9.396 -0.988E-02 -0.988E-02
  -9.386 -0.991E-02 -0.991E-02
  -9.376 -0.992E-02 -0.992E-02
  -9.366 -0.991E-02 -0.991E-02
  -9.356 -0.986E-02 -0.986E-02
  -9.346 -0.979E-02 -0.979E-02
  -9.336 -0.968E-02 -0.968E-02
  -9.326 -0.954E-02 -0.954E-02
  -9.316 -0.937E-02 -0.937E-02
  -9.306 -0.916E-02 -0.916E-02
  -9.296 -0.890E-02 -0.890E-02
  -9.286 -0.861E-02 -0.861E-02
  -9.276 -0.827E-02 -0.827E-02
  -9.266 -0.788E-02 -0.788E-02
  -9.256 -0.745E-02 -0.745E-02
  -9.246 -0.696E-02 -0.696E-02
  -9.236 -0.641E-02 -0.641E-02
  -9.226 -0.581E-02 -0.581E-02
  -9.216 -0.515E-02 -0.515E-02
  -9.206 -0.442E-02 -0.442E-02
  -9.196 -0.363E-02 -0.363E-02
  -9.186 -0.277E-02 -0.277E-02
  -9.176 -0.183E-02 -0.183E-02
  -9.166 -0.825E-03 -0.825E-03
  -9.156  0.259E-03  0.259E-03
  -9.146  0.142E-02  0.142E-02
  -9.136  0.267E-02  0.267E-02
  -9.126  0.400E-02  0.400E-02
  -9.116  0.542E-02  0.542E-02
  -9.106  0.693E-02  0.693E-02
  -9.096  0.853E-02  0.853E-02
  -9.086  0.102E-01  0.102E-01
  -9.076  0.120E-01  0.120E-01
  -9.066  0.139E-01  0.139E-01
  -9.056  0.159E-01  0.159E-01
  -9.046  0.180E-01  0.180E-01
  -9.036  0.202E-01  0.202E-01
  -9.026  0.225E-01  0.225E-01
  -9.016  0.250E-01  0.250E-01
  -9.006  0.275E-01  0.275E-01
  -8.996  0.301E-01  0.301E-01
  -8.986  0.329E-01  0.329E-01
  -8.976  0.358E-01  0.358E-01
  -8.966  0.387E-01  0.387E-01
  -8.956  0.418E-01  0.418E-01
  -8.946  0.450E-01  0.450E-01
  -8.936  0.484E-01  0.484E-01
  -8.926  0.518E-01  0.518E-01
  -8.916  0.554E-01  0.554E-01
  -8.906  0.591E-01  0.591E-01
  -8.896  0.628E-01  0.628E-01
  -8.886  0.667E-01  0.667E-01
  -8.876  0.707E-01  0.707E-01
  -8.866  0.749E-01  0.749E-01
  -8.856  0.791E-01  0.791E-01
  -8.846  0.834E-01  0.834E-01
  -8.836  0.878E-01  0.878E-01
  -8.826  0.924E-01  0.924E-01
  -8.816  0.970E-01  0.970E-01
  -8.806  0.102E+00  0.102E+00
  -8.796  0.107E+00  0.107E+00
  -8.786  0.111E+00  0.111E+00
  -8.776  0.116E+00  0.116E+00
  -8.766  0.121E+00  0.121E+00
  -8.756  0.127E+00  0.127E+00
  -8.746  0.132E+00  0.132E+00
  -8.736  0.137E+00  0.137E+00
  -8.726  0.142E+00  0.142E+00
  -8.716  0.148E+00  0.148E+00
  -8.706  0.153E+00  0.153E+00
  -8.696  0.159E+00  0.159E+00
  -8.686  0.164E+00  0.164E+00
  -8.676  0.170E+00  0.170E+00
  -8.666  0.175E+00  0.175E+00
  -8.656  0.181E+00  0.181E+00
  -8.646  0.186E+00  0.186E+00
  -8.636  0.192E+00  0.192E+00
  -8.626  0.197E+00  0.197E+00
  -8.616  0.203E+00  0.203E+00
  -8.606  0.208E+00  0.208E+00
  -8.596  0.214E+00  0.214E+00
  -8.586  0.219E+00  0.219E+00
  -8.576  0.224E+00  0.224E+00
  -8.566  0.230E+00  0.230E+00
  -8.556  0.235E+00  0.235E+00
  -8.546  0.240E+00  0.240E+00
  -8.536  0.245E+00  0.245E+00
  -8.526  0.250E+00  0.250E+00
  -8.516  0.255E+00  0.255E+00
  -8.506  0.260E+00  0.260E+00
  -8.496  0.265E+00  0.265E+00
  -8.486  0.269E+00  0.269E+00
  -8.476  0.274E+00  0.274E+00
  -8.466  0.278E+00  0.278E+00
  -8.456  0.282E+00  0.282E+00
  -8.446  0.286E+00  0.286E+00
  -8.436  0.290E+00  0.290E+00
  -8.426  0.294E+00  0.294E+00
  -8.416  0.297E+00  0.297E+00
  -8.406  0.300E+00  0.300E+00
  -8.396  0.304E+00  0.304E+00
  -8.386  0.306E+00  0.306E+00
  -8.376  0.309E+00  0.309E+00
  -8.366  0.312E+00  0.312E+00
  -8.356  0.314E+00  0.314E+00
  -8.346  0.316E+00  0.316E+00
  -8.336  0.318E+00  0.318E+00
  -8.326  0.320E+00  0.320E+00
  -8.316  0.322E+00  0.322E+00
  -8.306  0.323E+00  0.323E+00
  -8.296  0.324E+00  0.324E+00
  -8.286  0.325E+00  0.325E+00
  -8.276  0.325E+00  0.325E+00
  -8.266  0.326E+00  0.326E+00
  -8.256  0.326E+00  0.326E+00
  -8.246  0.326E+00  0.326E+00
  -8.236  0.326E+00  0.326E+00
  -8.226  0.325E+00  0.325E+00
  -8.216  0.324E+00  0.324E+00
  -8.206  0.323E+00  0.323E+00
  -8.196  0.322E+00  0.322E+00
  -8.186  0.321E+00  0.321E+00
  -8.176  0.319E+00  0.319E+00
  -8.166  0.317E+00  0.317E+00
  -8.156  0.315E+00  0.315E+00
  -8.146  0.313E+00  0.313E+00
  -8.136  0.310E+00  0.310E+00
  -8.126  0.308E+00  0.308E+00
  -8.116  0.305E+00  0.305E+00
  -8.106  0.302E+00  0.302E+00
  -8.096  0.298E+00  0.298E+00
  -8.086  0.295E+00  0.295E+00
  -8.076  0.291E+00  0.291E+00
  -8.066  0.287E+00  0.287E+00
  -8.056  0.283E+00  0.283E+00
  -8.046  0.279E+00  0.279E+00
  -8.036  0.275E+00  0.275E+00
  -8.026  0.270E+00  0.270E+00
  -8.016  0.266E+00  0.266E+00
  -8.006  0.261E+00  0.261E+00
  -7.996  0.256E+00  0.256E+00
  -7.986  0.251E+00  0.251E+00
  -7.976  0.246E+00  0.246E+00
  -7.966  0.241E+00  0.241E+00
  -7.956  0.236E+00  0.236E+00
  -7.946  0.231E+00  0.231E+00
  -7.936  0.225E+00  0.225E+00
  -7.926  0.220E+00  0.220E+00
  -7.916  0.214E+00  0.214E+00
  -7.906  0.209E+00  0.209E+00
  -7.896  0.203E+00  0.203E+00
  -7.886  0.197E+00  0.197E+00
  -7.876  0.192E+00  0.192E+00
  -7.866  0.186E+00  0.186E+00
  -7.856  0.180E+00  0.180E+00
  -7.846  0.174E+00  0.174E+00
  -7.836  0.169E+00  0.169E+00
  -7.826  0.163E+00  0.163E+00
  -7.816  0.157E+00  0.157E+00
  -7.806  0.151E+00  0.151E+00
  -7.796  0.146E+00  0.146E+00
  -7.786  0.140E+00  0.140E+00
  -7.776  0.135E+00  0.135E+00
  -7.766  0.129E+00  0.129E+00
  -7.756  0.124E+00  0.124E+00
  -7.746  0.118E+00  0.118E+00
  -7.736  0.113E+00  0.113E+00
  -7.726  0.107E+00  0.107E+00
  -7.716  0.102E+00  0.102E+00
  -7.706  0.972E-01  0.972E-01
  -7.696  0.921E-01  0.921E-01
  -7.686  0.871E-01  0.871E-01
  -7.676  0.823E-01  0.823E-01
  -7.666  0.775E-01  0.775E-01
  -7.656  0.728E-01  0.728E-01
  -7.646  0.682E-01  0.682E-01
  -7.636  0.637E-01  0.637E-01
  -7.626  0.594E-01  0.594E-01
  -7.616  0.551E-01  0.551E-01
  -7.606  0.510E-01  0.510E-01
  -7.596  0.469E-01  0.469E-01
  -7.586  0.430E-01  0.430E-01
  -7.576  0.392E-01  0.392E-01
  -7.566  0.355E-01  0.355E-01
  -7.556  0.319E-01  0.319E-01
  -7.546  0.285E-01  0.285E-01
  -7.536  0.252E-01  0.252E-01
  -7.526  0.219E-01  0.219E-01
  -7.516  0.188E-01  0.188E-01
  -7.506  0.159E-01  0.159E-01
  -7.496  0.130E-01  0.130E-01
  -7.486  0.103E-01  0.103E-01
  -7.476  0.765E-02  0.765E-02
  -7.466  0.515E-02  0.515E-02
  -7.456  0.277E-02  0.277E-02
  -7.446  0.499E-03  0.499E-03
  -7.436 -0.165E-02 -0.165E-02
  -7.426 -0.369E-02 -0.369E-02
  -7.416 -0.562E-02 -0.562E-02
  -7.406 -0.743E-02 -0.743E-02
  -7.396 -0.913E-02 -0.913E-02
  -7.386 -0.107E-01 -0.107E-01
  -7.376 -0.122E-01 -0.122E-01
  -7.366 -0.136E-01 -0.136E-01
  -7.356 -0.149E-01 -0.149E-01
  -7.346 -0.160E-01 -0.160E-01
  -7.336 -0.171E-01 -0.171E-01
  -7.326 -0.181E-01 -0.181E-01
  -7.316 -0.189E-01 -0.189E-01
  -7.306 -0.197E-01 -0.197E-01
  -7.296 -0.203E-01 -0.203E-01
  -7.286 -0.209E-01 -0.209E-01
  -7.276 -0.214E-01 -0.214E-01
  -7.266 -0.218E-01 -0.218E-01
  -7.256 -0.221E-01 -0.221E-01
  -7.246 -0.222E-01 -0.222E-01
  -7.236 -0.224E-01 -0.224E-01
  -7.226 -0.224E-01 -0.224E-01
  -7.216 -0.223E-01 -0.223E-01
  -7.206 -0.221E-01 -0.221E-01
  -7.196 -0.219E-01 -0.219E-01
  -7.186 -0.215E-01 -0.215E-01
  -7.176 -0.211E-01 -0.211E-01
  -7.166 -0.206E-01 -0.206E-01
  -7.156 -0.200E-01 -0.200E-01
  -7.146 -0.194E-01 -0.194E-01
  -7.136 -0.186E-01 -0.186E-01
  -7.126 -0.178E-01 -0.178E-01
  -7.116 -0.168E-01 -0.168E-01
  -7.106 -0.158E-01 -0.158E-01
  -7.096 -0.148E-01 -0.148E-01
  -7.086 -0.136E-01 -0.136E-01
  -7.076 -0.123E-01 -0.123E-01
  -7.066 -0.110E-01 -0.110E-01
  -7.056 -0.959E-02 -0.959E-02
  -7.046 -0.809E-02 -0.809E-02
  -7.036 -0.652E-02 -0.652E-02
  -7.026 -0.486E-02 -0.486E-02
  -7.016 -0.313E-02 -0.313E-02
  -7.006 -0.131E-02 -0.131E-02
  -6.996  0.588E-03  0.588E-03
  -6.986  0.257E-02  0.257E-02
  -6.976  0.463E-02  0.463E-02
  -6.966  0.677E-02  0.677E-02
  -6.956  0.898E-02  0.898E-02
  -6.946  0.113E-01  0.113E-01
  -6.936  0.137E-01  0.137E-01
  -6.926  0.161E-01  0.161E-01
  -6.916  0.187E-01  0.187E-01
  -6.906  0.213E-01  0.213E-01
  -6.896  0.240E-01  0.240E-01
  -6.886  0.267E-01  0.267E-01
  -6.876  0.296E-01  0.296E-01
  -6.866  0.325E-01  0.325E-01
  -6.856  0.355E-01  0.355E-01
  -6.846  0.385E-01  0.385E-01
  -6.836  0.417E-01  0.417E-01
  -6.826  0.449E-01  0.449E-01
  -6.816  0.481E-01  0.481E-01
  -6.806  0.514E-01  0.514E-01
  -6.796  0.548E-01  0.548E-01
  -6.786  0.583E-01  0.583E-01
  -6.776  0.618E-01  0.618E-01
  -6.766  0.654E-01  0.654E-01
  -6.756  0.690E-01  0.690E-01
  -6.746  0.727E-01  0.727E-01
  -6.736  0.764E-01  0.764E-01
  -6.726  0.802E-01  0.802E-01
  -6.716  0.840E-01  0.840E-01
  -6.706  0.879E-01  0.879E-01
  -6.696  0.918E-01  0.918E-01
  -6.686  0.957E-01  0.957E-01
  -6.676  0.996E-01  0.996E-01
  -6.666  0.104E+00  0.104E+00
  -6.656  0.108E+00  0.108E+00
  -6.646  0.112E+00  0.112E+00
  -6.636  0.116E+00  0.116E+00
  -6.626  0.120E+00  0.120E+00
  -6.616  0.124E+00  0.124E+00
  -6.606  0.128E+00  0.128E+00
  -6.596  0.132E+00  0.132E+00
  -6.586  0.136E+00  0.136E+00
  -6.576  0.140E+00  0.140E+00
  -6.566  0.144E+00  0.144E+00
  -6.556  0.148E+00  0.148E+00
  -6.546  0.151E+00  0.151E+00
  -6.536  0.155E+00  0.155E+00
  -6.526  0.159E+00  0.159E+00
  -6.516  0.163E+00  0.163E+00
  -6.506  0.167E+00  0.167E+00
  -6.496  0.170E+00  0.170E+00
  -6.486  0.174E+00  0.174E+00
  -6.476  0.177E+00  0.177E+00
  -6.466  0.181E+00  0.181E+00
  -6.456  0.184E+00  0.184E+00
  -6.446  0.188E+00  0.188E+00
  -6.436  0.191E+00  0.191E+00
  -6.426  0.194E+00  0.194E+00
  -6.416  0.197E+00  0.197E+00
  -6.406  0.200E+00  0.200E+00
  -6.396  0.202E+00  0.202E+00
  -6.386  0.205E+00  0.205E+00
  -6.376  0.208E+00  0.208E+00
  -6.366  0.210E+00  0.210E+00
  -6.356  0.212E+00  0.212E+00
  -6.346  0.214E+00  0.214E+00
  -6.336  0.216E+00  0.216E+00
  -6.326  0.218E+00  0.218E+00
  -6.316  0.220E+00  0.220E+00
  -6.306  0.222E+00  0.222E+00
  -6.296  0.223E+00  0.223E+00
  -6.286  0.224E+00  0.224E+00
  -6.276  0.226E+00  0.226E+00
  -6.266  0.227E+00  0.227E+00
  -6.256  0.227E+00  0.227E+00
  -6.246  0.228E+00  0.228E+00
  -6.236  0.229E+00  0.229E+00
  -6.226  0.229E+00  0.229E+00
  -6.216  0.229E+00  0.229E+00
  -6.206  0.229E+00  0.229E+00
  -6.196  0.229E+00  0.229E+00
  -6.186  0.229E+00  0.229E+00
  -6.176  0.228E+00  0.228E+00
  -6.166  0.228E+00  0.228E+00
  -6.156  0.227E+00  0.227E+00
  -6.146  0.226E+00  0.226E+00
  -6.136  0.225E+00  0.225E+00
  -6.126  0.224E+00  0.224E+00
  -6.116  0.222E+00  0.222E+00
  -6.106  0.221E+00  0.221E+00
  -6.096  0.219E+00  0.219E+00
  -6.086  0.217E+00  0.217E+00
  -6.076  0.215E+00  0.215E+00
  -6.066  0.213E+00  0.213E+00
  -6.056  0.211E+00  0.211E+00
  -6.046  0.208E+00  0.208E+00
  -6.036  0.206E+00  0.206E+00
  -6.026  0.203E+00  0.203E+00
  -6.016  0.201E+00  0.201E+00
  -6.006  0.198E+00  0.198E+00
  -5.996  0.195E+00  0.195E+00
  -5.986  0.192E+00  0.192E+00
  -5.976  0.189E+00  0.189E+00
  -5.966  0.185E+00  0.185E+00
  -5.956  0.182E+00  0.182E+00
  -5.946  0.179E+00  0.179E+00
  -5.936  0.175E+00  0.175E+00
  -5.926  0.171E+00  0.171E+00
  -5.916  0.168E+00  0.168E+00
  -5.906  0.164E+00  0.164E+00
  -5.896  0.160E+00  0.160E+00
  -5.886  0.157E+00  0.157E+00
  -5.876  0.153E+00  0.153E+00
  -5.866  0.149E+00  0.149E+00
  -5.856  0.145E+00  0.145E+00
  -5.846  0.141E+00  0.141E+00
  -5.836  0.137E+00  0.137E+00
  -5.826  0.133E+00  0.133E+00
  -5.816  0.129E+00  0.129E+00
  -5.806  0.125E+00  0.125E+00
  -5.796  0.121E+00  0.121E+00
  -5.786  0.117E+00  0.117E+00
  -5.776  0.113E+00  0.113E+00
  -5.766  0.109E+00  0.109E+00
  -5.756  0.105E+00  0.105E+00
  -5.746  0.101E+00  0.101E+00
  -5.736  0.976E-01  0.976E-01
  -5.726  0.938E-01  0.938E-01
  -5.716  0.900E-01  0.900E-01
  -5.706  0.862E-01  0.862E-01
  -5.696  0.825E-01  0.825E-01
  -5.686  0.788E-01  0.788E-01
  -5.676  0.752E-01  0.752E-01
  -5.666  0.717E-01  0.717E-01
  -5.656  0.682E-01  0.682E-01
  -5.646  0.648E-01  0.648E-01
  -5.636  0.614E-01  0.614E-01
  -5.626  0.581E-01  0.581E-01
  -5.616  0.549E-01  0.549E-01
  -5.606  0.518E-01  0.518E-01
  -5.596  0.487E-01  0.487E-01
  -5.586  0.457E-01  0.457E-01
  -5.576  0.428E-01  0.428E-01
  -5.566  0.400E-01  0.400E-01
  -5.556  0.372E-01  0.372E-01
  -5.546  0.345E-01  0.345E-01
  -5.536  0.319E-01  0.319E-01
  -5.526  0.294E-01  0.294E-01
  -5.516  0.270E-01  0.270E-01
  -5.506  0.247E-01  0.247E-01
  -5.496  0.225E-01  0.225E-01
  -5.486  0.203E-01  0.203E-01
  -5.476  0.182E-01  0.182E-01
  -5.466  0.162E-01  0.162E-01
  -5.456  0.143E-01  0.143E-01
  -5.446  0.125E-01  0.125E-01
  -5.436  0.108E-01  0.108E-01
  -5.426  0.916E-02  0.916E-02
  -5.416  0.759E-02  0.759E-02
  -5.406  0.611E-02  0.611E-02
  -5.396  0.471E-02  0.471E-02
  -5.386  0.339E-02  0.339E-02
  -5.376  0.215E-02  0.215E-02
  -5.366  0.991E-03  0.991E-03
  -5.356 -0.953E-04 -0.953E-04
  -5.346 -0.111E-02 -0.111E-02
  -5.336 -0.204E-02 -0.204E-02
  -5.326 -0.291E-02 -0.291E-02
  -5.316 -0.371E-02 -0.371E-02
  -5.306 -0.443E-02 -0.443E-02
  -5.296 -0.509E-02 -0.509E-02
  -5.286 -0.569E-02 -0.569E-02
  -5.276 -0.622E-02 -0.622E-02
  -5.266 -0.669E-02 -0.669E-02
  -5.256 -0.710E-02 -0.710E-02
  -5.246 -0.745E-02 -0.745E-02
  -5.236 -0.775E-02 -0.775E-02
  -5.226 -0.799E-02 -0.799E-02
  -5.216 -0.818E-02 -0.818E-02
  -5.206 -0.831E-02 -0.831E-02
  -5.196 -0.840E-02 -0.840E-02
  -5.186 -0.844E-02 -0.844E-02
  -5.176 -0.844E-02 -0.844E-02
  -5.166 -0.839E-02 -0.839E-02
  -5.156 -0.830E-02 -0.830E-02
  -5.146 -0.817E-02 -0.817E-02
  -5.136 -0.800E-02 -0.800E-02
  -5.126 -0.779E-02 -0.779E-02
  -5.116 -0.755E-02 -0.755E-02
  -5.106 -0.728E-02 -0.728E-02
  -5.096 -0.697E-02 -0.697E-02
  -5.086 -0.664E-02 -0.664E-02
  -5.076 -0.627E-02 -0.627E-02
  -5.066 -0.588E-02 -0.588E-02
  -5.056 -0.546E-02 -0.546E-02
  -5.046 -0.502E-02 -0.502E-02
  -5.036 -0.455E-02 -0.455E-02
  -5.026 -0.407E-02 -0.407E-02
  -5.016 -0.356E-02 -0.356E-02
  -5.006 -0.303E-02 -0.303E-02
  -4.996 -0.249E-02 -0.249E-02
  -4.986 -0.193E-02 -0.193E-02
  -4.976 -0.136E-02 -0.136E-02
  -4.966 -0.772E-03 -0.772E-03
  -4.956 -0.173E-03 -0.173E-03
  -4.946  0.438E-03  0.438E-03
  -4.936  0.106E-02  0.106E-02
  -4.926  0.169E-02  0.169E-02
  -4.916  0.233E-02  0.233E-02
  -4.906  0.297E-02  0.297E-02
  -4.896  0.362E-02  0.362E-02
  -4.886  0.428E-02  0.428E-02
  -4.876  0.494E-02  0.494E-02
  -4.866  0.560E-02  0.560E-02
  -4.856  0.627E-02  0.627E-02
  -4.846  0.693E-02  0.693E-02
  -4.836  0.760E-02  0.760E-02
  -4.826  0.826E-02  0.826E-02
  -4.816  0.893E-02  0.893E-02
  -4.806  0.959E-02  0.959E-02
  -4.796  0.102E-01  0.102E-01
  -4.786  0.109E-01  0.109E-01
  -4.776  0.115E-01  0.115E-01
  -4.766  0.122E-01  0.122E-01
  -4.756  0.128E-01  0.128E-01
  -4.746  0.135E-01  0.135E-01
  -4.736  0.141E-01  0.141E-01
  -4.726  0.147E-01  0.147E-01
  -4.716  0.153E-01  0.153E-01
  -4.706  0.159E-01  0.159E-01
  -4.696  0.165E-01  0.165E-01
  -4.686  0.170E-01  0.170E-01
  -4.676  0.176E-01  0.176E-01
  -4.666  0.182E-01  0.182E-01
  -4.656  0.187E-01  0.187E-01
  -4.646  0.192E-01  0.192E-01
  -4.636  0.197E-01  0.197E-01
  -4.626  0.202E-01  0.202E-01
  -4.616  0.207E-01  0.207E-01
  -4.606  0.211E-01  0.211E-01
  -4.596  0.216E-01  0.216E-01
  -4.586  0.220E-01  0.220E-01
  -4.576  0.224E-01  0.224E-01
  -4.566  0.228E-01  0.228E-01
  -4.556  0.232E-01  0.232E-01
  -4.546  0.235E-01  0.235E-01
  -4.536  0.239E-01  0.239E-01
  -4.526  0.242E-01  0.242E-01
  -4.516  0.245E-01  0.245E-01
  -4.506  0.248E-01  0.248E-01
  -4.496  0.250E-01  0.250E-01
  -4.486  0.253E-01  0.253E-01
  -4.476  0.255E-01  0.255E-01
  -4.466  0.257E-01  0.257E-01
  -4.456  0.258E-01  0.258E-01
  -4.446  0.260E-01  0.260E-01
  -4.436  0.261E-01  0.261E-01
  -4.426  0.262E-01  0.262E-01
  -4.416  0.263E-01  0.263E-01
  -4.406  0.264E-01  0.264E-01
  -4.396  0.264E-01  0.264E-01
  -4.386  0.265E-01  0.265E-01
  -4.376  0.265E-01  0.265E-01
  -4.366  0.265E-01  0.265E-01
  -4.356  0.264E-01  0.264E-01
  -4.346  0.264E-01  0.264E-01
  -4.336  0.263E-01  0.263E-01
  -4.326  0.262E-01  0.262E-01
  -4.316  0.261E-01  0.261E-01
  -4.306  0.259E-01  0.259E-01
  -4.296  0.258E-01  0.258E-01
  -4.286  0.256E-01  0.256E-01
  -4.276  0.254E-01  0.254E-01
  -4.266  0.252E-01  0.252E-01
  -4.256  0.250E-01  0.250E-01
  -4.246  0.248E-01  0.248E-01
  -4.236  0.245E-01  0.245E-01
  -4.226  0.242E-01  0.242E-01
  -4.216  0.239E-01  0.239E-01
  -4.206  0.236E-01  0.236E-01
  -4.196  0.233E-01  0.233E-01
  -4.186  0.230E-01  0.230E-01
  -4.176  0.226E-01  0.226E-01
  -4.166  0.223E-01  0.223E-01
  -4.156  0.219E-01  0.219E-01
  -4.146  0.215E-01  0.215E-01
  -4.136  0.211E-01  0.211E-01
  -4.126  0.207E-01  0.207E-01
  -4.116  0.203E-01  0.203E-01
  -4.106  0.199E-01  0.199E-01
  -4.096  0.195E-01  0.195E-01
  -4.086  0.191E-01  0.191E-01
  -4.076  0.186E-01  0.186E-01
  -4.066  0.182E-01  0.182E-01
  -4.056  0.177E-01  0.177E-01
  -4.046  0.173E-01  0.173E-01
  -4.036  0.168E-01  0.168E-01
  -4.026  0.164E-01  0.164E-01
  -4.016  0.159E-01  0.159E-01
  -4.006  0.155E-01  0.155E-01
  -3.996  0.150E-01  0.150E-01
  -3.986  0.145E-01  0.145E-01
  -3.976  0.141E-01  0.141E-01
  -3.966  0.136E-01  0.136E-01
  -3.956  0.131E-01  0.131E-01
  -3.946  0.127E-01  0.127E-01
  -3.936  0.122E-01  0.122E-01
  -3.926  0.118E-01  0.118E-01
  -3.916  0.113E-01  0.113E-01
  -3.906  0.109E-01  0.109E-01
  -3.896  0.104E-01  0.104E-01
  -3.886  0.100E-01  0.100E-01
  -3.876  0.957E-02  0.957E-02
  -3.866  0.915E-02  0.915E-02
  -3.856  0.873E-02  0.873E-02
  -3.846  0.832E-02  0.832E-02
  -3.836  0.792E-02  0.792E-02
  -3.826  0.752E-02  0.752E-02
  -3.816  0.713E-02  0.713E-02
  -3.806  0.675E-02  0.675E-02
  -3.796  0.638E-02  0.638E-02
  -3.786  0.602E-02  0.602E-02
  -3.776  0.566E-02  0.566E-02
  -3.766  0.531E-02  0.531E-02
  -3.756  0.498E-02  0.498E-02
  -3.746  0.465E-02  0.465E-02
  -3.736  0.433E-02  0.433E-02
  -3.726  0.402E-02  0.402E-02
  -3.716  0.372E-02  0.372E-02
  -3.706  0.343E-02  0.343E-02
  -3.696  0.315E-02  0.315E-02
  -3.686  0.288E-02  0.288E-02
  -3.676  0.262E-02  0.262E-02
  -3.666  0.237E-02  0.237E-02
  -3.656  0.213E-02  0.213E-02
  -3.646  0.190E-02  0.190E-02
  -3.636  0.168E-02  0.168E-02
  -3.626  0.146E-02  0.146E-02
  -3.616  0.126E-02  0.126E-02
  -3.606  0.107E-02  0.107E-02
  -3.596  0.881E-03  0.881E-03
  -3.586  0.705E-03  0.705E-03
  -3.576  0.538E-03  0.538E-03
  -3.566  0.380E-03  0.380E-03
  -3.556  0.231E-03  0.231E-03
  -3.546  0.894E-04  0.894E-04
  -3.536 -0.435E-04 -0.435E-04
  -3.526 -0.168E-03 -0.168E-03
  -3.516 -0.286E-03 -0.286E-03
  -3.506 -0.395E-03 -0.395E-03
  -3.496 -0.497E-03 -0.497E-03
  -3.486 -0.592E-03 -0.592E-03
  -3.476 -0.680E-03 -0.680E-03
  -3.466 -0.761E-03 -0.761E-03
  -3.456 -0.835E-03 -0.835E-03
  -3.446 -0.904E-03 -0.904E-03
  -3.436 -0.966E-03 -0.966E-03
  -3.426 -0.102E-02 -0.102E-02
  -3.416 -0.107E-02 -0.107E-02
  -3.406 -0.112E-02 -0.112E-02
  -3.396 -0.116E-02 -0.116E-02
  -3.386 -0.119E-02 -0.119E-02
  -3.376 -0.122E-02 -0.122E-02
  -3.366 -0.125E-02 -0.125E-02
  -3.356 -0.127E-02 -0.127E-02
  -3.346 -0.129E-02 -0.129E-02
  -3.336 -0.130E-02 -0.130E-02
  -3.326 -0.131E-02 -0.131E-02
  -3.316 -0.132E-02 -0.132E-02
  -3.306 -0.132E-02 -0.132E-02
  -3.296 -0.132E-02 -0.132E-02
  -3.286 -0.132E-02 -0.132E-02
  -3.276 -0.131E-02 -0.131E-02
  -3.266 -0.131E-02 -0.131E-02
  -3.256 -0.130E-02 -0.130E-02
  -3.246 -0.128E-02 -0.128E-02
  -3.236 -0.127E-02 -0.127E-02
  -3.226 -0.125E-02 -0.125E-02
  -3.216 -0.124E-02 -0.124E-02
  -3.206 -0.122E-02 -0.122E-02
  -3.196 -0.120E-02 -0.120E-02
  -3.186 -0.118E-02 -0.118E-02
  -3.176 -0.115E-02 -0.115E-02
  -3.166 -0.113E-02 -0.113E-02
  -3.156 -0.110E-02 -0.110E-02
  -3.146 -0.108E-02 -0.108E-02
  -3.136 -0.105E-02 -0.105E-02
  -3.126 -0.103E-02 -0.103E-02
  -3.116 -0.100E-02 -0.100E-02
  -3.106 -0.974E-03 -0.974E-03
  -3.096 -0.946E-03 -0.946E-03
  -3.086 -0.919E-03 -0.919E-03
  -3.076 -0.891E-03 -0.891E-03
  -3.066 -0.864E-03 -0.864E-03
  -3.056 -0.836E-03 -0.836E-03
  -3.046 -0.808E-03 -0.808E-03
  -3.036 -0.781E-03 -0.781E-03
  -3.026 -0.754E-03 -0.754E-03
  -3.016 -0.727E-03 -0.727E-03
  -3.006 -0.701E-03 -0.701E-03
  -2.996 -0.674E-03 -0.674E-03
  -2.986 -0.649E-03 -0.649E-03
  -2.976 -0.623E-03 -0.623E-03
  -2.966 -0.598E-03 -0.598E-03
  -2.956 -0.574E-03 -0.574E-03
  -2.946 -0.550E-03 -0.550E-03
  -2.936 -0.527E-03 -0.527E-03
  -2.926 -0.504E-03 -0.504E-03
  -2.916 -0.481E-03 -0.481E-03
  -2.906 -0.459E-03 -0.459E-03
  -2.896 -0.438E-03 -0.438E-03
  -2.886 -0.418E-03 -0.418E-03
  -2.876 -0.397E-03 -0.397E-03
  -2.866 -0.378E-03 -0.378E-03
  -2.856 -0.359E-03 -0.359E-03
  -2.846 -0.341E-03 -0.341E-03
  -2.836 -0.323E-03 -0.323E-03
  -2.826 -0.306E-03 -0.306E-03
  -2.816 -0.289E-03 -0.289E-03
  -2.806 -0.273E-03 -0.273E-03
  -2.796 -0.258E-03 -0.258E-03
  -2.786 -0.243E-03 -0.243E-03
  -2.776 -0.228E-03 -0.228E-03
  -2.766 -0.215E-03 -0.215E-03
  -2.756 -0.201E-03 -0.201E-03
  -2.746 -0.189E-03 -0.189E-03
  -2.736 -0.176E-03 -0.176E-03
  -2.726 -0.165E-03 -0.165E-03
  -2.716 -0.153E-03 -0.153E-03
  -2.706 -0.142E-03 -0.142E-03
  -2.696 -0.132E-03 -0.132E-03
  -2.686 -0.122E-03 -0.122E-03
  -2.676 -0.113E-03 -0.113E-03
  -2.666 -0.104E-03 -0.104E-03
  -2.656 -0.949E-04 -0.949E-04
  -2.646 -0.866E-04 -0.866E-04
  -2.636 -0.787E-04 -0.787E-04
  -2.626 -0.711E-04 -0.711E-04
  -2.616 -0.639E-04 -0.639E-04
  -2.606 -0.570E-04 -0.570E-04
  -2.596 -0.505E-04 -0.505E-04
  -2.586 -0.443E-04 -0.443E-04
  -2.576 -0.383E-04 -0.383E-04
  -2.566 -0.327E-04 -0.327E-04
  -2.556 -0.273E-04 -0.273E-04
  -2.546 -0.222E-04 -0.222E-04
  -2.536 -0.173E-04 -0.173E-04
  -2.526 -0.127E-04 -0.127E-04
  -2.516 -0.827E-05 -0.827E-05
  -2.506 -0.408E-05 -0.408E-05
  -2.496 -0.887E-07 -0.887E-07
  -2.486  0.371E-05  0.371E-05
  -2.476  0.732E-05  0.732E-05
  -2.466  0.108E-04  0.108E-04
  -2.456  0.140E-04  0.140E-04
  -2.446  0.171E-04  0.171E-04
  -2.436  0.201E-04  0.201E-04
  -2.426  0.229E-04  0.229E-04
  -2.416  0.256E-04  0.256E-04
  -2.406  0.282E-04  0.282E-04
  -2.396  0.307E-04  0.307E-04
  -2.386  0.330E-04  0.330E-04
  -2.376  0.353E-04  0.353E-04
  -2.366  0.374E-04  0.374E-04
  -2.356  0.395E-04  0.395E-04
  -2.346  0.415E-04  0.415E-04
  -2.336  0.434E-04  0.434E-04
  -2.326  0.452E-04  0.452E-04
  -2.316  0.469E-04  0.469E-04
  -2.306  0.486E-04  0.486E-04
  -2.296  0.503E-04  0.503E-04
  -2.286  0.519E-04  0.519E-04
  -2.276  0.534E-04  0.534E-04
  -2.266  0.549E-04  0.549E-04
  -2.256  0.563E-04  0.563E-04
  -2.246  0.577E-04  0.577E-04
  -2.236  0.591E-04  0.591E-04
  -2.226  0.604E-04  0.604E-04
  -2.216  0.617E-04  0.617E-04
  -2.206  0.630E-04  0.630E-04
  -2.196  0.643E-04  0.643E-04
  -2.186  0.655E-04  0.655E-04
  -2.176  0.667E-04  0.667E-04
  -2.166  0.679E-04  0.679E-04
  -2.156  0.690E-04  0.690E-04
  -2.146  0.702E-04  0.702E-04
  -2.136  0.713E-04  0.713E-04
  -2.126  0.724E-04  0.724E-04
  -2.116  0.735E-04  0.735E-04
  -2.106  0.745E-04  0.745E-04
  -2.096  0.756E-04  0.756E-04
  -2.086  0.766E-04  0.766E-04
  -2.076  0.777E-04  0.777E-04
  -2.066  0.787E-04  0.787E-04
  -2.056  0.797E-04  0.797E-04
  -2.046  0.807E-04  0.807E-04
  -2.036  0.816E-04  0.816E-04
  -2.026  0.826E-04  0.826E-04
  -2.016  0.835E-04  0.835E-04
  -2.006  0.845E-04  0.845E-04
  -1.996  0.854E-04  0.854E-04
  -1.986  0.863E-04  0.863E-04
  -1.976  0.872E-04  0.872E-04
  -1.966  0.881E-04  0.881E-04
  -1.956  0.889E-04  0.889E-04
  -1.946  0.898E-04  0.898E-04
  -1.936  0.906E-04  0.906E-04
  -1.926  0.914E-04  0.914E-04
  -1.916  0.922E-04  0.922E-04
  -1.906  0.930E-04  0.930E-04
  -1.896  0.938E-04  0.938E-04
  -1.886  0.945E-04  0.945E-04
  -1.876  0.952E-04  0.952E-04
  -1.866  0.960E-04  0.960E-04
  -1.856  0.966E-04  0.966E-04
  -1.846  0.973E-04  0.973E-04
  -1.836  0.980E-04  0.980E-04
  -1.826  0.986E-04  0.986E-04
  -1.816  0.992E-04  0.992E-04
  -1.806  0.998E-04  0.998E-04
  -1.796  0.100E-03  0.100E-03
  -1.786  0.101E-03  0.101E-03
  -1.776  0.101E-03  0.101E-03
  -1.766  0.102E-03  0.102E-03
  -1.756  0.102E-03  0.102E-03
  -1.746  0.103E-03  0.103E-03
  -1.736  0.103E-03  0.103E-03
  -1.726  0.104E-03  0.104E-03
  -1.716  0.104E-03  0.104E-03
  -1.706  0.105E-03  0.105E-03
  -1.696  0.105E-03  0.105E-03
  -1.686  0.105E-03  0.105E-03
  -1.676  0.106E-03  0.106E-03
  -1.666  0.106E-03  0.106E-03
  -1.656  0.106E-03  0.106E-03
  -1.646  0.107E-03  0.107E-03
  -1.636  0.107E-03  0.107E-03
  -1.626  0.107E-03  0.107E-03
  -1.616  0.107E-03  0.107E-03
  -1.606  0.107E-03  0.107E-03
  -1.596  0.108E-03  0.108E-03
  -1.586  0.108E-03  0.108E-03
  -1.576  0.108E-03  0.108E-03
  -1.566  0.108E-03  0.108E-03
  -1.556  0.108E-03  0.108E-03
  -1.546  0.108E-03  0.108E-03
  -1.536  0.108E-03  0.108E-03
  -1.526  0.109E-03  0.109E-03
  -1.516  0.109E-03  0.109E-03
  -1.506  0.109E-03  0.109E-03
  -1.496  0.109E-03  0.109E-03
  -1.486  0.109E-03  0.109E-03
  -1.476  0.109E-03  0.109E-03
  -1.466  0.109E-03  0.109E-03
  -1.456  0.109E-03  0.109E-03
  -1.446  0.109E-03  0.109E-03
  -1.436  0.109E-03  0.109E-03
  -1.426  0.109E-03  0.109E-03
  -1.416  0.109E-03  0.109E-03
  -1.406  0.109E-03  0.109E-03
  -1.396  0.109E-03  0.109E-03
  -1.386  0.109E-03  0.109E-03
  -1.376  0.109E-03  0.109E-03
  -1.366  0.109E-03  0.109E-03
  -1.356  0.109E-03  0.109E-03
  -1.346  0.109E-03  0.109E-03
  -1.336  0.109E-03  0.109E-03
  -1.326  0.109E-03  0.109E-03
  -1.316  0.109E-03  0.109E-03
  -1.306  0.109E-03  0.109E-03
  -1.296  0.109E-03  0.109E-03
  -1.286  0.109E-03  0.109E-03
  -1.276  0.109E-03  0.109E-03
  -1.266  0.109E-03  0.109E-03
  -1.256  0.109E-03  0.109E-03
  -1.246  0.109E-03  0.109E-03
  -1.236  0.109E-03  0.109E-03
  -1.226  0.108E-03  0.108E-03
  -1.216  0.108E-03  0.108E-03
  -1.206  0.108E-03  0.108E-03
  -1.196  0.108E-03  0.108E-03
  -1.186  0.108E-03  0.108E-03
  -1.176  0.108E-03  0.108E-03
  -1.166  0.108E-03  0.108E-03
  -1.156  0.108E-03  0.108E-03
  -1.146  0.108E-03  0.108E-03
  -1.136  0.107E-03  0.107E-03
  -1.126  0.107E-03  0.107E-03
  -1.116  0.107E-03  0.107E-03
  -1.106  0.107E-03  0.107E-03
  -1.096  0.107E-03  0.107E-03
  -1.086  0.107E-03  0.107E-03
  -1.076  0.106E-03  0.106E-03
  -1.066  0.106E-03  0.106E-03
  -1.056  0.106E-03  0.106E-03
  -1.046  0.106E-03  0.106E-03
  -1.036  0.105E-03  0.105E-03
  -1.026  0.105E-03  0.105E-03
  -1.016  0.105E-03  0.105E-03
  -1.006  0.104E-03  0.104E-03
  -0.996  0.104E-03  0.104E-03
  -0.986  0.104E-03  0.104E-03
  -0.976  0.103E-03  0.103E-03
  -0.966  0.103E-03  0.103E-03
  -0.956  0.103E-03  0.103E-03
  -0.946  0.102E-03  0.102E-03
  -0.936  0.102E-03  0.102E-03
  -0.926  0.101E-03  0.101E-03
  -0.916  0.101E-03  0.101E-03
  -0.906  0.101E-03  0.101E-03
  -0.896  0.100E-03  0.100E-03
  -0.886  0.997E-04  0.997E-04
  -0.876  0.993E-04  0.993E-04
  -0.866  0.988E-04  0.988E-04
  -0.856  0.984E-04  0.984E-04
  -0.846  0.979E-04  0.979E-04
  -0.836  0.975E-04  0.975E-04
  -0.826  0.970E-04  0.970E-04
  -0.816  0.966E-04  0.966E-04
  -0.806  0.962E-04  0.962E-04
  -0.796  0.957E-04  0.957E-04
  -0.786  0.953E-04  0.953E-04
  -0.776  0.950E-04  0.950E-04
  -0.766  0.946E-04  0.946E-04
  -0.756  0.943E-04  0.943E-04
  -0.746  0.940E-04  0.940E-04
  -0.736  0.937E-04  0.937E-04
  -0.726  0.935E-04  0.935E-04
  -0.716  0.933E-04  0.933E-04
  -0.706  0.931E-04  0.931E-04
  -0.696  0.930E-04  0.930E-04
  -0.686  0.929E-04  0.929E-04
  -0.676  0.929E-04  0.929E-04
  -0.666  0.929E-04  0.929E-04
  -0.656  0.930E-04  0.930E-04
  -0.646  0.932E-04  0.932E-04
  -0.636  0.934E-04  0.934E-04
  -0.626  0.937E-04  0.937E-04
  -0.616  0.941E-04  0.941E-04
  -0.606  0.945E-04  0.945E-04
  -0.596  0.950E-04  0.950E-04
  -0.586  0.957E-04  0.957E-04
  -0.576  0.963E-04  0.963E-04
  -0.566  0.971E-04  0.971E-04
  -0.556  0.980E-04  0.980E-04
  -0.546  0.990E-04  0.990E-04
  -0.536  0.100E-03  0.100E-03
  -0.526  0.101E-03  0.101E-03
  -0.516  0.103E-03  0.103E-03
  -0.506  0.104E-03  0.104E-03
  -0.496  0.105E-03  0.105E-03
  -0.486  0.107E-03  0.107E-03
  -0.476  0.109E-03  0.109E-03
  -0.466  0.111E-03  0.111E-03
  -0.456  0.113E-03  0.113E-03
  -0.446  0.115E-03  0.115E-03
  -0.436  0.117E-03  0.117E-03
  -0.426  0.119E-03  0.119E-03
  -0.416  0.122E-03  0.122E-03
  -0.406  0.124E-03  0.124E-03
  -0.396  0.127E-03  0.127E-03
  -0.386  0.130E-03  0.130E-03
  -0.376  0.133E-03  0.133E-03
  -0.366  0.136E-03  0.136E-03
  -0.356  0.139E-03  0.139E-03
  -0.346  0.142E-03  0.142E-03
  -0.336  0.146E-03  0.146E-03
  -0.326  0.149E-03  0.149E-03
  -0.316  0.153E-03  0.153E-03
  -0.306  0.157E-03  0.157E-03
  -0.296  0.160E-03  0.160E-03
  -0.286  0.164E-03  0.164E-03
  -0.276  0.168E-03  0.168E-03
  -0.266  0.173E-03  0.173E-03
  -0.256  0.177E-03  0.177E-03
  -0.246  0.181E-03  0.181E-03
  -0.236  0.185E-03  0.185E-03
  -0.226  0.190E-03  0.190E-03
  -0.216  0.194E-03  0.194E-03
  -0.206  0.199E-03  0.199E-03
  -0.196  0.204E-03  0.204E-03
  -0.186  0.208E-03  0.208E-03
  -0.176  0.213E-03  0.213E-03
  -0.166  0.218E-03  0.218E-03
  -0.156  0.222E-03  0.222E-03
  -0.146  0.227E-03  0.227E-03
  -0.136  0.232E-03  0.232E-03
  -0.126  0.237E-03  0.237E-03
  -0.116  0.241E-03  0.241E-03
  -0.106  0.246E-03  0.246E-03
  -0.096  0.251E-03  0.251E-03
  -0.086  0.255E-03  0.255E-03
  -0.076  0.260E-03  0.260E-03
  -0.066  0.265E-03  0.265E-03
  -0.056  0.269E-03  0.269E-03
  -0.046  0.273E-03  0.273E-03
  -0.036  0.278E-03  0.278E-03
  -0.026  0.282E-03  0.282E-03
  -0.016  0.286E-03  0.286E-03
  -0.006  0.290E-03  0.290E-03
   0.004  0.294E-03  0.294E-03
   0.014  0.298E-03  0.298E-03
   0.024  0.301E-03  0.301E-03
   0.034  0.305E-03  0.305E-03
   0.044  0.308E-03  0.308E-03
   0.054  0.311E-03  0.311E-03
   0.064  0.314E-03  0.314E-03
   0.074  0.317E-03  0.317E-03
   0.084  0.319E-03  0.319E-03
   0.094  0.321E-03  0.321E-03
   0.104  0.323E-03  0.323E-03
   0.114  0.325E-03  0.325E-03
   0.124  0.327E-03  0.327E-03
   0.134  0.328E-03  0.328E-03
   0.144  0.329E-03  0.329E-03
   0.154  0.330E-03  0.330E-03
   0.164  0.331E-03  0.331E-03
   0.174  0.331E-03  0.331E-03
   0.184  0.331E-03  0.331E-03
   0.194  0.330E-03  0.330E-03
   0.204  0.330E-03  0.330E-03
   0.214  0.329E-03  0.329E-03
   0.224  0.327E-03  0.327E-03
   0.234  0.326E-03  0.326E-03
   0.244  0.324E-03  0.324E-03
   0.254  0.321E-03  0.321E-03
   0.264  0.319E-03  0.319E-03
   0.274  0.316E-03  0.316E-03
   0.284  0.312E-03  0.312E-03
   0.294  0.308E-03  0.308E-03
   0.304  0.304E-03  0.304E-03
   0.314  0.300E-03  0.300E-03
   0.324  0.294E-03  0.294E-03
   0.334  0.289E-03  0.289E-03
   0.344  0.283E-03  0.283E-03
   0.354  0.277E-03  0.277E-03
   0.364  0.270E-03  0.270E-03
   0.374  0.263E-03  0.263E-03
   0.384  0.255E-03  0.255E-03
   0.394  0.247E-03  0.247E-03
   0.404  0.238E-03  0.238E-03
   0.414  0.229E-03  0.229E-03
   0.424  0.219E-03  0.219E-03
   0.434  0.209E-03  0.209E-03
   0.444  0.198E-03  0.198E-03
   0.454  0.186E-03  0.186E-03
   0.464  0.174E-03  0.174E-03
   0.474  0.162E-03  0.162E-03
   0.484  0.148E-03  0.148E-03
   0.494  0.135E-03  0.135E-03
   0.504  0.120E-03  0.120E-03
   0.514  0.105E-03  0.105E-03
   0.524  0.889E-04  0.889E-04
   0.534  0.722E-04  0.722E-04
   0.544  0.548E-04  0.548E-04
   0.554  0.366E-04  0.366E-04
   0.564  0.175E-04  0.175E-04
   0.574 -0.235E-05 -0.235E-05
   0.584 -0.231E-04 -0.231E-04
   0.594 -0.448E-04 -0.448E-04
   0.604 -0.674E-04 -0.674E-04
   0.614 -0.910E-04 -0.910E-04
   0.624 -0.116E-03 -0.116E-03
   0.634 -0.141E-03 -0.141E-03
   0.644 -0.168E-03 -0.168E-03
   0.654 -0.196E-03 -0.196E-03
   0.664 -0.225E-03 -0.225E-03
   0.674 -0.256E-03 -0.256E-03
   0.684 -0.287E-03 -0.287E-03
   0.694 -0.320E-03 -0.320E-03
   0.704 -0.355E-03 -0.355E-03
   0.714 -0.390E-03 -0.390E-03
   0.724 -0.428E-03 -0.428E-03
   0.734 -0.467E-03 -0.467E-03
   0.744 -0.507E-03 -0.507E-03
   0.754 -0.549E-03 -0.549E-03
   0.764 -0.593E-03 -0.593E-03
   0.774 -0.639E-03 -0.639E-03
   0.784 -0.686E-03 -0.686E-03
   0.794 -0.736E-03 -0.736E-03
   0.804 -0.787E-03 -0.787E-03
   0.814 -0.840E-03 -0.840E-03
   0.824 -0.896E-03 -0.896E-03
   0.834 -0.953E-03 -0.953E-03
   0.844 -0.101E-02 -0.101E-02
   0.854 -0.108E-02 -0.108E-02
   0.864 -0.114E-02 -0.114E-02
   0.874 -0.121E-02 -0.121E-02
   0.884 -0.128E-02 -0.128E-02
   0.894 -0.135E-02 -0.135E-02
   0.904 -0.142E-02 -0.142E-02
   0.914 -0.150E-02 -0.150E-02
   0.924 -0.158E-02 -0.158E-02
   0.934 -0.166E-02 -0.166E-02
   0.944 -0.175E-02 -0.175E-02
   0.954 -0.183E-02 -0.183E-02
   0.964 -0.192E-02 -0.192E-02
   0.974 -0.202E-02 -0.202E-02
   0.984 -0.211E-02 -0.211E-02
   0.994 -0.221E-02 -0.221E-02
   1.004 -0.231E-02 -0.231E-02
   1.014 -0.242E-02 -0.242E-02
   1.024 -0.252E-02 -0.252E-02
   1.034 -0.263E-02 -0.263E-02
   1.044 -0.275E-02 -0.275E-02
   1.054 -0.286E-02 -0.286E-02
   1.064 -0.298E-02 -0.298E-02
   1.074 -0.310E-02 -0.310E-02
   1.084 -0.322E-02 -0.322E-02
   1.094 -0.335E-02 -0.335E-02
   1.104 -0.347E-02 -0.347E-02
   1.114 -0.360E-02 -0.360E-02
   1.124 -0.373E-02 -0.373E-02
   1.134 -0.386E-02 -0.386E-02
   1.144 -0.400E-02 -0.400E-02
   1.154 -0.413E-02 -0.413E-02
   1.164 -0.427E-02 -0.427E-02
   1.174 -0.441E-02 -0.441E-02
   1.184 -0.454E-02 -0.454E-02
   1.194 -0.468E-02 -0.468E-02
   1.204 -0.482E-02 -0.482E-02
   1.214 -0.495E-02 -0.495E-02
   1.224 -0.509E-02 -0.509E-02
   1.234 -0.522E-02 -0.522E-02
   1.244 -0.536E-02 -0.536E-02
   1.254 -0.549E-02 -0.549E-02
   1.264 -0.561E-02 -0.561E-02
   1.274 -0.574E-02 -0.574E-02
   1.284 -0.586E-02 -0.586E-02
   1.294 -0.598E-02 -0.598E-02
   1.304 -0.609E-02 -0.609E-02
   1.314 -0.619E-02 -0.619E-02
   1.324 -0.629E-02 -0.629E-02
   1.334 -0.639E-02 -0.639E-02
   1.344 -0.647E-02 -0.647E-02
   1.354 -0.655E-02 -0.655E-02
   1.364 -0.662E-02 -0.662E-02
   1.374 -0.667E-02 -0.667E-02
   1.384 -0.672E-02 -0.672E-02
   1.394 -0.676E-02 -0.676E-02
   1.404 -0.678E-02 -0.678E-02
   1.414 -0.679E-02 -0.679E-02
   1.424 -0.678E-02 -0.678E-02
   1.434 -0.676E-02 -0.676E-02
   1.444 -0.673E-02 -0.673E-02
   1.454 -0.667E-02 -0.667E-02
   1.464 -0.660E-02 -0.660E-02
   1.474 -0.651E-02 -0.651E-02
   1.484 -0.640E-02 -0.640E-02
   1.494 -0.626E-02 -0.626E-02
   1.504 -0.611E-02 -0.611E-02
   1.514 -0.592E-02 -0.592E-02
   1.524 -0.572E-02 -0.572E-02
   1.534 -0.549E-02 -0.549E-02
   1.544 -0.523E-02 -0.523E-02
   1.554 -0.494E-02 -0.494E-02
   1.564 -0.462E-02 -0.462E-02
   1.574 -0.427E-02 -0.427E-02
   1.584 -0.389E-02 -0.389E-02
   1.594 -0.348E-02 -0.348E-02
   1.604 -0.303E-02 -0.303E-02
   1.614 -0.255E-02 -0.255E-02
   1.624 -0.202E-02 -0.202E-02
   1.634 -0.147E-02 -0.147E-02
   1.644 -0.870E-03 -0.870E-03
   1.654 -0.233E-03 -0.233E-03
   1.664  0.445E-03  0.445E-03
   1.674  0.117E-02  0.117E-02
   1.684  0.193E-02  0.193E-02
   1.694  0.273E-02  0.273E-02
   1.704  0.359E-02  0.359E-02
   1.714  0.448E-02  0.448E-02
   1.724  0.543E-02  0.543E-02
   1.734  0.642E-02  0.642E-02
   1.744  0.746E-02  0.746E-02
   1.754  0.854E-02  0.854E-02
   1.764  0.968E-02  0.968E-02
   1.774  0.109E-01  0.109E-01
   1.784  0.121E-01  0.121E-01
   1.794  0.134E-01  0.134E-01
   1.804  0.147E-01  0.147E-01
   1.814  0.161E-01  0.161E-01
   1.824  0.175E-01  0.175E-01
   1.834  0.190E-01  0.190E-01
   1.844  0.206E-01  0.206E-01
   1.854  0.222E-01  0.222E-01
   1.864  0.238E-01  0.238E-01
   1.874  0.255E-01  0.255E-01
   1.884  0.272E-01  0.272E-01
   1.894  0.290E-01  0.290E-01
   1.904  0.309E-01  0.309E-01
   1.914  0.328E-01  0.328E-01
   1.924  0.347E-01  0.347E-01
   1.934  0.367E-01  0.367E-01
   1.944  0.387E-01  0.387E-01
   1.954  0.408E-01  0.408E-01
   1.964  0.429E-01  0.429E-01
   1.974  0.450E-01  0.450E-01
   1.984  0.472E-01  0.472E-01
   1.994  0.495E-01  0.495E-01
   2.004  0.517E-01  0.517E-01
   2.014  0.540E-01  0.540E-01
   2.024  0.564E-01  0.564E-01
   2.034  0.588E-01  0.588E-01
   2.044  0.612E-01  0.612E-01
   2.054  0.636E-01  0.636E-01
   2.064  0.660E-01  0.660E-01
   2.074  0.685E-01  0.685E-01
   2.084  0.710E-01  0.710E-01
   2.094  0.735E-01  0.735E-01
   2.104  0.761E-01  0.761E-01
   2.114  0.786E-01  0.786E-01
   2.124  0.812E-01  0.812E-01
   2.134  0.838E-01  0.838E-01
   2.144  0.863E-01  0.863E-01
   2.154  0.889E-01  0.889E-01
   2.164  0.915E-01  0.915E-01
   2.174  0.941E-01  0.941E-01
   2.184  0.966E-01  0.966E-01
   2.194  0.992E-01  0.992E-01
   2.204  0.102E+00  0.102E+00
   2.214  0.104E+00  0.104E+00
   2.224  0.107E+00  0.107E+00
   2.234  0.109E+00  0.109E+00
   2.244  0.112E+00  0.112E+00
   2.254  0.114E+00  0.114E+00
   2.264  0.117E+00  0.117E+00
   2.274  0.119E+00  0.119E+00
   2.284  0.121E+00  0.121E+00
   2.294  0.124E+00  0.124E+00
   2.304  0.126E+00  0.126E+00
   2.314  0.128E+00  0.128E+00
   2.324  0.131E+00  0.131E+00
   2.334  0.133E+00  0.133E+00
   2.344  0.135E+00  0.135E+00
   2.354  0.137E+00  0.137E+00
   2.364  0.139E+00  0.139E+00
   2.374  0.141E+00  0.141E+00
   2.384  0.143E+00  0.143E+00
   2.394  0.145E+00  0.145E+00
   2.404  0.146E+00  0.146E+00
   2.414  0.148E+00  0.148E+00
   2.424  0.150E+00  0.150E+00
   2.434  0.151E+00  0.151E+00
   2.444  0.153E+00  0.153E+00
   2.454  0.154E+00  0.154E+00
   2.464  0.156E+00  0.156E+00
   2.474  0.157E+00  0.157E+00
   2.484  0.158E+00  0.158E+00
   2.494  0.160E+00  0.160E+00
   2.504  0.161E+00  0.161E+00
   2.514  0.162E+00  0.162E+00
   2.524  0.163E+00  0.163E+00
   2.534  0.164E+00  0.164E+00
   2.544  0.164E+00  0.164E+00
   2.554  0.165E+00  0.165E+00
   2.564  0.166E+00  0.166E+00
   2.574  0.166E+00  0.166E+00
   2.584  0.167E+00  0.167E+00
   2.594  0.167E+00  0.167E+00
   2.604  0.168E+00  0.168E+00
   2.614  0.168E+00  0.168E+00
   2.624  0.168E+00  0.168E+00
   2.634  0.168E+00  0.168E+00
   2.644  0.168E+00  0.168E+00
   2.654  0.168E+00  0.168E+00
   2.664  0.168E+00  0.168E+00
   2.674  0.168E+00  0.168E+00
   2.684  0.168E+00  0.168E+00
   2.694  0.168E+00  0.168E+00
   2.704  0.167E+00  0.167E+00
   2.714  0.167E+00  0.167E+00
   2.724  0.167E+00  0.167E+00
   2.734  0.166E+00  0.166E+00
   2.744  0.166E+00  0.166E+00
   2.754  0.165E+00  0.165E+00
   2.764  0.164E+00  0.164E+00
   2.774  0.163E+00  0.163E+00
   2.784  0.163E+00  0.163E+00
   2.794  0.162E+00  0.162E+00
   2.804  0.161E+00  0.161E+00
   2.814  0.160E+00  0.160E+00
   2.824  0.159E+00  0.159E+00
   2.834  0.158E+00  0.158E+00
   2.844  0.157E+00  0.157E+00
   2.854  0.156E+00  0.156E+00
   2.864  0.154E+00  0.154E+00
   2.874  0.153E+00  0.153E+00
   2.884  0.152E+00  0.152E+00
   2.894  0.151E+00  0.151E+00
   2.904  0.149E+00  0.149E+00
   2.914  0.148E+00  0.148E+00
   2.924  0.147E+00  0.147E+00
   2.934  0.145E+00  0.145E+00
   2.944  0.144E+00  0.144E+00
   2.954  0.142E+00  0.142E+00
   2.964  0.141E+00  0.141E+00
   2.974  0.139E+00  0.139E+00
   2.984  0.138E+00  0.138E+00
   2.994  0.136E+00  0.136E+00
   3.004  0.135E+00  0.135E+00
   3.014  0.133E+00  0.133E+00
   3.024  0.131E+00  0.131E+00
   3.034  0.130E+00  0.130E+00
   3.044  0.128E+00  0.128E+00
   3.054  0.126E+00  0.126E+00
   3.064  0.125E+00  0.125E+00
   3.074  0.123E+00  0.123E+00
   3.084  0.121E+00  0.121E+00
   3.094  0.120E+00  0.120E+00
   3.104  0.118E+00  0.118E+00
   3.114  0.116E+00  0.116E+00
   3.124  0.114E+00  0.114E+00
   3.134  0.113E+00  0.113E+00
   3.144  0.111E+00  0.111E+00
   3.154  0.109E+00  0.109E+00
   3.164  0.107E+00  0.107E+00
   3.174  0.105E+00  0.105E+00
   3.184  0.104E+00  0.104E+00
   3.194  0.102E+00  0.102E+00
   3.204  0.999E-01  0.999E-01
   3.214  0.981E-01  0.981E-01
   3.224  0.963E-01  0.963E-01
   3.234  0.945E-01  0.945E-01
   3.244  0.927E-01  0.927E-01
   3.254  0.908E-01  0.908E-01
   3.264  0.890E-01  0.890E-01
   3.274  0.872E-01  0.872E-01
   3.284  0.854E-01  0.854E-01
   3.294  0.836E-01  0.836E-01
   3.304  0.818E-01  0.818E-01
   3.314  0.800E-01  0.800E-01
   3.324  0.782E-01  0.782E-01
   3.334  0.764E-01  0.764E-01
   3.344  0.746E-01  0.746E-01
   3.354  0.728E-01  0.728E-01
   3.364  0.710E-01  0.710E-01
   3.374  0.692E-01  0.692E-01
   3.384  0.675E-01  0.675E-01
   3.394  0.657E-01  0.657E-01
   3.404  0.640E-01  0.640E-01
   3.414  0.622E-01  0.622E-01
   3.424  0.605E-01  0.605E-01
   3.434  0.588E-01  0.588E-01
   3.444  0.571E-01  0.571E-01
   3.454  0.554E-01  0.554E-01
   3.464  0.537E-01  0.537E-01
   3.474  0.521E-01  0.521E-01
   3.484  0.504E-01  0.504E-01
   3.494  0.488E-01  0.488E-01
   3.504  0.472E-01  0.472E-01
   3.514  0.456E-01  0.456E-01
   3.524  0.440E-01  0.440E-01
   3.534  0.424E-01  0.424E-01
   3.544  0.409E-01  0.409E-01
   3.554  0.394E-01  0.394E-01
   3.564  0.379E-01  0.379E-01
   3.574  0.364E-01  0.364E-01
   3.584  0.349E-01  0.349E-01
   3.594  0.335E-01  0.335E-01
   3.604  0.321E-01  0.321E-01
   3.614  0.307E-01  0.307E-01
   3.624  0.293E-01  0.293E-01
   3.634  0.280E-01  0.280E-01
   3.644  0.266E-01  0.266E-01
   3.654  0.254E-01  0.254E-01
   3.664  0.241E-01  0.241E-01
   3.674  0.228E-01  0.228E-01
   3.684  0.216E-01  0.216E-01
   3.694  0.204E-01  0.204E-01
   3.704  0.193E-01  0.193E-01
   3.714  0.182E-01  0.182E-01
   3.724  0.171E-01  0.171E-01
   3.734  0.160E-01  0.160E-01
   3.744  0.149E-01  0.149E-01
   3.754  0.139E-01  0.139E-01
   3.764  0.129E-01  0.129E-01
   3.774  0.120E-01  0.120E-01
   3.784  0.110E-01  0.110E-01
   3.794  0.101E-01  0.101E-01
   3.804  0.927E-02  0.927E-02
   3.814  0.843E-02  0.843E-02
   3.824  0.762E-02  0.762E-02
   3.834  0.683E-02  0.683E-02
   3.844  0.608E-02  0.608E-02
   3.854  0.535E-02  0.535E-02
   3.864  0.465E-02  0.465E-02
   3.874  0.398E-02  0.398E-02
   3.884  0.334E-02  0.334E-02
   3.894  0.272E-02  0.272E-02
   3.904  0.213E-02  0.213E-02
   3.914  0.157E-02  0.157E-02
   3.924  0.104E-02  0.104E-02
   3.934  0.533E-03  0.533E-03
   3.944  0.517E-04  0.517E-04
   3.954 -0.405E-03 -0.405E-03
   3.964 -0.836E-03 -0.836E-03
   3.974 -0.124E-02 -0.124E-02
   3.984 -0.163E-02 -0.163E-02
   3.994 -0.198E-02 -0.198E-02
   4.004 -0.232E-02 -0.232E-02
   4.014 -0.264E-02 -0.264E-02
   4.024 -0.293E-02 -0.293E-02
   4.034 -0.320E-02 -0.320E-02
   4.044 -0.345E-02 -0.345E-02
   4.054 -0.368E-02 -0.368E-02
   4.064 -0.389E-02 -0.389E-02
   4.074 -0.409E-02 -0.409E-02
   4.084 -0.426E-02 -0.426E-02
   4.094 -0.442E-02 -0.442E-02
   4.104 -0.456E-02 -0.456E-02
   4.114 -0.468E-02 -0.468E-02
   4.124 -0.479E-02 -0.479E-02
   4.134 -0.489E-02 -0.489E-02
   4.144 -0.497E-02 -0.497E-02
   4.154 -0.503E-02 -0.503E-02
   4.164 -0.509E-02 -0.509E-02
   4.174 -0.513E-02 -0.513E-02
   4.184 -0.516E-02 -0.516E-02
   4.194 -0.517E-02 -0.517E-02
   4.204 -0.518E-02 -0.518E-02
   4.214 -0.518E-02 -0.518E-02
   4.224 -0.517E-02 -0.517E-02
   4.234 -0.515E-02 -0.515E-02
   4.244 -0.512E-02 -0.512E-02
   4.254 -0.508E-02 -0.508E-02
   4.264 -0.504E-02 -0.504E-02
   4.274 -0.499E-02 -0.499E-02
   4.284 -0.493E-02 -0.493E-02
   4.294 -0.487E-02 -0.487E-02
   4.304 -0.480E-02 -0.480E-02
   4.314 -0.472E-02 -0.472E-02
   4.324 -0.465E-02 -0.465E-02
   4.334 -0.457E-02 -0.457E-02
   4.344 -0.448E-02 -0.448E-02
   4.354 -0.439E-02 -0.439E-02
   4.364 -0.430E-02 -0.430E-02
   4.374 -0.421E-02 -0.421E-02
   4.384 -0.412E-02 -0.412E-02
   4.394 -0.402E-02 -0.402E-02
   4.404 -0.392E-02 -0.392E-02
   4.414 -0.382E-02 -0.382E-02
   4.424 -0.372E-02 -0.372E-02
   4.434 -0.362E-02 -0.362E-02
   4.444 -0.352E-02 -0.352E-02
   4.454 -0.342E-02 -0.342E-02
   4.464 -0.332E-02 -0.332E-02
   4.474 -0.322E-02 -0.322E-02
   4.484 -0.312E-02 -0.312E-02
   4.494 -0.302E-02 -0.302E-02
   4.504 -0.292E-02 -0.292E-02
   4.514 -0.282E-02 -0.282E-02
   4.524 -0.273E-02 -0.273E-02
   4.534 -0.263E-02 -0.263E-02
   4.544 -0.254E-02 -0.254E-02
   4.554 -0.245E-02 -0.245E-02
   4.564 -0.236E-02 -0.236E-02
   4.574 -0.227E-02 -0.227E-02
   4.584 -0.218E-02 -0.218E-02
   4.594 -0.210E-02 -0.210E-02
   4.604 -0.201E-02 -0.201E-02
   4.614 -0.193E-02 -0.193E-02
   4.624 -0.185E-02 -0.185E-02
   4.634 -0.178E-02 -0.178E-02
   4.644 -0.170E-02 -0.170E-02
   4.654 -0.163E-02 -0.163E-02
   4.664 -0.156E-02 -0.156E-02
   4.674 -0.149E-02 -0.149E-02
   4.684 -0.142E-02 -0.142E-02
   4.694 -0.136E-02 -0.136E-02
   4.704 -0.130E-02 -0.130E-02
   4.714 -0.124E-02 -0.124E-02
   4.724 -0.118E-02 -0.118E-02
   4.734 -0.112E-02 -0.112E-02
   4.744 -0.107E-02 -0.107E-02
   4.754 -0.102E-02 -0.102E-02
   4.764 -0.968E-03 -0.968E-03
   4.774 -0.919E-03 -0.919E-03
   4.784 -0.873E-03 -0.873E-03
   4.794 -0.829E-03 -0.829E-03
   4.804 -0.786E-03 -0.786E-03
   4.814 -0.745E-03 -0.745E-03
   4.824 -0.706E-03 -0.706E-03
   4.834 -0.669E-03 -0.669E-03
   4.844 -0.633E-03 -0.633E-03
   4.854 -0.599E-03 -0.599E-03
   4.864 -0.566E-03 -0.566E-03
   4.874 -0.535E-03 -0.535E-03
   4.884 -0.505E-03 -0.505E-03
   4.894 -0.476E-03 -0.476E-03
   4.904 -0.449E-03 -0.449E-03
   4.914 -0.424E-03 -0.424E-03
   4.924 -0.399E-03 -0.399E-03
   4.934 -0.376E-03 -0.376E-03
   4.944 -0.354E-03 -0.354E-03
   4.954 -0.333E-03 -0.333E-03
   4.964 -0.313E-03 -0.313E-03
   4.974 -0.294E-03 -0.294E-03
   4.984 -0.276E-03 -0.276E-03
   4.994 -0.259E-03 -0.259E-03
   5.004 -0.243E-03 -0.243E-03
   5.014 -0.228E-03 -0.228E-03
   5.024 -0.214E-03 -0.214E-03
   5.034 -0.200E-03 -0.200E-03
   5.044 -0.187E-03 -0.187E-03
   5.054 -0.175E-03 -0.175E-03
   5.064 -0.164E-03 -0.164E-03
   5.074 -0.153E-03 -0.153E-03
   5.084 -0.143E-03 -0.143E-03
   5.094 -0.134E-03 -0.134E-03
   5.104 -0.125E-03 -0.125E-03
   5.114 -0.116E-03 -0.116E-03
   5.124 -0.108E-03 -0.108E-03
   5.134 -0.101E-03 -0.101E-03
   5.144 -0.940E-04 -0.940E-04
   5.154 -0.875E-04 -0.875E-04
   5.164 -0.814E-04 -0.814E-04
   5.174 -0.757E-04 -0.757E-04
   5.184 -0.704E-04 -0.704E-04
   5.194 -0.654E-04 -0.654E-04
   5.204 -0.607E-04 -0.607E-04
   5.214 -0.563E-04 -0.563E-04
   5.224 -0.522E-04 -0.522E-04
   5.234 -0.484E-04 -0.484E-04
   5.244 -0.449E-04 -0.449E-04
   5.254 -0.415E-04 -0.415E-04
   5.264 -0.385E-04 -0.385E-04
   5.274 -0.356E-04 -0.356E-04
   5.284 -0.329E-04 -0.329E-04
   5.294 -0.304E-04 -0.304E-04
