# E (eV)   ldos(E)   pdos(E)   
 -27.116 -0.263E-07 -0.263E-07
 -27.106 -0.283E-07 -0.283E-07
 -27.096 -0.306E-07 -0.306E-07
 -27.086 -0.330E-07 -0.330E-07
 -27.076 -0.355E-07 -0.355E-07
 -27.066 -0.382E-07 -0.382E-07
 -27.056 -0.412E-07 -0.412E-07
 -27.046 -0.443E-07 -0.443E-07
 -27.036 -0.476E-07 -0.476E-07
 -27.026 -0.512E-07 -0.512E-07
 -27.016 -0.550E-07 -0.550E-07
 -27.006 -0.590E-07 -0.590E-07
 -26.996 -0.633E-07 -0.633E-07
 -26.986 -0.679E-07 -0.679E-07
 -26.976 -0.728E-07 -0.728E-07
 -26.966 -0.780E-07 -0.780E-07
 -26.956 -0.835E-07 -0.835E-07
 -26.946 -0.893E-07 -0.893E-07
 -26.936 -0.956E-07 -0.956E-07
 -26.926 -0.102E-06 -0.102E-06
 -26.916 -0.109E-06 -0.109E-06
 -26.906 -0.117E-06 -0.117E-06
 -26.896 -0.124E-06 -0.124E-06
 -26.886 -0.133E-06 -0.133E-06
 -26.876 -0.141E-06 -0.141E-06
 -26.866 -0.151E-06 -0.151E-06
 -26.856 -0.160E-06 -0.160E-06
 -26.846 -0.171E-06 -0.171E-06
 -26.836 -0.182E-06 -0.182E-06
 -26.826 -0.193E-06 -0.193E-06
 -26.816 -0.205E-06 -0.205E-06
 -26.806 -0.218E-06 -0.218E-06
 -26.796 -0.231E-06 -0.231E-06
 -26.786 -0.245E-06 -0.245E-06
 -26.776 -0.260E-06 -0.260E-06
 -26.766 -0.275E-06 -0.275E-06
 -26.756 -0.292E-06 -0.292E-06
 -26.746 -0.309E-06 -0.309E-06
 -26.736 -0.326E-06 -0.326E-06
 -26.726 -0.345E-06 -0.345E-06
 -26.716 -0.364E-06 -0.364E-06
 -26.706 -0.385E-06 -0.385E-06
 -26.696 -0.406E-06 -0.406E-06
 -26.686 -0.428E-06 -0.428E-06
 -26.676 -0.451E-06 -0.451E-06
 -26.666 -0.475E-06 -0.475E-06
 -26.656 -0.500E-06 -0.500E-06
 -26.646 -0.526E-06 -0.526E-06
 -26.636 -0.553E-06 -0.553E-06
 -26.626 -0.581E-06 -0.581E-06
 -26.616 -0.609E-06 -0.609E-06
 -26.606 -0.639E-06 -0.639E-06
 -26.596 -0.670E-06 -0.670E-06
 -26.586 -0.702E-06 -0.702E-06
 -26.576 -0.735E-06 -0.735E-06
 -26.566 -0.769E-06 -0.769E-06
 -26.556 -0.804E-06 -0.804E-06
 -26.546 -0.840E-06 -0.840E-06
 -26.536 -0.878E-06 -0.878E-06
 -26.526 -0.916E-06 -0.916E-06
 -26.516 -0.955E-06 -0.955E-06
 -26.506 -0.995E-06 -0.995E-06
 -26.496 -0.104E-05 -0.104E-05
 -26.486 -0.108E-05 -0.108E-05
 -26.476 -0.112E-05 -0.112E-05
 -26.466 -0.116E-05 -0.116E-05
 -26.456 -0.121E-05 -0.121E-05
 -26.446 -0.125E-05 -0.125E-05
 -26.436 -0.130E-05 -0.130E-05
 -26.426 -0.134E-05 -0.134E-05
 -26.416 -0.139E-05 -0.139E-05
 -26.406 -0.144E-05 -0.144E-05
 -26.396 -0.149E-05 -0.149E-05
 -26.386 -0.153E-05 -0.153E-05
 -26.376 -0.158E-05 -0.158E-05
 -26.366 -0.163E-05 -0.163E-05
 -26.356 -0.168E-05 -0.168E-05
 -26.346 -0.172E-05 -0.172E-05
 -26.336 -0.177E-05 -0.177E-05
 -26.326 -0.182E-05 -0.182E-05
 -26.316 -0.186E-05 -0.186E-05
 -26.306 -0.191E-05 -0.191E-05
 -26.296 -0.195E-05 -0.195E-05
 -26.286 -0.199E-05 -0.199E-05
 -26.276 -0.203E-05 -0.203E-05
 -26.266 -0.207E-05 -0.207E-05
 -26.256 -0.211E-05 -0.211E-05
 -26.246 -0.215E-05 -0.215E-05
 -26.236 -0.218E-05 -0.218E-05
 -26.226 -0.221E-05 -0.221E-05
 -26.216 -0.224E-05 -0.224E-05
 -26.206 -0.226E-05 -0.226E-05
 -26.196 -0.228E-05 -0.228E-05
 -26.186 -0.230E-05 -0.230E-05
 -26.176 -0.232E-05 -0.232E-05
 -26.166 -0.232E-05 -0.232E-05
 -26.156 -0.233E-05 -0.233E-05
 -26.146 -0.233E-05 -0.233E-05
 -26.136 -0.232E-05 -0.232E-05
 -26.126 -0.231E-05 -0.231E-05
 -26.116 -0.230E-05 -0.230E-05
 -26.106 -0.228E-05 -0.228E-05
 -26.096 -0.225E-05 -0.225E-05
 -26.086 -0.221E-05 -0.221E-05
 -26.076 -0.217E-05 -0.217E-05
 -26.066 -0.212E-05 -0.212E-05
 -26.056 -0.206E-05 -0.206E-05
 -26.046 -0.199E-05 -0.199E-05
 -26.036 -0.191E-05 -0.191E-05
 -26.026 -0.183E-05 -0.183E-05
 -26.016 -0.173E-05 -0.173E-05
 -26.006 -0.163E-05 -0.163E-05
 -25.996 -0.151E-05 -0.151E-05
 -25.986 -0.138E-05 -0.138E-05
 -25.976 -0.125E-05 -0.125E-05
 -25.966 -0.110E-05 -0.110E-05
 -25.956 -0.939E-06 -0.939E-06
 -25.946 -0.766E-06 -0.766E-06
 -25.936 -0.581E-06 -0.581E-06
 -25.926 -0.384E-06 -0.384E-06
 -25.916 -0.173E-06 -0.173E-06
 -25.906  0.516E-07  0.516E-07
 -25.896  0.290E-06  0.290E-06
 -25.886  0.542E-06  0.542E-06
 -25.876  0.808E-06  0.808E-06
 -25.866  0.109E-05  0.109E-05
 -25.856  0.139E-05  0.139E-05
 -25.846  0.170E-05  0.170E-05
 -25.836  0.202E-05  0.202E-05
 -25.826  0.236E-05  0.236E-05
 -25.816  0.272E-05  0.272E-05
 -25.806  0.309E-05  0.309E-05
 -25.796  0.348E-05  0.348E-05
 -25.786  0.389E-05  0.389E-05
 -25.776  0.431E-05  0.431E-05
 -25.766  0.474E-05  0.474E-05
 -25.756  0.519E-05  0.519E-05
 -25.746  0.566E-05  0.566E-05
 -25.736  0.614E-05  0.614E-05
 -25.726  0.664E-05  0.664E-05
 -25.716  0.716E-05  0.716E-05
 -25.706  0.769E-05  0.769E-05
 -25.696  0.823E-05  0.823E-05
 -25.686  0.879E-05  0.879E-05
 -25.676  0.936E-05  0.936E-05
 -25.666  0.995E-05  0.995E-05
 -25.656  0.106E-04  0.106E-04
 -25.646  0.112E-04  0.112E-04
 -25.636  0.118E-04  0.118E-04
 -25.626  0.124E-04  0.124E-04
 -25.616  0.131E-04  0.131E-04
 -25.606  0.138E-04  0.138E-04
 -25.596  0.144E-04  0.144E-04
 -25.586  0.151E-04  0.151E-04
 -25.576  0.158E-04  0.158E-04
 -25.566  0.165E-04  0.165E-04
 -25.556  0.172E-04  0.172E-04
 -25.546  0.179E-04  0.179E-04
 -25.536  0.187E-04  0.187E-04
 -25.526  0.194E-04  0.194E-04
 -25.516  0.201E-04  0.201E-04
 -25.506  0.209E-04  0.209E-04
 -25.496  0.216E-04  0.216E-04
 -25.486  0.224E-04  0.224E-04
 -25.476  0.231E-04  0.231E-04
 -25.466  0.239E-04  0.239E-04
 -25.456  0.246E-04  0.246E-04
 -25.446  0.254E-04  0.254E-04
 -25.436  0.261E-04  0.261E-04
 -25.426  0.268E-04  0.268E-04
 -25.416  0.276E-04  0.276E-04
 -25.406  0.283E-04  0.283E-04
 -25.396  0.290E-04  0.290E-04
 -25.386  0.297E-04  0.297E-04
 -25.376  0.304E-04  0.304E-04
 -25.366  0.311E-04  0.311E-04
 -25.356  0.318E-04  0.318E-04
 -25.346  0.325E-04  0.325E-04
 -25.336  0.332E-04  0.332E-04
 -25.326  0.338E-04  0.338E-04
 -25.316  0.344E-04  0.344E-04
 -25.306  0.350E-04  0.350E-04
 -25.296  0.356E-04  0.356E-04
 -25.286  0.362E-04  0.362E-04
 -25.276  0.368E-04  0.368E-04
 -25.266  0.373E-04  0.373E-04
 -25.256  0.378E-04  0.378E-04
 -25.246  0.383E-04  0.383E-04
 -25.236  0.388E-04  0.388E-04
 -25.226  0.392E-04  0.392E-04
 -25.216  0.396E-04  0.396E-04
 -25.206  0.400E-04  0.400E-04
 -25.196  0.404E-04  0.404E-04
 -25.186  0.407E-04  0.407E-04
 -25.176  0.410E-04  0.410E-04
 -25.166  0.413E-04  0.413E-04
 -25.156  0.416E-04  0.416E-04
 -25.146  0.418E-04  0.418E-04
 -25.136  0.420E-04  0.420E-04
 -25.126  0.422E-04  0.422E-04
 -25.116  0.423E-04  0.423E-04
 -25.106  0.424E-04  0.424E-04
 -25.096  0.425E-04  0.425E-04
 -25.086  0.426E-04  0.426E-04
 -25.076  0.426E-04  0.426E-04
 -25.066  0.426E-04  0.426E-04
 -25.056  0.425E-04  0.425E-04
 -25.046  0.425E-04  0.425E-04
 -25.036  0.424E-04  0.424E-04
 -25.026  0.422E-04  0.422E-04
 -25.016  0.421E-04  0.421E-04
 -25.006  0.419E-04  0.419E-04
 -24.996  0.416E-04  0.416E-04
 -24.986  0.414E-04  0.414E-04
 -24.976  0.411E-04  0.411E-04
 -24.966  0.408E-04  0.408E-04
 -24.956  0.405E-04  0.405E-04
 -24.946  0.401E-04  0.401E-04
 -24.936  0.397E-04  0.397E-04
 -24.926  0.393E-04  0.393E-04
 -24.916  0.389E-04  0.389E-04
 -24.906  0.384E-04  0.384E-04
 -24.896  0.379E-04  0.379E-04
 -24.886  0.374E-04  0.374E-04
 -24.876  0.369E-04  0.369E-04
 -24.866  0.363E-04  0.363E-04
 -24.856  0.357E-04  0.357E-04
 -24.846  0.351E-04  0.351E-04
 -24.836  0.345E-04  0.345E-04
 -24.826  0.339E-04  0.339E-04
 -24.816  0.333E-04  0.333E-04
 -24.806  0.326E-04  0.326E-04
 -24.796  0.320E-04  0.320E-04
 -24.786  0.313E-04  0.313E-04
 -24.776  0.306E-04  0.306E-04
 -24.766  0.299E-04  0.299E-04
 -24.756  0.292E-04  0.292E-04
 -24.746  0.284E-04  0.284E-04
 -24.736  0.277E-04  0.277E-04
 -24.726  0.270E-04  0.270E-04
 -24.716  0.262E-04  0.262E-04
 -24.706  0.255E-04  0.255E-04
 -24.696  0.248E-04  0.248E-04
 -24.686  0.240E-04  0.240E-04
 -24.676  0.233E-04  0.233E-04
 -24.666  0.225E-04  0.225E-04
 -24.656  0.218E-04  0.218E-04
 -24.646  0.210E-04  0.210E-04
 -24.636  0.203E-04  0.203E-04
 -24.626  0.195E-04  0.195E-04
 -24.616  0.188E-04  0.188E-04
 -24.606  0.181E-04  0.181E-04
 -24.596  0.174E-04  0.174E-04
 -24.586  0.166E-04  0.166E-04
 -24.576  0.159E-04  0.159E-04
 -24.566  0.152E-04  0.152E-04
 -24.556  0.146E-04  0.146E-04
 -24.546  0.139E-04  0.139E-04
 -24.536  0.132E-04  0.132E-04
 -24.526  0.126E-04  0.126E-04
 -24.516  0.119E-04  0.119E-04
 -24.506  0.113E-04  0.113E-04
 -24.496  0.107E-04  0.107E-04
 -24.486  0.101E-04  0.101E-04
 -24.476  0.947E-05  0.947E-05
 -24.466  0.890E-05  0.890E-05
 -24.456  0.833E-05  0.833E-05
 -24.446  0.779E-05  0.779E-05
 -24.436  0.725E-05  0.725E-05
 -24.426  0.674E-05  0.674E-05
 -24.416  0.623E-05  0.623E-05
 -24.406  0.575E-05  0.575E-05
 -24.396  0.528E-05  0.528E-05
 -24.386  0.482E-05  0.482E-05
 -24.376  0.438E-05  0.438E-05
 -24.366  0.396E-05  0.396E-05
 -24.356  0.355E-05  0.355E-05
 -24.346  0.316E-05  0.316E-05
 -24.336  0.279E-05  0.279E-05
 -24.326  0.243E-05  0.243E-05
 -24.316  0.208E-05  0.208E-05
 -24.306  0.176E-05  0.176E-05
 -24.296  0.144E-05  0.144E-05
 -24.286  0.114E-05  0.114E-05
 -24.276  0.859E-06  0.859E-06
 -24.266  0.590E-06  0.590E-06
 -24.256  0.335E-06  0.335E-06
 -24.246  0.948E-07  0.948E-07
 -24.236 -0.132E-06 -0.132E-06
 -24.226 -0.345E-06 -0.345E-06
 -24.216 -0.546E-06 -0.546E-06
 -24.206 -0.733E-06 -0.733E-06
 -24.196 -0.908E-06 -0.908E-06
 -24.186 -0.107E-05 -0.107E-05
 -24.176 -0.122E-05 -0.122E-05
 -24.166 -0.136E-05 -0.136E-05
 -24.156 -0.149E-05 -0.149E-05
 -24.146 -0.161E-05 -0.161E-05
 -24.136 -0.171E-05 -0.171E-05
 -24.126 -0.181E-05 -0.181E-05
 -24.116 -0.190E-05 -0.190E-05
 -24.106 -0.197E-05 -0.197E-05
 -24.096 -0.204E-05 -0.204E-05
 -24.086 -0.210E-05 -0.210E-05
 -24.076 -0.216E-05 -0.216E-05
 -24.066 -0.220E-05 -0.220E-05
 -24.056 -0.224E-05 -0.224E-05
 -24.046 -0.227E-05 -0.227E-05
 -24.036 -0.229E-05 -0.229E-05
 -24.026 -0.231E-05 -0.231E-05
 -24.016 -0.232E-05 -0.232E-05
 -24.006 -0.233E-05 -0.233E-05
 -23.996 -0.233E-05 -0.233E-05
 -23.986 -0.233E-05 -0.233E-05
 -23.976 -0.232E-05 -0.232E-05
 -23.966 -0.230E-05 -0.230E-05
 -23.956 -0.229E-05 -0.229E-05
 -23.946 -0.227E-05 -0.227E-05
 -23.936 -0.224E-05 -0.224E-05
 -23.926 -0.222E-05 -0.222E-05
 -23.916 -0.219E-05 -0.219E-05
 -23.906 -0.215E-05 -0.215E-05
 -23.896 -0.212E-05 -0.212E-05
 -23.886 -0.208E-05 -0.208E-05
 -23.876 -0.204E-05 -0.204E-05
 -23.866 -0.200E-05 -0.200E-05
 -23.856 -0.196E-05 -0.196E-05
 -23.846 -0.191E-05 -0.191E-05
 -23.836 -0.187E-05 -0.187E-05
 -23.826 -0.182E-05 -0.182E-05
 -23.816 -0.178E-05 -0.178E-05
 -23.806 -0.173E-05 -0.173E-05
 -23.796 -0.168E-05 -0.168E-05
 -23.786 -0.164E-05 -0.164E-05
 -23.776 -0.159E-05 -0.159E-05
 -23.766 -0.154E-05 -0.154E-05
 -23.756 -0.149E-05 -0.149E-05
 -23.746 -0.145E-05 -0.145E-05
 -23.736 -0.140E-05 -0.140E-05
 -23.726 -0.135E-05 -0.135E-05
 -23.716 -0.131E-05 -0.131E-05
 -23.706 -0.126E-05 -0.126E-05
 -23.696 -0.122E-05 -0.122E-05
 -23.686 -0.117E-05 -0.117E-05
 -23.676 -0.113E-05 -0.113E-05
 -23.666 -0.109E-05 -0.109E-05
 -23.656 -0.104E-05 -0.104E-05
 -23.646 -0.100E-05 -0.100E-05
 -23.636 -0.962E-06 -0.962E-06
 -23.626 -0.923E-06 -0.923E-06
 -23.616 -0.885E-06 -0.885E-06
 -23.606 -0.847E-06 -0.847E-06
 -23.596 -0.811E-06 -0.811E-06
 -23.586 -0.776E-06 -0.776E-06
 -23.576 -0.742E-06 -0.742E-06
 -23.566 -0.708E-06 -0.708E-06
 -23.556 -0.676E-06 -0.676E-06
 -23.546 -0.645E-06 -0.645E-06
 -23.536 -0.615E-06 -0.615E-06
 -23.526 -0.586E-06 -0.586E-06
 -23.516 -0.558E-06 -0.558E-06
 -23.506 -0.531E-06 -0.531E-06
 -23.496 -0.505E-06 -0.505E-06
 -23.486 -0.480E-06 -0.480E-06
 -23.476 -0.455E-06 -0.455E-06
 -23.466 -0.432E-06 -0.432E-06
 -23.456 -0.410E-06 -0.410E-06
 -23.446 -0.389E-06 -0.389E-06
 -23.436 -0.368E-06 -0.368E-06
 -23.426 -0.349E-06 -0.349E-06
 -23.416 -0.330E-06 -0.330E-06
 -23.406 -0.312E-06 -0.312E-06
 -23.396 -0.295E-06 -0.295E-06
 -23.386 -0.278E-06 -0.278E-06
 -23.376 -0.263E-06 -0.263E-06
 -23.366 -0.248E-06 -0.248E-06
 -23.356 -0.234E-06 -0.234E-06
 -23.346 -0.220E-06 -0.220E-06
 -23.336 -0.208E-06 -0.208E-06
 -23.326 -0.195E-06 -0.195E-06
 -23.316 -0.184E-06 -0.184E-06
 -23.306 -0.173E-06 -0.173E-06
 -23.296 -0.162E-06 -0.162E-06
 -23.286 -0.152E-06 -0.152E-06
 -23.276 -0.143E-06 -0.143E-06
 -23.266 -0.134E-06 -0.134E-06
 -23.256 -0.126E-06 -0.126E-06
 -23.246 -0.118E-06 -0.118E-06
 -23.236 -0.110E-06 -0.110E-06
 -23.226 -0.103E-06 -0.103E-06
 -23.216 -0.968E-07 -0.968E-07
 -23.206 -0.905E-07 -0.905E-07
 -23.196 -0.846E-07 -0.846E-07
 -23.186 -0.790E-07 -0.790E-07
 -23.176 -0.737E-07 -0.737E-07
 -23.166 -0.688E-07 -0.688E-07
 -23.156 -0.642E-07 -0.642E-07
 -23.146 -0.598E-07 -0.598E-07
 -23.136 -0.557E-07 -0.557E-07
 -23.126 -0.519E-07 -0.519E-07
 -23.116 -0.483E-07 -0.483E-07
 -23.106 -0.449E-07 -0.449E-07
 -23.096 -0.417E-07 -0.417E-07
 -23.086 -0.388E-07 -0.388E-07
 -23.076 -0.360E-07 -0.360E-07
 -23.066 -0.334E-07 -0.334E-07
 -23.056 -0.310E-07 -0.310E-07
 -23.046 -0.288E-07 -0.288E-07
 -23.036 -0.267E-07 -0.267E-07
 -23.026 -0.247E-07 -0.247E-07
 -23.016 -0.229E-07 -0.229E-07
 -23.006 -0.212E-07 -0.212E-07
 -22.996 -0.196E-07 -0.196E-07
 -22.986 -0.181E-07 -0.181E-07
 -22.976 -0.168E-07 -0.168E-07
 -22.966 -0.155E-07 -0.155E-07
 -22.956 -0.143E-07 -0.143E-07
 -22.946 -0.132E-07 -0.132E-07
 -22.936 -0.122E-07 -0.122E-07
 -22.926 -0.113E-07 -0.113E-07
 -22.916 -0.104E-07 -0.104E-07
 -22.906 -0.963E-08 -0.963E-08
 -22.896 -0.889E-08 -0.889E-08
 -22.886 -0.821E-08 -0.821E-08
 -22.876 -0.759E-08 -0.759E-08
 -22.866 -0.702E-08 -0.702E-08
 -22.856 -0.649E-08 -0.649E-08
 -22.846 -0.601E-08 -0.601E-08
 -22.836 -0.557E-08 -0.557E-08
 -22.826 -0.518E-08 -0.518E-08
 -22.816 -0.482E-08 -0.482E-08
 -22.806 -0.449E-08 -0.449E-08
 -22.796 -0.420E-08 -0.420E-08
 -22.786 -0.394E-08 -0.394E-08
 -22.776 -0.372E-08 -0.372E-08
 -22.766 -0.352E-08 -0.352E-08
 -22.756 -0.334E-08 -0.334E-08
 -22.746 -0.320E-08 -0.320E-08
 -22.736 -0.308E-08 -0.308E-08
 -22.726 -0.299E-08 -0.299E-08
 -22.716 -0.292E-08 -0.292E-08
 -22.706 -0.287E-08 -0.287E-08
 -22.696 -0.285E-08 -0.285E-08
 -22.686 -0.285E-08 -0.285E-08
 -22.676 -0.288E-08 -0.288E-08
 -22.666 -0.293E-08 -0.293E-08
 -22.656 -0.300E-08 -0.300E-08
 -22.646 -0.310E-08 -0.310E-08
 -22.636 -0.323E-08 -0.323E-08
 -22.626 -0.338E-08 -0.338E-08
 -22.616 -0.355E-08 -0.355E-08
 -22.606 -0.376E-08 -0.376E-08
 -22.596 -0.400E-08 -0.400E-08
 -22.586 -0.426E-08 -0.426E-08
 -22.576 -0.456E-08 -0.456E-08
 -22.566 -0.490E-08 -0.490E-08
 -22.556 -0.527E-08 -0.527E-08
 -22.546 -0.568E-08 -0.568E-08
 -22.536 -0.613E-08 -0.613E-08
 -22.526 -0.663E-08 -0.663E-08
 -22.516 -0.717E-08 -0.717E-08
 -22.506 -0.777E-08 -0.777E-08
 -22.496 -0.841E-08 -0.841E-08
 -22.486 -0.912E-08 -0.912E-08
 -22.476 -0.988E-08 -0.988E-08
 -22.466 -0.107E-07 -0.107E-07
 -22.456 -0.116E-07 -0.116E-07
 -22.446 -0.126E-07 -0.126E-07
 -22.436 -0.136E-07 -0.136E-07
 -22.426 -0.148E-07 -0.148E-07
 -22.416 -0.160E-07 -0.160E-07
 -22.406 -0.173E-07 -0.173E-07
 -22.396 -0.188E-07 -0.188E-07
 -22.386 -0.203E-07 -0.203E-07
 -22.376 -0.220E-07 -0.220E-07
 -22.366 -0.238E-07 -0.238E-07
 -22.356 -0.257E-07 -0.257E-07
 -22.346 -0.277E-07 -0.277E-07
 -22.336 -0.299E-07 -0.299E-07
 -22.326 -0.323E-07 -0.323E-07
 -22.316 -0.349E-07 -0.349E-07
 -22.306 -0.376E-07 -0.376E-07
 -22.296 -0.405E-07 -0.405E-07
 -22.286 -0.437E-07 -0.437E-07
 -22.276 -0.470E-07 -0.470E-07
 -22.266 -0.506E-07 -0.506E-07
 -22.256 -0.544E-07 -0.544E-07
 -22.246 -0.585E-07 -0.585E-07
 -22.236 -0.628E-07 -0.628E-07
 -22.226 -0.675E-07 -0.675E-07
 -22.216 -0.724E-07 -0.724E-07
 -22.206 -0.777E-07 -0.777E-07
 -22.196 -0.833E-07 -0.833E-07
 -22.186 -0.893E-07 -0.893E-07
 -22.176 -0.956E-07 -0.956E-07
 -22.166 -0.102E-06 -0.102E-06
 -22.156 -0.110E-06 -0.110E-06
 -22.146 -0.117E-06 -0.117E-06
 -22.136 -0.125E-06 -0.125E-06
 -22.126 -0.134E-06 -0.134E-06
 -22.116 -0.143E-06 -0.143E-06
 -22.106 -0.152E-06 -0.152E-06
 -22.096 -0.163E-06 -0.163E-06
 -22.086 -0.173E-06 -0.173E-06
 -22.076 -0.185E-06 -0.185E-06
 -22.066 -0.196E-06 -0.196E-06
 -22.056 -0.209E-06 -0.209E-06
 -22.046 -0.222E-06 -0.222E-06
 -22.036 -0.236E-06 -0.236E-06
 -22.026 -0.251E-06 -0.251E-06
 -22.016 -0.267E-06 -0.267E-06
 -22.006 -0.283E-06 -0.283E-06
 -21.996 -0.300E-06 -0.300E-06
 -21.986 -0.318E-06 -0.318E-06
 -21.976 -0.337E-06 -0.337E-06
 -21.966 -0.357E-06 -0.357E-06
 -21.956 -0.377E-06 -0.377E-06
 -21.946 -0.399E-06 -0.399E-06
 -21.936 -0.421E-06 -0.421E-06
 -21.926 -0.445E-06 -0.445E-06
 -21.916 -0.470E-06 -0.470E-06
 -21.906 -0.496E-06 -0.496E-06
 -21.896 -0.522E-06 -0.522E-06
 -21.886 -0.550E-06 -0.550E-06
 -21.876 -0.580E-06 -0.580E-06
 -21.866 -0.610E-06 -0.610E-06
 -21.856 -0.641E-06 -0.641E-06
 -21.846 -0.674E-06 -0.674E-06
 -21.836 -0.708E-06 -0.708E-06
 -21.826 -0.743E-06 -0.743E-06
 -21.816 -0.779E-06 -0.779E-06
 -21.806 -0.817E-06 -0.817E-06
 -21.796 -0.856E-06 -0.856E-06
 -21.786 -0.896E-06 -0.896E-06
 -21.776 -0.937E-06 -0.937E-06
 -21.766 -0.979E-06 -0.979E-06
 -21.756 -0.102E-05 -0.102E-05
 -21.746 -0.107E-05 -0.107E-05
 -21.736 -0.111E-05 -0.111E-05
 -21.726 -0.116E-05 -0.116E-05
 -21.716 -0.121E-05 -0.121E-05
 -21.706 -0.126E-05 -0.126E-05
 -21.696 -0.131E-05 -0.131E-05
 -21.686 -0.136E-05 -0.136E-05
 -21.676 -0.141E-05 -0.141E-05
 -21.666 -0.147E-05 -0.147E-05
 -21.656 -0.152E-05 -0.152E-05
 -21.646 -0.158E-05 -0.158E-05
 -21.636 -0.163E-05 -0.163E-05
 -21.626 -0.169E-05 -0.169E-05
 -21.616 -0.175E-05 -0.175E-05
 -21.606 -0.180E-05 -0.180E-05
 -21.596 -0.186E-05 -0.186E-05
 -21.586 -0.192E-05 -0.192E-05
 -21.576 -0.197E-05 -0.197E-05
 -21.566 -0.203E-05 -0.203E-05
 -21.556 -0.209E-05 -0.209E-05
 -21.546 -0.214E-05 -0.214E-05
 -21.536 -0.220E-05 -0.220E-05
 -21.526 -0.225E-05 -0.225E-05
 -21.516 -0.231E-05 -0.231E-05
 -21.506 -0.236E-05 -0.236E-05
 -21.496 -0.241E-05 -0.241E-05
 -21.486 -0.246E-05 -0.246E-05
 -21.476 -0.251E-05 -0.251E-05
 -21.466 -0.255E-05 -0.255E-05
 -21.456 -0.259E-05 -0.259E-05
 -21.446 -0.263E-05 -0.263E-05
 -21.436 -0.267E-05 -0.267E-05
 -21.426 -0.270E-05 -0.270E-05
 -21.416 -0.273E-05 -0.273E-05
 -21.406 -0.275E-05 -0.275E-05
 -21.396 -0.277E-05 -0.277E-05
 -21.386 -0.279E-05 -0.279E-05
 -21.376 -0.280E-05 -0.280E-05
 -21.366 -0.280E-05 -0.280E-05
 -21.356 -0.280E-05 -0.280E-05
 -21.346 -0.279E-05 -0.279E-05
 -21.336 -0.278E-05 -0.278E-05
 -21.326 -0.275E-05 -0.275E-05
 -21.316 -0.273E-05 -0.273E-05
 -21.306 -0.269E-05 -0.269E-05
 -21.296 -0.264E-05 -0.264E-05
 -21.286 -0.259E-05 -0.259E-05
 -21.276 -0.252E-05 -0.252E-05
 -21.266 -0.245E-05 -0.245E-05
 -21.256 -0.236E-05 -0.236E-05
 -21.246 -0.227E-05 -0.227E-05
 -21.236 -0.216E-05 -0.216E-05
 -21.226 -0.205E-05 -0.205E-05
 -21.216 -0.192E-05 -0.192E-05
 -21.206 -0.177E-05 -0.177E-05
 -21.196 -0.162E-05 -0.162E-05
 -21.186 -0.145E-05 -0.145E-05
 -21.176 -0.127E-05 -0.127E-05
 -21.166 -0.107E-05 -0.107E-05
 -21.156 -0.860E-06 -0.860E-06
 -21.146 -0.634E-06 -0.634E-06
 -21.136 -0.392E-06 -0.392E-06
 -21.126 -0.134E-06 -0.134E-06
 -21.116  0.140E-06  0.140E-06
 -21.106  0.431E-06  0.431E-06
 -21.096  0.738E-06  0.738E-06
 -21.086  0.106E-05  0.106E-05
 -21.076  0.141E-05  0.141E-05
 -21.066  0.177E-05  0.177E-05
 -21.056  0.214E-05  0.214E-05
 -21.046  0.254E-05  0.254E-05
 -21.036  0.296E-05  0.296E-05
 -21.026  0.339E-05  0.339E-05
 -21.016  0.384E-05  0.384E-05
 -21.006  0.431E-05  0.431E-05
 -20.996  0.480E-05  0.480E-05
 -20.986  0.531E-05  0.531E-05
 -20.976  0.584E-05  0.584E-05
 -20.966  0.639E-05  0.639E-05
 -20.956  0.695E-05  0.695E-05
 -20.946  0.754E-05  0.754E-05
 -20.936  0.814E-05  0.814E-05
 -20.926  0.876E-05  0.876E-05
 -20.916  0.940E-05  0.940E-05
 -20.906  0.101E-04  0.101E-04
 -20.896  0.107E-04  0.107E-04
 -20.886  0.114E-04  0.114E-04
 -20.876  0.121E-04  0.121E-04
 -20.866  0.129E-04  0.129E-04
 -20.856  0.136E-04  0.136E-04
 -20.846  0.144E-04  0.144E-04
 -20.836  0.151E-04  0.151E-04
 -20.826  0.159E-04  0.159E-04
 -20.816  0.167E-04  0.167E-04
 -20.806  0.175E-04  0.175E-04
 -20.796  0.184E-04  0.184E-04
 -20.786  0.192E-04  0.192E-04
 -20.776  0.200E-04  0.200E-04
 -20.766  0.209E-04  0.209E-04
 -20.756  0.218E-04  0.218E-04
 -20.746  0.226E-04  0.226E-04
 -20.736  0.235E-04  0.235E-04
 -20.726  0.244E-04  0.244E-04
 -20.716  0.253E-04  0.253E-04
 -20.706  0.262E-04  0.262E-04
 -20.696  0.271E-04  0.271E-04
 -20.686  0.279E-04  0.279E-04
 -20.676  0.288E-04  0.288E-04
 -20.666  0.297E-04  0.297E-04
 -20.656  0.306E-04  0.306E-04
 -20.646  0.315E-04  0.315E-04
 -20.636  0.324E-04  0.324E-04
 -20.626  0.333E-04  0.333E-04
 -20.616  0.341E-04  0.341E-04
 -20.606  0.350E-04  0.350E-04
 -20.596  0.358E-04  0.358E-04
 -20.586  0.367E-04  0.367E-04
 -20.576  0.375E-04  0.375E-04
 -20.566  0.383E-04  0.383E-04
 -20.556  0.391E-04  0.391E-04
 -20.546  0.398E-04  0.398E-04
 -20.536  0.406E-04  0.406E-04
 -20.526  0.413E-04  0.413E-04
 -20.516  0.421E-04  0.421E-04
 -20.506  0.427E-04  0.427E-04
 -20.496  0.434E-04  0.434E-04
 -20.486  0.441E-04  0.441E-04
 -20.476  0.447E-04  0.447E-04
 -20.466  0.453E-04  0.453E-04
 -20.456  0.458E-04  0.458E-04
 -20.446  0.464E-04  0.464E-04
 -20.436  0.469E-04  0.469E-04
 -20.426  0.474E-04  0.474E-04
 -20.416  0.478E-04  0.478E-04
 -20.406  0.482E-04  0.482E-04
 -20.396  0.486E-04  0.486E-04
 -20.386  0.490E-04  0.490E-04
 -20.376  0.493E-04  0.493E-04
 -20.366  0.496E-04  0.496E-04
 -20.356  0.498E-04  0.498E-04
 -20.346  0.500E-04  0.500E-04
 -20.336  0.502E-04  0.502E-04
 -20.326  0.503E-04  0.503E-04
 -20.316  0.505E-04  0.505E-04
 -20.306  0.505E-04  0.505E-04
 -20.296  0.505E-04  0.505E-04
 -20.286  0.505E-04  0.505E-04
 -20.276  0.505E-04  0.505E-04
 -20.266  0.504E-04  0.504E-04
 -20.256  0.503E-04  0.503E-04
 -20.246  0.501E-04  0.501E-04
 -20.236  0.500E-04  0.500E-04
 -20.226  0.497E-04  0.497E-04
 -20.216  0.495E-04  0.495E-04
 -20.206  0.492E-04  0.492E-04
 -20.196  0.488E-04  0.488E-04
 -20.186  0.485E-04  0.485E-04
 -20.176  0.481E-04  0.481E-04
 -20.166  0.477E-04  0.477E-04
 -20.156  0.472E-04  0.472E-04
 -20.146  0.467E-04  0.467E-04
 -20.136  0.462E-04  0.462E-04
 -20.126  0.457E-04  0.457E-04
 -20.116  0.451E-04  0.451E-04
 -20.106  0.445E-04  0.445E-04
 -20.096  0.439E-04  0.439E-04
 -20.086  0.432E-04  0.432E-04
 -20.076  0.425E-04  0.425E-04
 -20.066  0.419E-04  0.419E-04
 -20.056  0.411E-04  0.411E-04
 -20.046  0.404E-04  0.404E-04
 -20.036  0.397E-04  0.397E-04
 -20.026  0.389E-04  0.389E-04
 -20.016  0.381E-04  0.381E-04
 -20.006  0.373E-04  0.373E-04
 -19.996  0.365E-04  0.365E-04
 -19.986  0.357E-04  0.357E-04
 -19.976  0.349E-04  0.349E-04
 -19.966  0.341E-04  0.341E-04
 -19.956  0.332E-04  0.332E-04
 -19.946  0.324E-04  0.324E-04
 -19.936  0.315E-04  0.315E-04
 -19.926  0.307E-04  0.307E-04
 -19.916  0.299E-04  0.299E-04
 -19.906  0.290E-04  0.290E-04
 -19.896  0.282E-04  0.282E-04
 -19.886  0.273E-04  0.273E-04
 -19.876  0.265E-04  0.265E-04
 -19.866  0.257E-04  0.257E-04
 -19.856  0.248E-04  0.248E-04
 -19.846  0.240E-04  0.240E-04
 -19.836  0.232E-04  0.232E-04
 -19.826  0.224E-04  0.224E-04
 -19.816  0.217E-04  0.217E-04
 -19.806  0.209E-04  0.209E-04
 -19.796  0.202E-04  0.202E-04
 -19.786  0.194E-04  0.194E-04
 -19.776  0.187E-04  0.187E-04
 -19.766  0.180E-04  0.180E-04
 -19.756  0.173E-04  0.173E-04
 -19.746  0.167E-04  0.167E-04
 -19.736  0.160E-04  0.160E-04
 -19.726  0.154E-04  0.154E-04
 -19.716  0.148E-04  0.148E-04
 -19.706  0.142E-04  0.142E-04
 -19.696  0.137E-04  0.137E-04
 -19.686  0.131E-04  0.131E-04
 -19.676  0.126E-04  0.126E-04
 -19.666  0.121E-04  0.121E-04
 -19.656  0.117E-04  0.117E-04
 -19.646  0.112E-04  0.112E-04
 -19.636  0.108E-04  0.108E-04
 -19.626  0.104E-04  0.104E-04
 -19.616  0.101E-04  0.101E-04
 -19.606  0.973E-05  0.973E-05
 -19.596  0.941E-05  0.941E-05
 -19.586  0.911E-05  0.911E-05
 -19.576  0.885E-05  0.885E-05
 -19.566  0.860E-05  0.860E-05
 -19.556  0.838E-05  0.838E-05
 -19.546  0.818E-05  0.818E-05
 -19.536  0.801E-05  0.801E-05
 -19.526  0.785E-05  0.785E-05
 -19.516  0.772E-05  0.772E-05
 -19.506  0.762E-05  0.762E-05
 -19.496  0.753E-05  0.753E-05
 -19.486  0.747E-05  0.747E-05
 -19.476  0.742E-05  0.742E-05
 -19.466  0.740E-05  0.740E-05
 -19.456  0.739E-05  0.739E-05
 -19.446  0.740E-05  0.740E-05
 -19.436  0.743E-05  0.743E-05
 -19.426  0.748E-05  0.748E-05
 -19.416  0.754E-05  0.754E-05
 -19.406  0.762E-05  0.762E-05
 -19.396  0.771E-05  0.771E-05
 -19.386  0.782E-05  0.782E-05
 -19.376  0.794E-05  0.794E-05
 -19.366  0.807E-05  0.807E-05
 -19.356  0.821E-05  0.821E-05
 -19.346  0.837E-05  0.837E-05
 -19.336  0.853E-05  0.853E-05
 -19.326  0.870E-05  0.870E-05
 -19.316  0.888E-05  0.888E-05
 -19.306  0.907E-05  0.907E-05
 -19.296  0.927E-05  0.927E-05
 -19.286  0.946E-05  0.946E-05
 -19.276  0.967E-05  0.967E-05
 -19.266  0.987E-05  0.987E-05
 -19.256  0.101E-04  0.101E-04
 -19.246  0.103E-04  0.103E-04
 -19.236  0.105E-04  0.105E-04
 -19.226  0.107E-04  0.107E-04
 -19.216  0.109E-04  0.109E-04
 -19.206  0.111E-04  0.111E-04
 -19.196  0.114E-04  0.114E-04
 -19.186  0.116E-04  0.116E-04
 -19.176  0.118E-04  0.118E-04
 -19.166  0.120E-04  0.120E-04
 -19.156  0.122E-04  0.122E-04
 -19.146  0.124E-04  0.124E-04
 -19.136  0.125E-04  0.125E-04
 -19.126  0.127E-04  0.127E-04
 -19.116  0.129E-04  0.129E-04
 -19.106  0.130E-04  0.130E-04
 -19.096  0.132E-04  0.132E-04
 -19.086  0.133E-04  0.133E-04
 -19.076  0.135E-04  0.135E-04
 -19.066  0.136E-04  0.136E-04
 -19.056  0.137E-04  0.137E-04
 -19.046  0.138E-04  0.138E-04
 -19.036  0.139E-04  0.139E-04
 -19.026  0.140E-04  0.140E-04
 -19.016  0.141E-04  0.141E-04
 -19.006  0.141E-04  0.141E-04
 -18.996  0.142E-04  0.142E-04
 -18.986  0.142E-04  0.142E-04
 -18.976  0.143E-04  0.143E-04
 -18.966  0.143E-04  0.143E-04
 -18.956  0.143E-04  0.143E-04
 -18.946  0.143E-04  0.143E-04
 -18.936  0.143E-04  0.143E-04
 -18.926  0.142E-04  0.142E-04
 -18.916  0.142E-04  0.142E-04
 -18.906  0.141E-04  0.141E-04
 -18.896  0.141E-04  0.141E-04
 -18.886  0.140E-04  0.140E-04
 -18.876  0.139E-04  0.139E-04
 -18.866  0.138E-04  0.138E-04
 -18.856  0.137E-04  0.137E-04
 -18.846  0.135E-04  0.135E-04
 -18.836  0.134E-04  0.134E-04
 -18.826  0.133E-04  0.133E-04
 -18.816  0.131E-04  0.131E-04
 -18.806  0.129E-04  0.129E-04
 -18.796  0.128E-04  0.128E-04
 -18.786  0.126E-04  0.126E-04
 -18.776  0.124E-04  0.124E-04
 -18.766  0.122E-04  0.122E-04
 -18.756  0.120E-04  0.120E-04
 -18.746  0.118E-04  0.118E-04
 -18.736  0.115E-04  0.115E-04
 -18.726  0.113E-04  0.113E-04
 -18.716  0.111E-04  0.111E-04
 -18.706  0.108E-04  0.108E-04
 -18.696  0.106E-04  0.106E-04
 -18.686  0.103E-04  0.103E-04
 -18.676  0.101E-04  0.101E-04
 -18.666  0.981E-05  0.981E-05
 -18.656  0.954E-05  0.954E-05
 -18.646  0.927E-05  0.927E-05
 -18.636  0.899E-05  0.899E-05
 -18.626  0.871E-05  0.871E-05
 -18.616  0.843E-05  0.843E-05
 -18.606  0.815E-05  0.815E-05
 -18.596  0.786E-05  0.786E-05
 -18.586  0.757E-05  0.757E-05
 -18.576  0.729E-05  0.729E-05
 -18.566  0.700E-05  0.700E-05
 -18.556  0.671E-05  0.671E-05
 -18.546  0.642E-05  0.642E-05
 -18.536  0.613E-05  0.613E-05
 -18.526  0.584E-05  0.584E-05
 -18.516  0.555E-05  0.555E-05
 -18.506  0.526E-05  0.526E-05
 -18.496  0.497E-05  0.497E-05
 -18.486  0.469E-05  0.469E-05
 -18.476  0.440E-05  0.440E-05
 -18.466  0.412E-05  0.412E-05
 -18.456  0.384E-05  0.384E-05
 -18.446  0.357E-05  0.357E-05
 -18.436  0.329E-05  0.329E-05
 -18.426  0.302E-05  0.302E-05
 -18.416  0.275E-05  0.275E-05
 -18.406  0.249E-05  0.249E-05
 -18.396  0.222E-05  0.222E-05
 -18.386  0.197E-05  0.197E-05
 -18.376  0.171E-05  0.171E-05
 -18.366  0.146E-05  0.146E-05
 -18.356  0.121E-05  0.121E-05
 -18.346  0.968E-06  0.968E-06
 -18.336  0.728E-06  0.728E-06
 -18.326  0.493E-06  0.493E-06
 -18.316  0.261E-06  0.261E-06
 -18.306  0.344E-07  0.344E-07
 -18.296 -0.188E-06 -0.188E-06
 -18.286 -0.407E-06 -0.407E-06
 -18.276 -0.621E-06 -0.621E-06
 -18.266 -0.830E-06 -0.830E-06
 -18.256 -0.104E-05 -0.104E-05
 -18.246 -0.124E-05 -0.124E-05
 -18.236 -0.143E-05 -0.143E-05
 -18.226 -0.162E-05 -0.162E-05
 -18.216 -0.181E-05 -0.181E-05
 -18.206 -0.199E-05 -0.199E-05
 -18.196 -0.217E-05 -0.217E-05
 -18.186 -0.234E-05 -0.234E-05
 -18.176 -0.251E-05 -0.251E-05
 -18.166 -0.267E-05 -0.267E-05
 -18.156 -0.282E-05 -0.282E-05
 -18.146 -0.297E-05 -0.297E-05
 -18.136 -0.312E-05 -0.312E-05
 -18.126 -0.326E-05 -0.326E-05
 -18.116 -0.340E-05 -0.340E-05
 -18.106 -0.352E-05 -0.352E-05
 -18.096 -0.365E-05 -0.365E-05
 -18.086 -0.376E-05 -0.376E-05
 -18.076 -0.387E-05 -0.387E-05
 -18.066 -0.398E-05 -0.398E-05
 -18.056 -0.408E-05 -0.408E-05
 -18.046 -0.417E-05 -0.417E-05
 -18.036 -0.425E-05 -0.425E-05
 -18.026 -0.433E-05 -0.433E-05
 -18.016 -0.440E-05 -0.440E-05
 -18.006 -0.446E-05 -0.446E-05
 -17.996 -0.451E-05 -0.451E-05
 -17.986 -0.455E-05 -0.455E-05
 -17.976 -0.459E-05 -0.459E-05
 -17.966 -0.462E-05 -0.462E-05
 -17.956 -0.463E-05 -0.463E-05
 -17.946 -0.464E-05 -0.464E-05
 -17.936 -0.464E-05 -0.464E-05
 -17.926 -0.462E-05 -0.462E-05
 -17.916 -0.460E-05 -0.460E-05
 -17.906 -0.456E-05 -0.456E-05
 -17.896 -0.452E-05 -0.452E-05
 -17.886 -0.446E-05 -0.446E-05
 -17.876 -0.438E-05 -0.438E-05
 -17.866 -0.430E-05 -0.430E-05
 -17.856 -0.420E-05 -0.420E-05
 -17.846 -0.408E-05 -0.408E-05
 -17.836 -0.395E-05 -0.395E-05
 -17.826 -0.381E-05 -0.381E-05
 -17.816 -0.365E-05 -0.365E-05
 -17.806 -0.347E-05 -0.347E-05
 -17.796 -0.328E-05 -0.328E-05
 -17.786 -0.307E-05 -0.307E-05
 -17.776 -0.284E-05 -0.284E-05
 -17.766 -0.259E-05 -0.259E-05
 -17.756 -0.232E-05 -0.232E-05
 -17.746 -0.204E-05 -0.204E-05
 -17.736 -0.173E-05 -0.173E-05
 -17.726 -0.141E-05 -0.141E-05
 -17.716 -0.106E-05 -0.106E-05
 -17.706 -0.696E-06 -0.696E-06
 -17.696 -0.308E-06 -0.308E-06
 -17.686  0.103E-06  0.103E-06
 -17.676  0.536E-06  0.536E-06
 -17.666  0.992E-06  0.992E-06
 -17.656  0.147E-05  0.147E-05
 -17.646  0.197E-05  0.197E-05
 -17.636  0.250E-05  0.250E-05
 -17.626  0.305E-05  0.305E-05
 -17.616  0.362E-05  0.362E-05
 -17.606  0.422E-05  0.422E-05
 -17.596  0.484E-05  0.484E-05
 -17.586  0.549E-05  0.549E-05
 -17.576  0.616E-05  0.616E-05
 -17.566  0.686E-05  0.686E-05
 -17.556  0.758E-05  0.758E-05
 -17.546  0.832E-05  0.832E-05
 -17.536  0.909E-05  0.909E-05
 -17.526  0.989E-05  0.989E-05
 -17.516  0.107E-04  0.107E-04
 -17.506  0.115E-04  0.115E-04
 -17.496  0.124E-04  0.124E-04
 -17.486  0.133E-04  0.133E-04
 -17.476  0.142E-04  0.142E-04
 -17.466  0.151E-04  0.151E-04
 -17.456  0.161E-04  0.161E-04
 -17.446  0.171E-04  0.171E-04
 -17.436  0.181E-04  0.181E-04
 -17.426  0.191E-04  0.191E-04
 -17.416  0.201E-04  0.201E-04
 -17.406  0.212E-04  0.212E-04
 -17.396  0.222E-04  0.222E-04
 -17.386  0.233E-04  0.233E-04
 -17.376  0.244E-04  0.244E-04
 -17.366  0.255E-04  0.255E-04
 -17.356  0.267E-04  0.267E-04
 -17.346  0.278E-04  0.278E-04
 -17.336  0.289E-04  0.289E-04
 -17.326  0.301E-04  0.301E-04
 -17.316  0.313E-04  0.313E-04
 -17.306  0.324E-04  0.324E-04
 -17.296  0.336E-04  0.336E-04
 -17.286  0.348E-04  0.348E-04
 -17.276  0.360E-04  0.360E-04
 -17.266  0.372E-04  0.372E-04
 -17.256  0.384E-04  0.384E-04
 -17.246  0.395E-04  0.395E-04
 -17.236  0.407E-04  0.407E-04
 -17.226  0.419E-04  0.419E-04
 -17.216  0.431E-04  0.431E-04
 -17.206  0.442E-04  0.442E-04
 -17.196  0.454E-04  0.454E-04
 -17.186  0.465E-04  0.465E-04
 -17.176  0.477E-04  0.477E-04
 -17.166  0.488E-04  0.488E-04
 -17.156  0.499E-04  0.499E-04
 -17.146  0.509E-04  0.509E-04
 -17.136  0.520E-04  0.520E-04
 -17.126  0.530E-04  0.530E-04
 -17.116  0.541E-04  0.541E-04
 -17.106  0.551E-04  0.551E-04
 -17.096  0.560E-04  0.560E-04
 -17.086  0.570E-04  0.570E-04
 -17.076  0.579E-04  0.579E-04
 -17.066  0.588E-04  0.588E-04
 -17.056  0.596E-04  0.596E-04
 -17.046  0.604E-04  0.604E-04
 -17.036  0.612E-04  0.612E-04
 -17.026  0.620E-04  0.620E-04
 -17.016  0.627E-04  0.627E-04
 -17.006  0.634E-04  0.634E-04
 -16.996  0.640E-04  0.640E-04
 -16.986  0.646E-04  0.646E-04
 -16.976  0.652E-04  0.652E-04
 -16.966  0.657E-04  0.657E-04
 -16.956  0.662E-04  0.662E-04
 -16.946  0.666E-04  0.666E-04
 -16.936  0.670E-04  0.670E-04
 -16.926  0.674E-04  0.674E-04
 -16.916  0.677E-04  0.677E-04
 -16.906  0.680E-04  0.680E-04
 -16.896  0.682E-04  0.682E-04
 -16.886  0.684E-04  0.684E-04
 -16.876  0.685E-04  0.685E-04
 -16.866  0.686E-04  0.686E-04
 -16.856  0.687E-04  0.687E-04
 -16.846  0.687E-04  0.687E-04
 -16.836  0.687E-04  0.687E-04
 -16.826  0.686E-04  0.686E-04
 -16.816  0.685E-04  0.685E-04
 -16.806  0.683E-04  0.683E-04
 -16.796  0.681E-04  0.681E-04
 -16.786  0.679E-04  0.679E-04
 -16.776  0.676E-04  0.676E-04
 -16.766  0.673E-04  0.673E-04
 -16.756  0.670E-04  0.670E-04
 -16.746  0.666E-04  0.666E-04
 -16.736  0.661E-04  0.661E-04
 -16.726  0.657E-04  0.657E-04
 -16.716  0.652E-04  0.652E-04
 -16.706  0.646E-04  0.646E-04
 -16.696  0.641E-04  0.641E-04
 -16.686  0.635E-04  0.635E-04
 -16.676  0.629E-04  0.629E-04
 -16.666  0.622E-04  0.622E-04
 -16.656  0.615E-04  0.615E-04
 -16.646  0.608E-04  0.608E-04
 -16.636  0.601E-04  0.601E-04
 -16.626  0.593E-04  0.593E-04
 -16.616  0.586E-04  0.586E-04
 -16.606  0.578E-04  0.578E-04
 -16.596  0.570E-04  0.570E-04
 -16.586  0.561E-04  0.561E-04
 -16.576  0.553E-04  0.553E-04
 -16.566  0.544E-04  0.544E-04
 -16.556  0.536E-04  0.536E-04
 -16.546  0.527E-04  0.527E-04
 -16.536  0.518E-04  0.518E-04
 -16.526  0.509E-04  0.509E-04
 -16.516  0.500E-04  0.500E-04
 -16.506  0.491E-04  0.491E-04
 -16.496  0.482E-04  0.482E-04
 -16.486  0.472E-04  0.472E-04
 -16.476  0.463E-04  0.463E-04
 -16.466  0.454E-04  0.454E-04
 -16.456  0.445E-04  0.445E-04
 -16.446  0.435E-04  0.435E-04
 -16.436  0.426E-04  0.426E-04
 -16.426  0.417E-04  0.417E-04
 -16.416  0.408E-04  0.408E-04
 -16.406  0.399E-04  0.399E-04
 -16.396  0.390E-04  0.390E-04
 -16.386  0.381E-04  0.381E-04
 -16.376  0.372E-04  0.372E-04
 -16.366  0.363E-04  0.363E-04
 -16.356  0.355E-04  0.355E-04
 -16.346  0.346E-04  0.346E-04
 -16.336  0.338E-04  0.338E-04
 -16.326  0.329E-04  0.329E-04
 -16.316  0.321E-04  0.321E-04
 -16.306  0.313E-04  0.313E-04
 -16.296  0.305E-04  0.305E-04
 -16.286  0.298E-04  0.298E-04
 -16.276  0.290E-04  0.290E-04
 -16.266  0.282E-04  0.282E-04
 -16.256  0.275E-04  0.275E-04
 -16.246  0.268E-04  0.268E-04
 -16.236  0.261E-04  0.261E-04
 -16.226  0.254E-04  0.254E-04
 -16.216  0.247E-04  0.247E-04
 -16.206  0.240E-04  0.240E-04
 -16.196  0.234E-04  0.234E-04
 -16.186  0.228E-04  0.228E-04
 -16.176  0.221E-04  0.221E-04
 -16.166  0.215E-04  0.215E-04
 -16.156  0.210E-04  0.210E-04
 -16.146  0.204E-04  0.204E-04
 -16.136  0.198E-04  0.198E-04
 -16.126  0.193E-04  0.193E-04
 -16.116  0.187E-04  0.187E-04
 -16.106  0.182E-04  0.182E-04
 -16.096  0.177E-04  0.177E-04
 -16.086  0.172E-04  0.172E-04
 -16.076  0.167E-04  0.167E-04
 -16.066  0.163E-04  0.163E-04
 -16.056  0.158E-04  0.158E-04
 -16.046  0.154E-04  0.154E-04
 -16.036  0.149E-04  0.149E-04
 -16.026  0.145E-04  0.145E-04
 -16.016  0.141E-04  0.141E-04
 -16.006  0.137E-04  0.137E-04
 -15.996  0.133E-04  0.133E-04
 -15.986  0.129E-04  0.129E-04
 -15.976  0.126E-04  0.126E-04
 -15.966  0.122E-04  0.122E-04
 -15.956  0.118E-04  0.118E-04
 -15.946  0.115E-04  0.115E-04
 -15.936  0.112E-04  0.112E-04
 -15.926  0.108E-04  0.108E-04
 -15.916  0.105E-04  0.105E-04
 -15.906  0.102E-04  0.102E-04
 -15.896  0.986E-05  0.986E-05
 -15.886  0.955E-05  0.955E-05
 -15.876  0.925E-05  0.925E-05
 -15.866  0.896E-05  0.896E-05
 -15.856  0.867E-05  0.867E-05
 -15.846  0.839E-05  0.839E-05
 -15.836  0.811E-05  0.811E-05
 -15.826  0.783E-05  0.783E-05
 -15.816  0.756E-05  0.756E-05
 -15.806  0.730E-05  0.730E-05
 -15.796  0.704E-05  0.704E-05
 -15.786  0.678E-05  0.678E-05
 -15.776  0.653E-05  0.653E-05
 -15.766  0.628E-05  0.628E-05
 -15.756  0.603E-05  0.603E-05
 -15.746  0.579E-05  0.579E-05
 -15.736  0.555E-05  0.555E-05
 -15.726  0.532E-05  0.532E-05
 -15.716  0.509E-05  0.509E-05
 -15.706  0.486E-05  0.486E-05
 -15.696  0.463E-05  0.463E-05
 -15.686  0.441E-05  0.441E-05
 -15.676  0.419E-05  0.419E-05
 -15.666  0.398E-05  0.398E-05
 -15.656  0.376E-05  0.376E-05
 -15.646  0.355E-05  0.355E-05
 -15.636  0.335E-05  0.335E-05
 -15.626  0.314E-05  0.314E-05
 -15.616  0.294E-05  0.294E-05
 -15.606  0.274E-05  0.274E-05
 -15.596  0.255E-05  0.255E-05
 -15.586  0.235E-05  0.235E-05
 -15.576  0.216E-05  0.216E-05
 -15.566  0.197E-05  0.197E-05
 -15.556  0.179E-05  0.179E-05
 -15.546  0.161E-05  0.161E-05
 -15.536  0.143E-05  0.143E-05
 -15.526  0.125E-05  0.125E-05
 -15.516  0.108E-05  0.108E-05
 -15.506  0.906E-06  0.906E-06
 -15.496  0.738E-06  0.738E-06
 -15.486  0.571E-06  0.571E-06
 -15.476  0.408E-06  0.408E-06
 -15.466  0.246E-06  0.246E-06
 -15.456  0.876E-07  0.876E-07
 -15.446 -0.688E-07 -0.688E-07
 -15.436 -0.223E-06 -0.223E-06
 -15.426 -0.375E-06 -0.375E-06
 -15.416 -0.524E-06 -0.524E-06
 -15.406 -0.672E-06 -0.672E-06
 -15.396 -0.817E-06 -0.817E-06
 -15.386 -0.961E-06 -0.961E-06
 -15.376 -0.110E-05 -0.110E-05
 -15.366 -0.124E-05 -0.124E-05
 -15.356 -0.138E-05 -0.138E-05
 -15.346 -0.152E-05 -0.152E-05
 -15.336 -0.165E-05 -0.165E-05
 -15.326 -0.178E-05 -0.178E-05
 -15.316 -0.191E-05 -0.191E-05
 -15.306 -0.204E-05 -0.204E-05
 -15.296 -0.217E-05 -0.217E-05
 -15.286 -0.230E-05 -0.230E-05
 -15.276 -0.243E-05 -0.243E-05
 -15.266 -0.255E-05 -0.255E-05
 -15.256 -0.268E-05 -0.268E-05
 -15.246 -0.280E-05 -0.280E-05
 -15.236 -0.292E-05 -0.292E-05
 -15.226 -0.304E-05 -0.304E-05
 -15.216 -0.316E-05 -0.316E-05
 -15.206 -0.328E-05 -0.328E-05
 -15.196 -0.340E-05 -0.340E-05
 -15.186 -0.352E-05 -0.352E-05
 -15.176 -0.364E-05 -0.364E-05
 -15.166 -0.376E-05 -0.376E-05
 -15.156 -0.387E-05 -0.387E-05
 -15.146 -0.399E-05 -0.399E-05
 -15.136 -0.410E-05 -0.410E-05
 -15.126 -0.422E-05 -0.422E-05
 -15.116 -0.433E-05 -0.433E-05
 -15.106 -0.444E-05 -0.444E-05
 -15.096 -0.455E-05 -0.455E-05
 -15.086 -0.466E-05 -0.466E-05
 -15.076 -0.477E-05 -0.477E-05
 -15.066 -0.488E-05 -0.488E-05
 -15.056 -0.498E-05 -0.498E-05
 -15.046 -0.509E-05 -0.509E-05
 -15.036 -0.519E-05 -0.519E-05
 -15.026 -0.529E-05 -0.529E-05
 -15.016 -0.538E-05 -0.538E-05
 -15.006 -0.548E-05 -0.548E-05
 -14.996 -0.557E-05 -0.557E-05
 -14.986 -0.566E-05 -0.566E-05
 -14.976 -0.574E-05 -0.574E-05
 -14.966 -0.582E-05 -0.582E-05
 -14.956 -0.589E-05 -0.589E-05
 -14.946 -0.596E-05 -0.596E-05
 -14.936 -0.603E-05 -0.603E-05
 -14.926 -0.609E-05 -0.609E-05
 -14.916 -0.614E-05 -0.614E-05
 -14.906 -0.619E-05 -0.619E-05
 -14.896 -0.623E-05 -0.623E-05
 -14.886 -0.626E-05 -0.626E-05
 -14.876 -0.628E-05 -0.628E-05
 -14.866 -0.629E-05 -0.629E-05
 -14.856 -0.630E-05 -0.630E-05
 -14.846 -0.629E-05 -0.629E-05
 -14.836 -0.628E-05 -0.628E-05
 -14.826 -0.625E-05 -0.625E-05
 -14.816 -0.621E-05 -0.621E-05
 -14.806 -0.616E-05 -0.616E-05
 -14.796 -0.609E-05 -0.609E-05
 -14.786 -0.601E-05 -0.601E-05
 -14.776 -0.592E-05 -0.592E-05
 -14.766 -0.581E-05 -0.581E-05
 -14.756 -0.568E-05 -0.568E-05
 -14.746 -0.553E-05 -0.553E-05
 -14.736 -0.537E-05 -0.537E-05
 -14.726 -0.519E-05 -0.519E-05
 -14.716 -0.499E-05 -0.499E-05
 -14.706 -0.477E-05 -0.477E-05
 -14.696 -0.453E-05 -0.453E-05
 -14.686 -0.427E-05 -0.427E-05
 -14.676 -0.399E-05 -0.399E-05
 -14.666 -0.368E-05 -0.368E-05
 -14.656 -0.335E-05 -0.335E-05
 -14.646 -0.300E-05 -0.300E-05
 -14.636 -0.262E-05 -0.262E-05
 -14.626 -0.221E-05 -0.221E-05
 -14.616 -0.178E-05 -0.178E-05
 -14.606 -0.132E-05 -0.132E-05
 -14.596 -0.837E-06 -0.837E-06
 -14.586 -0.324E-06 -0.324E-06
 -14.576  0.218E-06  0.218E-06
 -14.566  0.788E-06  0.788E-06
 -14.556  0.139E-05  0.139E-05
 -14.546  0.202E-05  0.202E-05
 -14.536  0.268E-05  0.268E-05
 -14.526  0.337E-05  0.337E-05
 -14.516  0.409E-05  0.409E-05
 -14.506  0.484E-05  0.484E-05
 -14.496  0.562E-05  0.562E-05
 -14.486  0.643E-05  0.643E-05
 -14.476  0.728E-05  0.728E-05
 -14.466  0.815E-05  0.815E-05
 -14.456  0.906E-05  0.906E-05
 -14.446  0.100E-04  0.100E-04
 -14.436  0.110E-04  0.110E-04
 -14.426  0.120E-04  0.120E-04
 -14.416  0.130E-04  0.130E-04
 -14.406  0.141E-04  0.141E-04
 -14.396  0.151E-04  0.151E-04
 -14.386  0.163E-04  0.163E-04
 -14.376  0.174E-04  0.174E-04
 -14.366  0.186E-04  0.186E-04
 -14.356  0.198E-04  0.198E-04
 -14.346  0.210E-04  0.210E-04
 -14.336  0.223E-04  0.223E-04
 -14.326  0.235E-04  0.235E-04
 -14.316  0.248E-04  0.248E-04
 -14.306  0.262E-04  0.262E-04
 -14.296  0.275E-04  0.275E-04
 -14.286  0.289E-04  0.289E-04
 -14.276  0.303E-04  0.303E-04
 -14.266  0.317E-04  0.317E-04
 -14.256  0.331E-04  0.331E-04
 -14.246  0.345E-04  0.345E-04
 -14.236  0.360E-04  0.360E-04
 -14.226  0.375E-04  0.375E-04
 -14.216  0.390E-04  0.390E-04
 -14.206  0.405E-04  0.405E-04
 -14.196  0.420E-04  0.420E-04
 -14.186  0.435E-04  0.435E-04
 -14.176  0.450E-04  0.450E-04
 -14.166  0.465E-04  0.465E-04
 -14.156  0.481E-04  0.481E-04
 -14.146  0.496E-04  0.496E-04
 -14.136  0.511E-04  0.511E-04
 -14.126  0.527E-04  0.527E-04
 -14.116  0.542E-04  0.542E-04
 -14.106  0.557E-04  0.557E-04
 -14.096  0.573E-04  0.573E-04
 -14.086  0.588E-04  0.588E-04
 -14.076  0.603E-04  0.603E-04
 -14.066  0.618E-04  0.618E-04
 -14.056  0.633E-04  0.633E-04
 -14.046  0.648E-04  0.648E-04
 -14.036  0.663E-04  0.663E-04
 -14.026  0.678E-04  0.678E-04
 -14.016  0.692E-04  0.692E-04
 -14.006  0.707E-04  0.707E-04
 -13.996  0.721E-04  0.721E-04
 -13.986  0.735E-04  0.735E-04
 -13.976  0.749E-04  0.749E-04
 -13.966  0.763E-04  0.763E-04
 -13.956  0.777E-04  0.777E-04
 -13.946  0.790E-04  0.790E-04
 -13.936  0.804E-04  0.804E-04
 -13.926  0.817E-04  0.817E-04
 -13.916  0.830E-04  0.830E-04
 -13.906  0.842E-04  0.842E-04
 -13.896  0.855E-04  0.855E-04
 -13.886  0.867E-04  0.867E-04
 -13.876  0.880E-04  0.880E-04
 -13.866  0.892E-04  0.892E-04
 -13.856  0.904E-04  0.904E-04
 -13.846  0.915E-04  0.915E-04
 -13.836  0.927E-04  0.927E-04
 -13.826  0.938E-04  0.938E-04
 -13.816  0.950E-04  0.950E-04
 -13.806  0.961E-04  0.961E-04
 -13.796  0.972E-04  0.972E-04
 -13.786  0.983E-04  0.983E-04
 -13.776  0.994E-04  0.994E-04
 -13.766  0.100E-03  0.100E-03
 -13.756  0.101E-03  0.101E-03
 -13.746  0.103E-03  0.103E-03
 -13.736  0.104E-03  0.104E-03
 -13.726  0.105E-03  0.105E-03
 -13.716  0.106E-03  0.106E-03
 -13.706  0.107E-03  0.107E-03
 -13.696  0.108E-03  0.108E-03
 -13.686  0.109E-03  0.109E-03
 -13.676  0.110E-03  0.110E-03
 -13.666  0.111E-03  0.111E-03
 -13.656  0.112E-03  0.112E-03
 -13.646  0.113E-03  0.113E-03
 -13.636  0.114E-03  0.114E-03
 -13.626  0.115E-03  0.115E-03
 -13.616  0.116E-03  0.116E-03
 -13.606  0.117E-03  0.117E-03
 -13.596  0.118E-03  0.118E-03
 -13.586  0.119E-03  0.119E-03
 -13.576  0.121E-03  0.121E-03
 -13.566  0.122E-03  0.122E-03
 -13.556  0.123E-03  0.123E-03
 -13.546  0.124E-03  0.124E-03
 -13.536  0.125E-03  0.125E-03
 -13.526  0.127E-03  0.127E-03
 -13.516  0.128E-03  0.128E-03
 -13.506  0.129E-03  0.129E-03
 -13.496  0.130E-03  0.130E-03
 -13.486  0.132E-03  0.132E-03
 -13.476  0.133E-03  0.133E-03
 -13.466  0.134E-03  0.134E-03
 -13.456  0.136E-03  0.136E-03
 -13.446  0.137E-03  0.137E-03
 -13.436  0.138E-03  0.138E-03
 -13.426  0.140E-03  0.140E-03
 -13.416  0.141E-03  0.141E-03
 -13.406  0.143E-03  0.143E-03
 -13.396  0.144E-03  0.144E-03
 -13.386  0.146E-03  0.146E-03
 -13.376  0.147E-03  0.147E-03
 -13.366  0.149E-03  0.149E-03
 -13.356  0.150E-03  0.150E-03
 -13.346  0.152E-03  0.152E-03
 -13.336  0.153E-03  0.153E-03
 -13.326  0.155E-03  0.155E-03
 -13.316  0.156E-03  0.156E-03
 -13.306  0.158E-03  0.158E-03
 -13.296  0.159E-03  0.159E-03
 -13.286  0.161E-03  0.161E-03
 -13.276  0.162E-03  0.162E-03
 -13.266  0.164E-03  0.164E-03
 -13.256  0.165E-03  0.165E-03
 -13.246  0.167E-03  0.167E-03
 -13.236  0.168E-03  0.168E-03
 -13.226  0.169E-03  0.169E-03
 -13.216  0.171E-03  0.171E-03
 -13.206  0.172E-03  0.172E-03
 -13.196  0.173E-03  0.173E-03
 -13.186  0.175E-03  0.175E-03
 -13.176  0.176E-03  0.176E-03
 -13.166  0.177E-03  0.177E-03
 -13.156  0.178E-03  0.178E-03
 -13.146  0.179E-03  0.179E-03
 -13.136  0.180E-03  0.180E-03
 -13.126  0.181E-03  0.181E-03
 -13.116  0.182E-03  0.182E-03
 -13.106  0.183E-03  0.183E-03
 -13.096  0.184E-03  0.184E-03
 -13.086  0.184E-03  0.184E-03
 -13.076  0.185E-03  0.185E-03
 -13.066  0.186E-03  0.186E-03
 -13.056  0.186E-03  0.186E-03
 -13.046  0.186E-03  0.186E-03
 -13.036  0.187E-03  0.187E-03
 -13.026  0.187E-03  0.187E-03
 -13.016  0.187E-03  0.187E-03
 -13.006  0.187E-03  0.187E-03
 -12.996  0.187E-03  0.187E-03
 -12.986  0.187E-03  0.187E-03
 -12.976  0.186E-03  0.186E-03
 -12.966  0.186E-03  0.186E-03
 -12.956  0.185E-03  0.185E-03
 -12.946  0.185E-03  0.185E-03
 -12.936  0.184E-03  0.184E-03
 -12.926  0.183E-03  0.183E-03
 -12.916  0.182E-03  0.182E-03
 -12.906  0.181E-03  0.181E-03
 -12.896  0.180E-03  0.180E-03
 -12.886  0.179E-03  0.179E-03
 -12.876  0.178E-03  0.178E-03
 -12.866  0.176E-03  0.176E-03
 -12.856  0.175E-03  0.175E-03
 -12.846  0.173E-03  0.173E-03
 -12.836  0.172E-03  0.172E-03
 -12.826  0.170E-03  0.170E-03
 -12.816  0.168E-03  0.168E-03
 -12.806  0.166E-03  0.166E-03
 -12.796  0.164E-03  0.164E-03
 -12.786  0.161E-03  0.161E-03
 -12.776  0.159E-03  0.159E-03
 -12.766  0.157E-03  0.157E-03
 -12.756  0.154E-03  0.154E-03
 -12.746  0.152E-03  0.152E-03
 -12.736  0.149E-03  0.149E-03
 -12.726  0.146E-03  0.146E-03
 -12.716  0.144E-03  0.144E-03
 -12.706  0.141E-03  0.141E-03
 -12.696  0.138E-03  0.138E-03
 -12.686  0.135E-03  0.135E-03
 -12.676  0.132E-03  0.132E-03
 -12.666  0.129E-03  0.129E-03
 -12.656  0.125E-03  0.125E-03
 -12.646  0.122E-03  0.122E-03
 -12.636  0.119E-03  0.119E-03
 -12.626  0.116E-03  0.116E-03
 -12.616  0.112E-03  0.112E-03
 -12.606  0.109E-03  0.109E-03
 -12.596  0.106E-03  0.106E-03
 -12.586  0.102E-03  0.102E-03
 -12.576  0.988E-04  0.988E-04
 -12.566  0.954E-04  0.954E-04
 -12.556  0.919E-04  0.919E-04
 -12.546  0.885E-04  0.885E-04
 -12.536  0.850E-04  0.850E-04
 -12.526  0.815E-04  0.815E-04
 -12.516  0.781E-04  0.781E-04
 -12.506  0.746E-04  0.746E-04
 -12.496  0.712E-04  0.712E-04
 -12.486  0.678E-04  0.678E-04
 -12.476  0.644E-04  0.644E-04
 -12.466  0.610E-04  0.610E-04
 -12.456  0.577E-04  0.577E-04
 -12.446  0.544E-04  0.544E-04
 -12.436  0.511E-04  0.511E-04
 -12.426  0.479E-04  0.479E-04
 -12.416  0.447E-04  0.447E-04
 -12.406  0.416E-04  0.416E-04
 -12.396  0.385E-04  0.385E-04
 -12.386  0.354E-04  0.354E-04
 -12.376  0.325E-04  0.325E-04
 -12.366  0.295E-04  0.295E-04
 -12.356  0.267E-04  0.267E-04
 -12.346  0.239E-04  0.239E-04
 -12.336  0.212E-04  0.212E-04
 -12.326  0.186E-04  0.186E-04
 -12.316  0.160E-04  0.160E-04
 -12.306  0.135E-04  0.135E-04
 -12.296  0.111E-04  0.111E-04
 -12.286  0.882E-05  0.882E-05
 -12.276  0.660E-05  0.660E-05
 -12.266  0.446E-05  0.446E-05
 -12.256  0.242E-05  0.242E-05
 -12.246  0.468E-06  0.468E-06
 -12.236 -0.138E-05 -0.138E-05
 -12.226 -0.314E-05 -0.314E-05
 -12.216 -0.479E-05 -0.479E-05
 -12.206 -0.634E-05 -0.634E-05
 -12.196 -0.778E-05 -0.778E-05
 -12.186 -0.912E-05 -0.912E-05
 -12.176 -0.103E-04 -0.103E-04
 -12.166 -0.115E-04 -0.115E-04
 -12.156 -0.125E-04 -0.125E-04
 -12.146 -0.133E-04 -0.133E-04
 -12.136 -0.141E-04 -0.141E-04
 -12.126 -0.148E-04 -0.148E-04
 -12.116 -0.153E-04 -0.153E-04
 -12.106 -0.157E-04 -0.157E-04
 -12.096 -0.160E-04 -0.160E-04
 -12.086 -0.162E-04 -0.162E-04
 -12.076 -0.162E-04 -0.162E-04
 -12.066 -0.161E-04 -0.161E-04
 -12.056 -0.159E-04 -0.159E-04
 -12.046 -0.156E-04 -0.156E-04
 -12.036 -0.151E-04 -0.151E-04
 -12.026 -0.145E-04 -0.145E-04
 -12.016 -0.138E-04 -0.138E-04
 -12.006 -0.129E-04 -0.129E-04
 -11.996 -0.120E-04 -0.120E-04
 -11.986 -0.108E-04 -0.108E-04
 -11.976 -0.958E-05 -0.958E-05
 -11.966 -0.819E-05 -0.819E-05
 -11.956 -0.667E-05 -0.667E-05
 -11.946 -0.501E-05 -0.501E-05
 -11.936 -0.322E-05 -0.322E-05
 -11.926 -0.129E-05 -0.129E-05
 -11.916  0.764E-06  0.764E-06
 -11.906  0.295E-05  0.295E-05
 -11.896  0.528E-05  0.528E-05
 -11.886  0.773E-05  0.773E-05
 -11.876  0.103E-04  0.103E-04
 -11.866  0.130E-04  0.130E-04
 -11.856  0.159E-04  0.159E-04
 -11.846  0.189E-04  0.189E-04
 -11.836  0.220E-04  0.220E-04
 -11.826  0.252E-04  0.252E-04
 -11.816  0.285E-04  0.285E-04
 -11.806  0.320E-04  0.320E-04
 -11.796  0.356E-04  0.356E-04
 -11.786  0.393E-04  0.393E-04
 -11.776  0.431E-04  0.431E-04
 -11.766  0.470E-04  0.470E-04
 -11.756  0.511E-04  0.511E-04
 -11.746  0.552E-04  0.552E-04
 -11.736  0.595E-04  0.595E-04
 -11.726  0.638E-04  0.638E-04
 -11.716  0.683E-04  0.683E-04
 -11.706  0.728E-04  0.728E-04
 -11.696  0.774E-04  0.774E-04
 -11.686  0.821E-04  0.821E-04
 -11.676  0.869E-04  0.869E-04
 -11.666  0.918E-04  0.918E-04
 -11.656  0.967E-04  0.967E-04
 -11.646  0.102E-03  0.102E-03
 -11.636  0.107E-03  0.107E-03
 -11.626  0.112E-03  0.112E-03
 -11.616  0.117E-03  0.117E-03
 -11.606  0.122E-03  0.122E-03
 -11.596  0.128E-03  0.128E-03
 -11.586  0.133E-03  0.133E-03
 -11.576  0.138E-03  0.138E-03
 -11.566  0.143E-03  0.143E-03
 -11.556  0.149E-03  0.149E-03
 -11.546  0.154E-03  0.154E-03
 -11.536  0.160E-03  0.160E-03
 -11.526  0.165E-03  0.165E-03
 -11.516  0.170E-03  0.170E-03
 -11.506  0.176E-03  0.176E-03
 -11.496  0.181E-03  0.181E-03
 -11.486  0.186E-03  0.186E-03
 -11.476  0.192E-03  0.192E-03
 -11.466  0.197E-03  0.197E-03
 -11.456  0.202E-03  0.202E-03
 -11.446  0.207E-03  0.207E-03
 -11.436  0.212E-03  0.212E-03
 -11.426  0.217E-03  0.217E-03
 -11.416  0.222E-03  0.222E-03
 -11.406  0.227E-03  0.227E-03
 -11.396  0.232E-03  0.232E-03
 -11.386  0.236E-03  0.236E-03
 -11.376  0.241E-03  0.241E-03
 -11.366  0.245E-03  0.245E-03
 -11.356  0.249E-03  0.249E-03
 -11.346  0.254E-03  0.254E-03
 -11.336  0.258E-03  0.258E-03
 -11.326  0.262E-03  0.262E-03
 -11.316  0.265E-03  0.265E-03
 -11.306  0.269E-03  0.269E-03
 -11.296  0.273E-03  0.273E-03
 -11.286  0.276E-03  0.276E-03
 -11.276  0.279E-03  0.279E-03
 -11.266  0.282E-03  0.282E-03
 -11.256  0.285E-03  0.285E-03
 -11.246  0.287E-03  0.287E-03
 -11.236  0.290E-03  0.290E-03
 -11.226  0.292E-03  0.292E-03
 -11.216  0.294E-03  0.294E-03
 -11.206  0.296E-03  0.296E-03
 -11.196  0.297E-03  0.297E-03
 -11.186  0.299E-03  0.299E-03
 -11.176  0.300E-03  0.300E-03
 -11.166  0.301E-03  0.301E-03
 -11.156  0.301E-03  0.301E-03
 -11.146  0.302E-03  0.302E-03
 -11.136  0.302E-03  0.302E-03
 -11.126  0.302E-03  0.302E-03
 -11.116  0.301E-03  0.301E-03
 -11.106  0.300E-03  0.300E-03
 -11.096  0.299E-03  0.299E-03
 -11.086  0.298E-03  0.298E-03
 -11.076  0.296E-03  0.296E-03
 -11.066  0.294E-03  0.294E-03
 -11.056  0.292E-03  0.292E-03
 -11.046  0.289E-03  0.289E-03
 -11.036  0.286E-03  0.286E-03
 -11.026  0.283E-03  0.283E-03
 -11.016  0.279E-03  0.279E-03
 -11.006  0.275E-03  0.275E-03
 -10.996  0.270E-03  0.270E-03
 -10.986  0.265E-03  0.265E-03
 -10.976  0.260E-03  0.260E-03
 -10.966  0.254E-03  0.254E-03
 -10.956  0.247E-03  0.247E-03
 -10.946  0.240E-03  0.240E-03
 -10.936  0.233E-03  0.233E-03
 -10.926  0.225E-03  0.225E-03
 -10.916  0.216E-03  0.216E-03
 -10.906  0.207E-03  0.207E-03
 -10.896  0.197E-03  0.197E-03
 -10.886  0.187E-03  0.187E-03
 -10.876  0.176E-03  0.176E-03
 -10.866  0.165E-03  0.165E-03
 -10.856  0.152E-03  0.152E-03
 -10.846  0.139E-03  0.139E-03
 -10.836  0.126E-03  0.126E-03
 -10.826  0.111E-03  0.111E-03
 -10.816  0.958E-04  0.958E-04
 -10.806  0.797E-04  0.797E-04
 -10.796  0.628E-04  0.628E-04
 -10.786  0.450E-04  0.450E-04
 -10.776  0.263E-04  0.263E-04
 -10.766  0.663E-05  0.663E-05
 -10.756 -0.140E-04 -0.140E-04
 -10.746 -0.356E-04 -0.356E-04
 -10.736 -0.582E-04 -0.582E-04
 -10.726 -0.819E-04 -0.819E-04
 -10.716 -0.107E-03 -0.107E-03
 -10.706 -0.132E-03 -0.132E-03
 -10.696 -0.159E-03 -0.159E-03
 -10.686 -0.188E-03 -0.188E-03
 -10.676 -0.217E-03 -0.217E-03
 -10.666 -0.248E-03 -0.248E-03
 -10.656 -0.280E-03 -0.280E-03
 -10.646 -0.313E-03 -0.313E-03
 -10.636 -0.347E-03 -0.347E-03
 -10.626 -0.383E-03 -0.383E-03
 -10.616 -0.420E-03 -0.420E-03
 -10.606 -0.459E-03 -0.459E-03
 -10.596 -0.499E-03 -0.499E-03
 -10.586 -0.540E-03 -0.540E-03
 -10.576 -0.583E-03 -0.583E-03
 -10.566 -0.628E-03 -0.628E-03
 -10.556 -0.674E-03 -0.674E-03
 -10.546 -0.721E-03 -0.721E-03
 -10.536 -0.770E-03 -0.770E-03
 -10.526 -0.820E-03 -0.820E-03
 -10.516 -0.872E-03 -0.872E-03
 -10.506 -0.925E-03 -0.925E-03
 -10.496 -0.980E-03 -0.980E-03
 -10.486 -0.104E-02 -0.104E-02
 -10.476 -0.109E-02 -0.109E-02
 -10.466 -0.115E-02 -0.115E-02
 -10.456 -0.121E-02 -0.121E-02
 -10.446 -0.127E-02 -0.127E-02
 -10.436 -0.134E-02 -0.134E-02
 -10.426 -0.140E-02 -0.140E-02
 -10.416 -0.147E-02 -0.147E-02
 -10.406 -0.153E-02 -0.153E-02
 -10.396 -0.160E-02 -0.160E-02
 -10.386 -0.167E-02 -0.167E-02
 -10.376 -0.174E-02 -0.174E-02
 -10.366 -0.181E-02 -0.181E-02
 -10.356 -0.188E-02 -0.188E-02
 -10.346 -0.195E-02 -0.195E-02
 -10.336 -0.203E-02 -0.203E-02
 -10.326 -0.210E-02 -0.210E-02
 -10.316 -0.217E-02 -0.217E-02
 -10.306 -0.224E-02 -0.224E-02
 -10.296 -0.232E-02 -0.232E-02
 -10.286 -0.239E-02 -0.239E-02
 -10.276 -0.246E-02 -0.246E-02
 -10.266 -0.253E-02 -0.253E-02
 -10.256 -0.260E-02 -0.260E-02
 -10.246 -0.267E-02 -0.267E-02
 -10.236 -0.274E-02 -0.274E-02
 -10.226 -0.281E-02 -0.281E-02
 -10.216 -0.287E-02 -0.287E-02
 -10.206 -0.293E-02 -0.293E-02
 -10.196 -0.299E-02 -0.299E-02
 -10.186 -0.305E-02 -0.305E-02
 -10.176 -0.310E-02 -0.310E-02
 -10.166 -0.316E-02 -0.316E-02
 -10.156 -0.320E-02 -0.320E-02
 -10.146 -0.325E-02 -0.325E-02
 -10.136 -0.329E-02 -0.329E-02
 -10.126 -0.332E-02 -0.332E-02
 -10.116 -0.335E-02 -0.335E-02
 -10.106 -0.337E-02 -0.337E-02
 -10.096 -0.339E-02 -0.339E-02
 -10.086 -0.340E-02 -0.340E-02
 -10.076 -0.341E-02 -0.341E-02
 -10.066 -0.341E-02 -0.341E-02
 -10.056 -0.340E-02 -0.340E-02
 -10.046 -0.338E-02 -0.338E-02
 -10.036 -0.336E-02 -0.336E-02
 -10.026 -0.332E-02 -0.332E-02
 -10.016 -0.328E-02 -0.328E-02
 -10.006 -0.322E-02 -0.322E-02
  -9.996 -0.316E-02 -0.316E-02
  -9.986 -0.308E-02 -0.308E-02
  -9.976 -0.299E-02 -0.299E-02
  -9.966 -0.289E-02 -0.289E-02
  -9.956 -0.278E-02 -0.278E-02
  -9.946 -0.266E-02 -0.266E-02
  -9.936 -0.252E-02 -0.252E-02
  -9.926 -0.237E-02 -0.237E-02
  -9.916 -0.220E-02 -0.220E-02
  -9.906 -0.202E-02 -0.202E-02
  -9.896 -0.182E-02 -0.182E-02
  -9.886 -0.161E-02 -0.161E-02
  -9.876 -0.138E-02 -0.138E-02
  -9.866 -0.113E-02 -0.113E-02
  -9.856 -0.863E-03 -0.863E-03
  -9.846 -0.580E-03 -0.580E-03
  -9.836 -0.278E-03 -0.278E-03
  -9.826  0.430E-04  0.430E-04
  -9.816  0.383E-03  0.383E-03
  -9.806  0.744E-03  0.744E-03
  -9.796  0.112E-02  0.112E-02
  -9.786  0.153E-02  0.153E-02
  -9.776  0.195E-02  0.195E-02
  -9.766  0.239E-02  0.239E-02
  -9.756  0.286E-02  0.286E-02
  -9.746  0.334E-02  0.334E-02
  -9.736  0.385E-02  0.385E-02
  -9.726  0.439E-02  0.439E-02
  -9.716  0.494E-02  0.494E-02
  -9.706  0.552E-02  0.552E-02
  -9.696  0.612E-02  0.612E-02
  -9.686  0.675E-02  0.675E-02
  -9.676  0.740E-02  0.740E-02
  -9.666  0.807E-02  0.807E-02
  -9.656  0.877E-02  0.877E-02
  -9.646  0.948E-02  0.948E-02
  -9.636  0.102E-01  0.102E-01
  -9.626  0.110E-01  0.110E-01
  -9.616  0.118E-01  0.118E-01
  -9.606  0.126E-01  0.126E-01
  -9.596  0.134E-01  0.134E-01
  -9.586  0.143E-01  0.143E-01
  -9.576  0.152E-01  0.152E-01
  -9.566  0.161E-01  0.161E-01
  -9.556  0.170E-01  0.170E-01
  -9.546  0.180E-01  0.180E-01
  -9.536  0.189E-01  0.189E-01
  -9.526  0.199E-01  0.199E-01
  -9.516  0.209E-01  0.209E-01
  -9.506  0.219E-01  0.219E-01
  -9.496  0.230E-01  0.230E-01
  -9.486  0.241E-01  0.241E-01
  -9.476  0.251E-01  0.251E-01
  -9.466  0.262E-01  0.262E-01
  -9.456  0.274E-01  0.274E-01
  -9.446  0.285E-01  0.285E-01
  -9.436  0.296E-01  0.296E-01
  -9.426  0.308E-01  0.308E-01
  -9.416  0.320E-01  0.320E-01
  -9.406  0.332E-01  0.332E-01
  -9.396  0.344E-01  0.344E-01
  -9.386  0.356E-01  0.356E-01
  -9.376  0.368E-01  0.368E-01
  -9.366  0.380E-01  0.380E-01
  -9.356  0.392E-01  0.392E-01
  -9.346  0.405E-01  0.405E-01
  -9.336  0.417E-01  0.417E-01
  -9.326  0.430E-01  0.430E-01
  -9.316  0.442E-01  0.442E-01
  -9.306  0.455E-01  0.455E-01
  -9.296  0.467E-01  0.467E-01
  -9.286  0.480E-01  0.480E-01
  -9.276  0.492E-01  0.492E-01
  -9.266  0.505E-01  0.505E-01
  -9.256  0.517E-01  0.517E-01
  -9.246  0.530E-01  0.530E-01
  -9.236  0.542E-01  0.542E-01
  -9.226  0.554E-01  0.554E-01
  -9.216  0.567E-01  0.567E-01
  -9.206  0.579E-01  0.579E-01
  -9.196  0.591E-01  0.591E-01
  -9.186  0.603E-01  0.603E-01
  -9.176  0.614E-01  0.614E-01
  -9.166  0.626E-01  0.626E-01
  -9.156  0.638E-01  0.638E-01
  -9.146  0.649E-01  0.649E-01
  -9.136  0.660E-01  0.660E-01
  -9.126  0.671E-01  0.671E-01
  -9.116  0.682E-01  0.682E-01
  -9.106  0.693E-01  0.693E-01
  -9.096  0.703E-01  0.703E-01
  -9.086  0.713E-01  0.713E-01
  -9.076  0.724E-01  0.724E-01
  -9.066  0.733E-01  0.733E-01
  -9.056  0.743E-01  0.743E-01
  -9.046  0.752E-01  0.752E-01
  -9.036  0.762E-01  0.762E-01
  -9.026  0.771E-01  0.771E-01
  -9.016  0.779E-01  0.779E-01
  -9.006  0.788E-01  0.788E-01
  -8.996  0.796E-01  0.796E-01
  -8.986  0.804E-01  0.804E-01
  -8.976  0.812E-01  0.812E-01
  -8.966  0.819E-01  0.819E-01
  -8.956  0.826E-01  0.826E-01
  -8.946  0.833E-01  0.833E-01
  -8.936  0.840E-01  0.840E-01
  -8.926  0.846E-01  0.846E-01
  -8.916  0.853E-01  0.853E-01
  -8.906  0.859E-01  0.859E-01
  -8.896  0.864E-01  0.864E-01
  -8.886  0.870E-01  0.870E-01
  -8.876  0.875E-01  0.875E-01
  -8.866  0.879E-01  0.879E-01
  -8.856  0.884E-01  0.884E-01
  -8.846  0.888E-01  0.888E-01
  -8.836  0.892E-01  0.892E-01
  -8.826  0.896E-01  0.896E-01
  -8.816  0.900E-01  0.900E-01
  -8.806  0.903E-01  0.903E-01
  -8.796  0.906E-01  0.906E-01
  -8.786  0.909E-01  0.909E-01
  -8.776  0.911E-01  0.911E-01
  -8.766  0.914E-01  0.914E-01
  -8.756  0.916E-01  0.916E-01
  -8.746  0.918E-01  0.918E-01
  -8.736  0.919E-01  0.919E-01
  -8.726  0.921E-01  0.921E-01
  -8.716  0.922E-01  0.922E-01
  -8.706  0.923E-01  0.923E-01
  -8.696  0.923E-01  0.923E-01
  -8.686  0.924E-01  0.924E-01
  -8.676  0.924E-01  0.924E-01
  -8.666  0.924E-01  0.924E-01
  -8.656  0.924E-01  0.924E-01
  -8.646  0.923E-01  0.923E-01
  -8.636  0.922E-01  0.922E-01
  -8.626  0.922E-01  0.922E-01
  -8.616  0.921E-01  0.921E-01
  -8.606  0.919E-01  0.919E-01
  -8.596  0.918E-01  0.918E-01
  -8.586  0.916E-01  0.916E-01
  -8.576  0.914E-01  0.914E-01
  -8.566  0.912E-01  0.912E-01
  -8.556  0.910E-01  0.910E-01
  -8.546  0.907E-01  0.907E-01
  -8.536  0.905E-01  0.905E-01
  -8.526  0.902E-01  0.902E-01
  -8.516  0.899E-01  0.899E-01
  -8.506  0.896E-01  0.896E-01
  -8.496  0.892E-01  0.892E-01
  -8.486  0.889E-01  0.889E-01
  -8.476  0.885E-01  0.885E-01
  -8.466  0.881E-01  0.881E-01
  -8.456  0.877E-01  0.877E-01
  -8.446  0.873E-01  0.873E-01
  -8.436  0.868E-01  0.868E-01
  -8.426  0.864E-01  0.864E-01
  -8.416  0.859E-01  0.859E-01
  -8.406  0.854E-01  0.854E-01
  -8.396  0.849E-01  0.849E-01
  -8.386  0.843E-01  0.843E-01
  -8.376  0.838E-01  0.838E-01
  -8.366  0.832E-01  0.832E-01
  -8.356  0.827E-01  0.827E-01
  -8.346  0.821E-01  0.821E-01
  -8.336  0.815E-01  0.815E-01
  -8.326  0.809E-01  0.809E-01
  -8.316  0.803E-01  0.803E-01
  -8.306  0.796E-01  0.796E-01
  -8.296  0.790E-01  0.790E-01
  -8.286  0.783E-01  0.783E-01
  -8.276  0.776E-01  0.776E-01
  -8.266  0.769E-01  0.769E-01
  -8.256  0.763E-01  0.763E-01
  -8.246  0.756E-01  0.756E-01
  -8.236  0.749E-01  0.749E-01
  -8.226  0.741E-01  0.741E-01
  -8.216  0.734E-01  0.734E-01
  -8.206  0.727E-01  0.727E-01
  -8.196  0.720E-01  0.720E-01
  -8.186  0.712E-01  0.712E-01
  -8.176  0.705E-01  0.705E-01
  -8.166  0.698E-01  0.698E-01
  -8.156  0.690E-01  0.690E-01
  -8.146  0.683E-01  0.683E-01
  -8.136  0.676E-01  0.676E-01
  -8.126  0.669E-01  0.669E-01
  -8.116  0.661E-01  0.661E-01
  -8.106  0.654E-01  0.654E-01
  -8.096  0.647E-01  0.647E-01
  -8.086  0.640E-01  0.640E-01
  -8.076  0.633E-01  0.633E-01
  -8.066  0.626E-01  0.626E-01
  -8.056  0.620E-01  0.620E-01
  -8.046  0.613E-01  0.613E-01
  -8.036  0.607E-01  0.607E-01
  -8.026  0.601E-01  0.601E-01
  -8.016  0.595E-01  0.595E-01
  -8.006  0.589E-01  0.589E-01
  -7.996  0.583E-01  0.583E-01
  -7.986  0.578E-01  0.578E-01
  -7.976  0.572E-01  0.572E-01
  -7.966  0.567E-01  0.567E-01
  -7.956  0.563E-01  0.563E-01
  -7.946  0.558E-01  0.558E-01
  -7.936  0.554E-01  0.554E-01
  -7.926  0.550E-01  0.550E-01
  -7.916  0.546E-01  0.546E-01
  -7.906  0.543E-01  0.543E-01
  -7.896  0.540E-01  0.540E-01
  -7.886  0.537E-01  0.537E-01
  -7.876  0.535E-01  0.535E-01
  -7.866  0.533E-01  0.533E-01
  -7.856  0.531E-01  0.531E-01
  -7.846  0.530E-01  0.530E-01
  -7.836  0.529E-01  0.529E-01
  -7.826  0.528E-01  0.528E-01
  -7.816  0.528E-01  0.528E-01
  -7.806  0.528E-01  0.528E-01
  -7.796  0.529E-01  0.529E-01
  -7.786  0.530E-01  0.530E-01
  -7.776  0.531E-01  0.531E-01
  -7.766  0.533E-01  0.533E-01
  -7.756  0.535E-01  0.535E-01
  -7.746  0.537E-01  0.537E-01
  -7.736  0.540E-01  0.540E-01
  -7.726  0.543E-01  0.543E-01
  -7.716  0.547E-01  0.547E-01
  -7.706  0.551E-01  0.551E-01
  -7.696  0.555E-01  0.555E-01
  -7.686  0.560E-01  0.560E-01
  -7.676  0.565E-01  0.565E-01
  -7.666  0.570E-01  0.570E-01
  -7.656  0.576E-01  0.576E-01
  -7.646  0.582E-01  0.582E-01
  -7.636  0.588E-01  0.588E-01
  -7.626  0.595E-01  0.595E-01
  -7.616  0.602E-01  0.602E-01
  -7.606  0.609E-01  0.609E-01
  -7.596  0.617E-01  0.617E-01
  -7.586  0.624E-01  0.624E-01
  -7.576  0.632E-01  0.632E-01
  -7.566  0.641E-01  0.641E-01
  -7.556  0.649E-01  0.649E-01
  -7.546  0.658E-01  0.658E-01
  -7.536  0.666E-01  0.666E-01
  -7.526  0.675E-01  0.675E-01
  -7.516  0.684E-01  0.684E-01
  -7.506  0.694E-01  0.694E-01
  -7.496  0.703E-01  0.703E-01
  -7.486  0.712E-01  0.712E-01
  -7.476  0.722E-01  0.722E-01
  -7.466  0.731E-01  0.731E-01
  -7.456  0.741E-01  0.741E-01
  -7.446  0.750E-01  0.750E-01
  -7.436  0.760E-01  0.760E-01
  -7.426  0.769E-01  0.769E-01
  -7.416  0.779E-01  0.779E-01
  -7.406  0.788E-01  0.788E-01
  -7.396  0.797E-01  0.797E-01
  -7.386  0.806E-01  0.806E-01
  -7.376  0.815E-01  0.815E-01
  -7.366  0.824E-01  0.824E-01
  -7.356  0.833E-01  0.833E-01
  -7.346  0.841E-01  0.841E-01
  -7.336  0.849E-01  0.849E-01
  -7.326  0.857E-01  0.857E-01
  -7.316  0.865E-01  0.865E-01
  -7.306  0.873E-01  0.873E-01
  -7.296  0.880E-01  0.880E-01
  -7.286  0.886E-01  0.886E-01
  -7.276  0.893E-01  0.893E-01
  -7.266  0.899E-01  0.899E-01
  -7.256  0.905E-01  0.905E-01
  -7.246  0.910E-01  0.910E-01
  -7.236  0.915E-01  0.915E-01
  -7.226  0.920E-01  0.920E-01
  -7.216  0.924E-01  0.924E-01
  -7.206  0.928E-01  0.928E-01
  -7.196  0.931E-01  0.931E-01
  -7.186  0.934E-01  0.934E-01
  -7.176  0.936E-01  0.936E-01
  -7.166  0.938E-01  0.938E-01
  -7.156  0.940E-01  0.940E-01
  -7.146  0.941E-01  0.941E-01
  -7.136  0.941E-01  0.941E-01
  -7.126  0.941E-01  0.941E-01
  -7.116  0.940E-01  0.940E-01
  -7.106  0.939E-01  0.939E-01
  -7.096  0.938E-01  0.938E-01
  -7.086  0.936E-01  0.936E-01
  -7.076  0.933E-01  0.933E-01
  -7.066  0.930E-01  0.930E-01
  -7.056  0.927E-01  0.927E-01
  -7.046  0.922E-01  0.922E-01
  -7.036  0.918E-01  0.918E-01
  -7.026  0.913E-01  0.913E-01
  -7.016  0.907E-01  0.907E-01
  -7.006  0.901E-01  0.901E-01
  -6.996  0.895E-01  0.895E-01
  -6.986  0.888E-01  0.888E-01
  -6.976  0.880E-01  0.880E-01
  -6.966  0.872E-01  0.872E-01
  -6.956  0.864E-01  0.864E-01
  -6.946  0.855E-01  0.855E-01
  -6.936  0.846E-01  0.846E-01
  -6.926  0.836E-01  0.836E-01
  -6.916  0.826E-01  0.826E-01
  -6.906  0.816E-01  0.816E-01
  -6.896  0.805E-01  0.805E-01
  -6.886  0.794E-01  0.794E-01
  -6.876  0.782E-01  0.782E-01
  -6.866  0.771E-01  0.771E-01
  -6.856  0.759E-01  0.759E-01
  -6.846  0.746E-01  0.746E-01
  -6.836  0.734E-01  0.734E-01
  -6.826  0.721E-01  0.721E-01
  -6.816  0.708E-01  0.708E-01
  -6.806  0.694E-01  0.694E-01
  -6.796  0.681E-01  0.681E-01
  -6.786  0.667E-01  0.667E-01
  -6.776  0.654E-01  0.654E-01
  -6.766  0.640E-01  0.640E-01
  -6.756  0.626E-01  0.626E-01
  -6.746  0.612E-01  0.612E-01
  -6.736  0.597E-01  0.597E-01
  -6.726  0.583E-01  0.583E-01
  -6.716  0.569E-01  0.569E-01
  -6.706  0.555E-01  0.555E-01
  -6.696  0.540E-01  0.540E-01
  -6.686  0.526E-01  0.526E-01
  -6.676  0.512E-01  0.512E-01
  -6.666  0.498E-01  0.498E-01
  -6.656  0.484E-01  0.484E-01
  -6.646  0.470E-01  0.470E-01
  -6.636  0.456E-01  0.456E-01
  -6.626  0.443E-01  0.443E-01
  -6.616  0.429E-01  0.429E-01
  -6.606  0.416E-01  0.416E-01
  -6.596  0.403E-01  0.403E-01
  -6.586  0.390E-01  0.390E-01
  -6.576  0.377E-01  0.377E-01
  -6.566  0.365E-01  0.365E-01
  -6.556  0.353E-01  0.353E-01
  -6.546  0.341E-01  0.341E-01
  -6.536  0.329E-01  0.329E-01
  -6.526  0.318E-01  0.318E-01
  -6.516  0.307E-01  0.307E-01
  -6.506  0.297E-01  0.297E-01
  -6.496  0.287E-01  0.287E-01
  -6.486  0.277E-01  0.277E-01
  -6.476  0.267E-01  0.267E-01
  -6.466  0.258E-01  0.258E-01
  -6.456  0.249E-01  0.249E-01
  -6.446  0.241E-01  0.241E-01
  -6.436  0.233E-01  0.233E-01
  -6.426  0.225E-01  0.225E-01
  -6.416  0.218E-01  0.218E-01
  -6.406  0.212E-01  0.212E-01
  -6.396  0.205E-01  0.205E-01
  -6.386  0.199E-01  0.199E-01
  -6.376  0.194E-01  0.194E-01
  -6.366  0.189E-01  0.189E-01
  -6.356  0.184E-01  0.184E-01
  -6.346  0.180E-01  0.180E-01
  -6.336  0.176E-01  0.176E-01
  -6.326  0.173E-01  0.173E-01
  -6.316  0.170E-01  0.170E-01
  -6.306  0.168E-01  0.168E-01
  -6.296  0.166E-01  0.166E-01
  -6.286  0.164E-01  0.164E-01
  -6.276  0.163E-01  0.163E-01
  -6.266  0.162E-01  0.162E-01
  -6.256  0.161E-01  0.161E-01
  -6.246  0.161E-01  0.161E-01
  -6.236  0.162E-01  0.162E-01
  -6.226  0.162E-01  0.162E-01
  -6.216  0.163E-01  0.163E-01
  -6.206  0.165E-01  0.165E-01
  -6.196  0.167E-01  0.167E-01
  -6.186  0.169E-01  0.169E-01
  -6.176  0.171E-01  0.171E-01
  -6.166  0.174E-01  0.174E-01
  -6.156  0.177E-01  0.177E-01
  -6.146  0.180E-01  0.180E-01
  -6.136  0.184E-01  0.184E-01
  -6.126  0.188E-01  0.188E-01
  -6.116  0.192E-01  0.192E-01
  -6.106  0.196E-01  0.196E-01
  -6.096  0.201E-01  0.201E-01
  -6.086  0.206E-01  0.206E-01
  -6.076  0.211E-01  0.211E-01
  -6.066  0.216E-01  0.216E-01
  -6.056  0.221E-01  0.221E-01
  -6.046  0.227E-01  0.227E-01
  -6.036  0.232E-01  0.232E-01
  -6.026  0.238E-01  0.238E-01
  -6.016  0.244E-01  0.244E-01
  -6.006  0.250E-01  0.250E-01
  -5.996  0.256E-01  0.256E-01
  -5.986  0.262E-01  0.262E-01
  -5.976  0.269E-01  0.269E-01
  -5.966  0.275E-01  0.275E-01
  -5.956  0.281E-01  0.281E-01
  -5.946  0.287E-01  0.287E-01
  -5.936  0.294E-01  0.294E-01
  -5.926  0.300E-01  0.300E-01
  -5.916  0.306E-01  0.306E-01
  -5.906  0.313E-01  0.313E-01
  -5.896  0.319E-01  0.319E-01
  -5.886  0.325E-01  0.325E-01
  -5.876  0.331E-01  0.331E-01
  -5.866  0.337E-01  0.337E-01
  -5.856  0.343E-01  0.343E-01
  -5.846  0.349E-01  0.349E-01
  -5.836  0.354E-01  0.354E-01
  -5.826  0.360E-01  0.360E-01
  -5.816  0.365E-01  0.365E-01
  -5.806  0.370E-01  0.370E-01
  -5.796  0.376E-01  0.376E-01
  -5.786  0.381E-01  0.381E-01
  -5.776  0.385E-01  0.385E-01
  -5.766  0.390E-01  0.390E-01
  -5.756  0.394E-01  0.394E-01
  -5.746  0.399E-01  0.399E-01
  -5.736  0.403E-01  0.403E-01
  -5.726  0.407E-01  0.407E-01
  -5.716  0.411E-01  0.411E-01
  -5.706  0.414E-01  0.414E-01
  -5.696  0.418E-01  0.418E-01
  -5.686  0.421E-01  0.421E-01
  -5.676  0.424E-01  0.424E-01
  -5.666  0.426E-01  0.426E-01
  -5.656  0.429E-01  0.429E-01
  -5.646  0.431E-01  0.431E-01
  -5.636  0.434E-01  0.434E-01
  -5.626  0.436E-01  0.436E-01
  -5.616  0.437E-01  0.437E-01
  -5.606  0.439E-01  0.439E-01
  -5.596  0.440E-01  0.440E-01
  -5.586  0.442E-01  0.442E-01
  -5.576  0.443E-01  0.443E-01
  -5.566  0.444E-01  0.444E-01
  -5.556  0.444E-01  0.444E-01
  -5.546  0.445E-01  0.445E-01
  -5.536  0.445E-01  0.445E-01
  -5.526  0.446E-01  0.446E-01
  -5.516  0.446E-01  0.446E-01
  -5.506  0.446E-01  0.446E-01
  -5.496  0.445E-01  0.445E-01
  -5.486  0.445E-01  0.445E-01
  -5.476  0.445E-01  0.445E-01
  -5.466  0.444E-01  0.444E-01
  -5.456  0.443E-01  0.443E-01
  -5.446  0.443E-01  0.443E-01
  -5.436  0.442E-01  0.442E-01
  -5.426  0.441E-01  0.441E-01
  -5.416  0.440E-01  0.440E-01
  -5.406  0.438E-01  0.438E-01
  -5.396  0.437E-01  0.437E-01
  -5.386  0.436E-01  0.436E-01
  -5.376  0.435E-01  0.435E-01
  -5.366  0.433E-01  0.433E-01
  -5.356  0.432E-01  0.432E-01
  -5.346  0.430E-01  0.430E-01
  -5.336  0.429E-01  0.429E-01
  -5.326  0.428E-01  0.428E-01
  -5.316  0.426E-01  0.426E-01
  -5.306  0.425E-01  0.425E-01
  -5.296  0.423E-01  0.423E-01
  -5.286  0.422E-01  0.422E-01
  -5.276  0.420E-01  0.420E-01
  -5.266  0.419E-01  0.419E-01
  -5.256  0.417E-01  0.417E-01
  -5.246  0.416E-01  0.416E-01
  -5.236  0.415E-01  0.415E-01
  -5.226  0.413E-01  0.413E-01
  -5.216  0.412E-01  0.412E-01
  -5.206  0.411E-01  0.411E-01
  -5.196  0.410E-01  0.410E-01
  -5.186  0.409E-01  0.409E-01
  -5.176  0.408E-01  0.408E-01
  -5.166  0.407E-01  0.407E-01
  -5.156  0.406E-01  0.406E-01
  -5.146  0.405E-01  0.405E-01
  -5.136  0.405E-01  0.405E-01
  -5.126  0.404E-01  0.404E-01
  -5.116  0.404E-01  0.404E-01
  -5.106  0.404E-01  0.404E-01
  -5.096  0.403E-01  0.403E-01
  -5.086  0.403E-01  0.403E-01
  -5.076  0.403E-01  0.403E-01
  -5.066  0.403E-01  0.403E-01
  -5.056  0.403E-01  0.403E-01
  -5.046  0.404E-01  0.404E-01
  -5.036  0.404E-01  0.404E-01
  -5.026  0.405E-01  0.405E-01
  -5.016  0.405E-01  0.405E-01
  -5.006  0.406E-01  0.406E-01
  -4.996  0.407E-01  0.407E-01
  -4.986  0.408E-01  0.408E-01
  -4.976  0.409E-01  0.409E-01
  -4.966  0.410E-01  0.410E-01
  -4.956  0.412E-01  0.412E-01
  -4.946  0.413E-01  0.413E-01
  -4.936  0.415E-01  0.415E-01
  -4.926  0.417E-01  0.417E-01
  -4.916  0.418E-01  0.418E-01
  -4.906  0.420E-01  0.420E-01
  -4.896  0.423E-01  0.423E-01
  -4.886  0.425E-01  0.425E-01
  -4.876  0.427E-01  0.427E-01
  -4.866  0.430E-01  0.430E-01
  -4.856  0.432E-01  0.432E-01
  -4.846  0.435E-01  0.435E-01
  -4.836  0.438E-01  0.438E-01
  -4.826  0.441E-01  0.441E-01
  -4.816  0.444E-01  0.444E-01
  -4.806  0.447E-01  0.447E-01
  -4.796  0.451E-01  0.451E-01
  -4.786  0.454E-01  0.454E-01
  -4.776  0.458E-01  0.458E-01
  -4.766  0.461E-01  0.461E-01
  -4.756  0.465E-01  0.465E-01
  -4.746  0.469E-01  0.469E-01
  -4.736  0.473E-01  0.473E-01
  -4.726  0.478E-01  0.478E-01
  -4.716  0.482E-01  0.482E-01
  -4.706  0.486E-01  0.486E-01
  -4.696  0.491E-01  0.491E-01
  -4.686  0.496E-01  0.496E-01
  -4.676  0.500E-01  0.500E-01
  -4.666  0.505E-01  0.505E-01
  -4.656  0.510E-01  0.510E-01
  -4.646  0.515E-01  0.515E-01
  -4.636  0.520E-01  0.520E-01
  -4.626  0.526E-01  0.526E-01
  -4.616  0.531E-01  0.531E-01
  -4.606  0.537E-01  0.537E-01
  -4.596  0.542E-01  0.542E-01
  -4.586  0.548E-01  0.548E-01
  -4.576  0.554E-01  0.554E-01
  -4.566  0.560E-01  0.560E-01
  -4.556  0.566E-01  0.566E-01
  -4.546  0.572E-01  0.572E-01
  -4.536  0.578E-01  0.578E-01
  -4.526  0.584E-01  0.584E-01
  -4.516  0.590E-01  0.590E-01
  -4.506  0.597E-01  0.597E-01
  -4.496  0.603E-01  0.603E-01
  -4.486  0.610E-01  0.610E-01
  -4.476  0.616E-01  0.616E-01
  -4.466  0.623E-01  0.623E-01
  -4.456  0.629E-01  0.629E-01
  -4.446  0.636E-01  0.636E-01
  -4.436  0.643E-01  0.643E-01
  -4.426  0.650E-01  0.650E-01
  -4.416  0.657E-01  0.657E-01
  -4.406  0.664E-01  0.664E-01
  -4.396  0.670E-01  0.670E-01
  -4.386  0.677E-01  0.677E-01
  -4.376  0.684E-01  0.684E-01
  -4.366  0.691E-01  0.691E-01
  -4.356  0.698E-01  0.698E-01
  -4.346  0.705E-01  0.705E-01
  -4.336  0.712E-01  0.712E-01
  -4.326  0.719E-01  0.719E-01
  -4.316  0.726E-01  0.726E-01
  -4.306  0.733E-01  0.733E-01
  -4.296  0.740E-01  0.740E-01
  -4.286  0.747E-01  0.747E-01
  -4.276  0.754E-01  0.754E-01
  -4.266  0.760E-01  0.760E-01
  -4.256  0.767E-01  0.767E-01
  -4.246  0.774E-01  0.774E-01
  -4.236  0.780E-01  0.780E-01
  -4.226  0.787E-01  0.787E-01
  -4.216  0.793E-01  0.793E-01
  -4.206  0.800E-01  0.800E-01
  -4.196  0.806E-01  0.806E-01
  -4.186  0.812E-01  0.812E-01
  -4.176  0.819E-01  0.819E-01
  -4.166  0.825E-01  0.825E-01
  -4.156  0.831E-01  0.831E-01
  -4.146  0.837E-01  0.837E-01
  -4.136  0.842E-01  0.842E-01
  -4.126  0.848E-01  0.848E-01
  -4.116  0.854E-01  0.854E-01
  -4.106  0.859E-01  0.859E-01
  -4.096  0.864E-01  0.864E-01
  -4.086  0.869E-01  0.869E-01
  -4.076  0.874E-01  0.874E-01
  -4.066  0.879E-01  0.879E-01
  -4.056  0.884E-01  0.884E-01
  -4.046  0.889E-01  0.889E-01
  -4.036  0.893E-01  0.893E-01
  -4.026  0.898E-01  0.898E-01
  -4.016  0.902E-01  0.902E-01
  -4.006  0.906E-01  0.906E-01
  -3.996  0.910E-01  0.910E-01
  -3.986  0.913E-01  0.913E-01
  -3.976  0.917E-01  0.917E-01
  -3.966  0.920E-01  0.920E-01
  -3.956  0.924E-01  0.924E-01
  -3.946  0.927E-01  0.927E-01
  -3.936  0.930E-01  0.930E-01
  -3.926  0.933E-01  0.933E-01
  -3.916  0.935E-01  0.935E-01
  -3.906  0.938E-01  0.938E-01
  -3.896  0.940E-01  0.940E-01
  -3.886  0.942E-01  0.942E-01
  -3.876  0.944E-01  0.944E-01
  -3.866  0.946E-01  0.946E-01
  -3.856  0.948E-01  0.948E-01
  -3.846  0.949E-01  0.949E-01
  -3.836  0.951E-01  0.951E-01
  -3.826  0.952E-01  0.952E-01
  -3.816  0.953E-01  0.953E-01
  -3.806  0.954E-01  0.954E-01
  -3.796  0.955E-01  0.955E-01
  -3.786  0.955E-01  0.955E-01
  -3.776  0.956E-01  0.956E-01
  -3.766  0.956E-01  0.956E-01
  -3.756  0.956E-01  0.956E-01
  -3.746  0.956E-01  0.956E-01
  -3.736  0.956E-01  0.956E-01
  -3.726  0.956E-01  0.956E-01
  -3.716  0.956E-01  0.956E-01
  -3.706  0.955E-01  0.955E-01
  -3.696  0.955E-01  0.955E-01
  -3.686  0.954E-01  0.954E-01
  -3.676  0.953E-01  0.953E-01
  -3.666  0.952E-01  0.952E-01
  -3.656  0.951E-01  0.951E-01
  -3.646  0.950E-01  0.950E-01
  -3.636  0.949E-01  0.949E-01
  -3.626  0.947E-01  0.947E-01
  -3.616  0.946E-01  0.946E-01
  -3.606  0.944E-01  0.944E-01
  -3.596  0.943E-01  0.943E-01
  -3.586  0.941E-01  0.941E-01
  -3.576  0.939E-01  0.939E-01
  -3.566  0.937E-01  0.937E-01
  -3.556  0.935E-01  0.935E-01
  -3.546  0.933E-01  0.933E-01
  -3.536  0.931E-01  0.931E-01
  -3.526  0.928E-01  0.928E-01
  -3.516  0.926E-01  0.926E-01
  -3.506  0.924E-01  0.924E-01
  -3.496  0.921E-01  0.921E-01
  -3.486  0.918E-01  0.918E-01
  -3.476  0.916E-01  0.916E-01
  -3.466  0.913E-01  0.913E-01
  -3.456  0.910E-01  0.910E-01
  -3.446  0.907E-01  0.907E-01
  -3.436  0.905E-01  0.905E-01
  -3.426  0.902E-01  0.902E-01
  -3.416  0.899E-01  0.899E-01
  -3.406  0.896E-01  0.896E-01
  -3.396  0.893E-01  0.893E-01
  -3.386  0.889E-01  0.889E-01
  -3.376  0.886E-01  0.886E-01
  -3.366  0.883E-01  0.883E-01
  -3.356  0.880E-01  0.880E-01
  -3.346  0.877E-01  0.877E-01
  -3.336  0.873E-01  0.873E-01
  -3.326  0.870E-01  0.870E-01
  -3.316  0.867E-01  0.867E-01
  -3.306  0.863E-01  0.863E-01
  -3.296  0.860E-01  0.860E-01
  -3.286  0.857E-01  0.857E-01
  -3.276  0.853E-01  0.853E-01
  -3.266  0.850E-01  0.850E-01
  -3.256  0.846E-01  0.846E-01
  -3.246  0.843E-01  0.843E-01
  -3.236  0.840E-01  0.840E-01
  -3.226  0.836E-01  0.836E-01
  -3.216  0.833E-01  0.833E-01
  -3.206  0.830E-01  0.830E-01
  -3.196  0.827E-01  0.827E-01
  -3.186  0.823E-01  0.823E-01
  -3.176  0.820E-01  0.820E-01
  -3.166  0.817E-01  0.817E-01
  -3.156  0.814E-01  0.814E-01
  -3.146  0.811E-01  0.811E-01
  -3.136  0.808E-01  0.808E-01
  -3.126  0.805E-01  0.805E-01
  -3.116  0.803E-01  0.803E-01
  -3.106  0.800E-01  0.800E-01
  -3.096  0.797E-01  0.797E-01
  -3.086  0.795E-01  0.795E-01
  -3.076  0.793E-01  0.793E-01
  -3.066  0.790E-01  0.790E-01
  -3.056  0.788E-01  0.788E-01
  -3.046  0.786E-01  0.786E-01
  -3.036  0.785E-01  0.785E-01
  -3.026  0.783E-01  0.783E-01
  -3.016  0.781E-01  0.781E-01
  -3.006  0.780E-01  0.780E-01
  -2.996  0.779E-01  0.779E-01
  -2.986  0.778E-01  0.778E-01
  -2.976  0.777E-01  0.777E-01
  -2.966  0.777E-01  0.777E-01
  -2.956  0.777E-01  0.777E-01
  -2.946  0.777E-01  0.777E-01
  -2.936  0.777E-01  0.777E-01
  -2.926  0.777E-01  0.777E-01
  -2.916  0.778E-01  0.778E-01
  -2.906  0.779E-01  0.779E-01
  -2.896  0.780E-01  0.780E-01
  -2.886  0.781E-01  0.781E-01
  -2.876  0.783E-01  0.783E-01
  -2.866  0.785E-01  0.785E-01
  -2.856  0.787E-01  0.787E-01
  -2.846  0.790E-01  0.790E-01
  -2.836  0.793E-01  0.793E-01
  -2.826  0.796E-01  0.796E-01
  -2.816  0.800E-01  0.800E-01
  -2.806  0.804E-01  0.804E-01
  -2.796  0.808E-01  0.808E-01
  -2.786  0.813E-01  0.813E-01
  -2.776  0.818E-01  0.818E-01
  -2.766  0.823E-01  0.823E-01
  -2.756  0.829E-01  0.829E-01
  -2.746  0.835E-01  0.835E-01
  -2.736  0.841E-01  0.841E-01
  -2.726  0.848E-01  0.848E-01
  -2.716  0.855E-01  0.855E-01
  -2.706  0.862E-01  0.862E-01
  -2.696  0.870E-01  0.870E-01
  -2.686  0.878E-01  0.878E-01
  -2.676  0.886E-01  0.886E-01
  -2.666  0.895E-01  0.895E-01
  -2.656  0.904E-01  0.904E-01
  -2.646  0.914E-01  0.914E-01
  -2.636  0.924E-01  0.924E-01
  -2.626  0.934E-01  0.934E-01
  -2.616  0.944E-01  0.944E-01
  -2.606  0.955E-01  0.955E-01
  -2.596  0.966E-01  0.966E-01
  -2.586  0.977E-01  0.977E-01
  -2.576  0.989E-01  0.989E-01
  -2.566  0.100E+00  0.100E+00
  -2.556  0.101E+00  0.101E+00
  -2.546  0.102E+00  0.102E+00
  -2.536  0.104E+00  0.104E+00
  -2.526  0.105E+00  0.105E+00
  -2.516  0.106E+00  0.106E+00
  -2.506  0.108E+00  0.108E+00
  -2.496  0.109E+00  0.109E+00
  -2.486  0.110E+00  0.110E+00
  -2.476  0.112E+00  0.112E+00
  -2.466  0.113E+00  0.113E+00
  -2.456  0.114E+00  0.114E+00
  -2.446  0.116E+00  0.116E+00
  -2.436  0.117E+00  0.117E+00
  -2.426  0.118E+00  0.118E+00
  -2.416  0.120E+00  0.120E+00
  -2.406  0.121E+00  0.121E+00
  -2.396  0.123E+00  0.123E+00
  -2.386  0.124E+00  0.124E+00
  -2.376  0.125E+00  0.125E+00
  -2.366  0.127E+00  0.127E+00
  -2.356  0.128E+00  0.128E+00
  -2.346  0.129E+00  0.129E+00
  -2.336  0.131E+00  0.131E+00
  -2.326  0.132E+00  0.132E+00
  -2.316  0.133E+00  0.133E+00
  -2.306  0.134E+00  0.134E+00
  -2.296  0.135E+00  0.135E+00
  -2.286  0.137E+00  0.137E+00
  -2.276  0.138E+00  0.138E+00
  -2.266  0.139E+00  0.139E+00
  -2.256  0.140E+00  0.140E+00
  -2.246  0.141E+00  0.141E+00
  -2.236  0.142E+00  0.142E+00
  -2.226  0.143E+00  0.143E+00
  -2.216  0.144E+00  0.144E+00
  -2.206  0.145E+00  0.145E+00
  -2.196  0.145E+00  0.145E+00
  -2.186  0.146E+00  0.146E+00
  -2.176  0.147E+00  0.147E+00
  -2.166  0.148E+00  0.148E+00
  -2.156  0.148E+00  0.148E+00
  -2.146  0.149E+00  0.149E+00
  -2.136  0.149E+00  0.149E+00
  -2.126  0.150E+00  0.150E+00
  -2.116  0.150E+00  0.150E+00
  -2.106  0.150E+00  0.150E+00
  -2.096  0.150E+00  0.150E+00
  -2.086  0.151E+00  0.151E+00
  -2.076  0.151E+00  0.151E+00
  -2.066  0.151E+00  0.151E+00
  -2.056  0.151E+00  0.151E+00
  -2.046  0.151E+00  0.151E+00
  -2.036  0.151E+00  0.151E+00
  -2.026  0.150E+00  0.150E+00
  -2.016  0.150E+00  0.150E+00
  -2.006  0.150E+00  0.150E+00
  -1.996  0.149E+00  0.149E+00
  -1.986  0.149E+00  0.149E+00
  -1.976  0.148E+00  0.148E+00
  -1.966  0.148E+00  0.148E+00
  -1.956  0.147E+00  0.147E+00
  -1.946  0.146E+00  0.146E+00
  -1.936  0.146E+00  0.146E+00
  -1.926  0.145E+00  0.145E+00
  -1.916  0.144E+00  0.144E+00
  -1.906  0.143E+00  0.143E+00
  -1.896  0.142E+00  0.142E+00
  -1.886  0.141E+00  0.141E+00
  -1.876  0.140E+00  0.140E+00
  -1.866  0.139E+00  0.139E+00
  -1.856  0.137E+00  0.137E+00
  -1.846  0.136E+00  0.136E+00
  -1.836  0.135E+00  0.135E+00
  -1.826  0.134E+00  0.134E+00
  -1.816  0.132E+00  0.132E+00
  -1.806  0.131E+00  0.131E+00
  -1.796  0.129E+00  0.129E+00
  -1.786  0.128E+00  0.128E+00
  -1.776  0.126E+00  0.126E+00
  -1.766  0.125E+00  0.125E+00
  -1.756  0.123E+00  0.123E+00
  -1.746  0.121E+00  0.121E+00
  -1.736  0.120E+00  0.120E+00
  -1.726  0.118E+00  0.118E+00
  -1.716  0.116E+00  0.116E+00
  -1.706  0.115E+00  0.115E+00
  -1.696  0.113E+00  0.113E+00
  -1.686  0.111E+00  0.111E+00
  -1.676  0.110E+00  0.110E+00
  -1.666  0.108E+00  0.108E+00
  -1.656  0.106E+00  0.106E+00
  -1.646  0.104E+00  0.104E+00
  -1.636  0.103E+00  0.103E+00
  -1.626  0.101E+00  0.101E+00
  -1.616  0.990E-01  0.990E-01
  -1.606  0.972E-01  0.972E-01
  -1.596  0.955E-01  0.955E-01
  -1.586  0.937E-01  0.937E-01
  -1.576  0.920E-01  0.920E-01
  -1.566  0.903E-01  0.903E-01
  -1.556  0.886E-01  0.886E-01
  -1.546  0.869E-01  0.869E-01
  -1.536  0.852E-01  0.852E-01
  -1.526  0.835E-01  0.835E-01
  -1.516  0.819E-01  0.819E-01
  -1.506  0.803E-01  0.803E-01
  -1.496  0.787E-01  0.787E-01
  -1.486  0.771E-01  0.771E-01
  -1.476  0.756E-01  0.756E-01
  -1.466  0.740E-01  0.740E-01
  -1.456  0.725E-01  0.725E-01
  -1.446  0.711E-01  0.711E-01
  -1.436  0.696E-01  0.696E-01
  -1.426  0.682E-01  0.682E-01
  -1.416  0.668E-01  0.668E-01
  -1.406  0.655E-01  0.655E-01
  -1.396  0.642E-01  0.642E-01
  -1.386  0.629E-01  0.629E-01
  -1.376  0.616E-01  0.616E-01
  -1.366  0.604E-01  0.604E-01
  -1.356  0.592E-01  0.592E-01
  -1.346  0.581E-01  0.581E-01
  -1.336  0.570E-01  0.570E-01
  -1.326  0.559E-01  0.559E-01
  -1.316  0.548E-01  0.548E-01
  -1.306  0.538E-01  0.538E-01
  -1.296  0.528E-01  0.528E-01
  -1.286  0.519E-01  0.519E-01
  -1.276  0.509E-01  0.509E-01
  -1.266  0.500E-01  0.500E-01
  -1.256  0.492E-01  0.492E-01
  -1.246  0.483E-01  0.483E-01
  -1.236  0.475E-01  0.475E-01
  -1.226  0.468E-01  0.468E-01
  -1.216  0.460E-01  0.460E-01
  -1.206  0.453E-01  0.453E-01
  -1.196  0.446E-01  0.446E-01
  -1.186  0.439E-01  0.439E-01
  -1.176  0.433E-01  0.433E-01
  -1.166  0.427E-01  0.427E-01
  -1.156  0.421E-01  0.421E-01
  -1.146  0.415E-01  0.415E-01
  -1.136  0.410E-01  0.410E-01
  -1.126  0.405E-01  0.405E-01
  -1.116  0.400E-01  0.400E-01
  -1.106  0.395E-01  0.395E-01
  -1.096  0.390E-01  0.390E-01
  -1.086  0.386E-01  0.386E-01
  -1.076  0.382E-01  0.382E-01
  -1.066  0.377E-01  0.377E-01
  -1.056  0.373E-01  0.373E-01
  -1.046  0.370E-01  0.370E-01
  -1.036  0.366E-01  0.366E-01
  -1.026  0.362E-01  0.362E-01
  -1.016  0.359E-01  0.359E-01
  -1.006  0.355E-01  0.355E-01
  -0.996  0.352E-01  0.352E-01
  -0.986  0.349E-01  0.349E-01
  -0.976  0.346E-01  0.346E-01
  -0.966  0.343E-01  0.343E-01
  -0.956  0.340E-01  0.340E-01
  -0.946  0.337E-01  0.337E-01
  -0.936  0.334E-01  0.334E-01
  -0.926  0.331E-01  0.331E-01
  -0.916  0.328E-01  0.328E-01
  -0.906  0.326E-01  0.326E-01
  -0.896  0.323E-01  0.323E-01
  -0.886  0.320E-01  0.320E-01
  -0.876  0.318E-01  0.318E-01
  -0.866  0.315E-01  0.315E-01
  -0.856  0.312E-01  0.312E-01
  -0.846  0.310E-01  0.310E-01
  -0.836  0.307E-01  0.307E-01
  -0.826  0.305E-01  0.305E-01
  -0.816  0.302E-01  0.302E-01
  -0.806  0.299E-01  0.299E-01
  -0.796  0.297E-01  0.297E-01
  -0.786  0.294E-01  0.294E-01
  -0.776  0.292E-01  0.292E-01
  -0.766  0.289E-01  0.289E-01
  -0.756  0.287E-01  0.287E-01
  -0.746  0.284E-01  0.284E-01
  -0.736  0.282E-01  0.282E-01
  -0.726  0.279E-01  0.279E-01
  -0.716  0.277E-01  0.277E-01
  -0.706  0.274E-01  0.274E-01
  -0.696  0.272E-01  0.272E-01
  -0.686  0.269E-01  0.269E-01
  -0.676  0.267E-01  0.267E-01
  -0.666  0.264E-01  0.264E-01
  -0.656  0.262E-01  0.262E-01
  -0.646  0.260E-01  0.260E-01
  -0.636  0.257E-01  0.257E-01
  -0.626  0.255E-01  0.255E-01
  -0.616  0.253E-01  0.253E-01
  -0.606  0.251E-01  0.251E-01
  -0.596  0.249E-01  0.249E-01
  -0.586  0.247E-01  0.247E-01
  -0.576  0.245E-01  0.245E-01
  -0.566  0.243E-01  0.243E-01
  -0.556  0.241E-01  0.241E-01
  -0.546  0.240E-01  0.240E-01
  -0.536  0.238E-01  0.238E-01
  -0.526  0.237E-01  0.237E-01
  -0.516  0.236E-01  0.236E-01
  -0.506  0.234E-01  0.234E-01
  -0.496  0.233E-01  0.233E-01
  -0.486  0.232E-01  0.232E-01
  -0.476  0.232E-01  0.232E-01
  -0.466  0.231E-01  0.231E-01
  -0.456  0.230E-01  0.230E-01
  -0.446  0.230E-01  0.230E-01
  -0.436  0.230E-01  0.230E-01
  -0.426  0.230E-01  0.230E-01
  -0.416  0.230E-01  0.230E-01
  -0.406  0.230E-01  0.230E-01
  -0.396  0.231E-01  0.231E-01
  -0.386  0.231E-01  0.231E-01
  -0.376  0.232E-01  0.232E-01
  -0.366  0.233E-01  0.233E-01
  -0.356  0.235E-01  0.235E-01
  -0.346  0.236E-01  0.236E-01
  -0.336  0.238E-01  0.238E-01
  -0.326  0.239E-01  0.239E-01
  -0.316  0.241E-01  0.241E-01
  -0.306  0.244E-01  0.244E-01
  -0.296  0.246E-01  0.246E-01
  -0.286  0.249E-01  0.249E-01
  -0.276  0.252E-01  0.252E-01
  -0.266  0.255E-01  0.255E-01
  -0.256  0.258E-01  0.258E-01
  -0.246  0.261E-01  0.261E-01
  -0.236  0.265E-01  0.265E-01
  -0.226  0.269E-01  0.269E-01
  -0.216  0.273E-01  0.273E-01
  -0.206  0.277E-01  0.277E-01
  -0.196  0.281E-01  0.281E-01
  -0.186  0.286E-01  0.286E-01
  -0.176  0.291E-01  0.291E-01
  -0.166  0.296E-01  0.296E-01
  -0.156  0.301E-01  0.301E-01
  -0.146  0.306E-01  0.306E-01
  -0.136  0.312E-01  0.312E-01
  -0.126  0.317E-01  0.317E-01
  -0.116  0.323E-01  0.323E-01
  -0.106  0.329E-01  0.329E-01
  -0.096  0.335E-01  0.335E-01
  -0.086  0.341E-01  0.341E-01
  -0.076  0.347E-01  0.347E-01
  -0.066  0.354E-01  0.354E-01
  -0.056  0.360E-01  0.360E-01
  -0.046  0.367E-01  0.367E-01
  -0.036  0.373E-01  0.373E-01
  -0.026  0.380E-01  0.380E-01
  -0.016  0.387E-01  0.387E-01
  -0.006  0.394E-01  0.394E-01
   0.004  0.401E-01  0.401E-01
   0.014  0.408E-01  0.408E-01
   0.024  0.415E-01  0.415E-01
   0.034  0.422E-01  0.422E-01
   0.044  0.429E-01  0.429E-01
   0.054  0.436E-01  0.436E-01
   0.064  0.443E-01  0.443E-01
   0.074  0.450E-01  0.450E-01
   0.084  0.457E-01  0.457E-01
   0.094  0.464E-01  0.464E-01
   0.104  0.471E-01  0.471E-01
   0.114  0.478E-01  0.478E-01
   0.124  0.485E-01  0.485E-01
   0.134  0.491E-01  0.491E-01
   0.144  0.498E-01  0.498E-01
   0.154  0.505E-01  0.505E-01
   0.164  0.511E-01  0.511E-01
   0.174  0.518E-01  0.518E-01
   0.184  0.524E-01  0.524E-01
   0.194  0.530E-01  0.530E-01
   0.204  0.537E-01  0.537E-01
   0.214  0.543E-01  0.543E-01
   0.224  0.549E-01  0.549E-01
   0.234  0.554E-01  0.554E-01
   0.244  0.560E-01  0.560E-01
   0.254  0.566E-01  0.566E-01
   0.264  0.571E-01  0.571E-01
   0.274  0.576E-01  0.576E-01
   0.284  0.582E-01  0.582E-01
   0.294  0.587E-01  0.587E-01
   0.304  0.592E-01  0.592E-01
   0.314  0.596E-01  0.596E-01
   0.324  0.601E-01  0.601E-01
   0.334  0.605E-01  0.605E-01
   0.344  0.610E-01  0.610E-01
   0.354  0.614E-01  0.614E-01
   0.364  0.618E-01  0.618E-01
   0.374  0.622E-01  0.622E-01
   0.384  0.626E-01  0.626E-01
   0.394  0.629E-01  0.629E-01
   0.404  0.633E-01  0.633E-01
   0.414  0.636E-01  0.636E-01
   0.424  0.640E-01  0.640E-01
   0.434  0.643E-01  0.643E-01
   0.444  0.646E-01  0.646E-01
   0.454  0.649E-01  0.649E-01
   0.464  0.652E-01  0.652E-01
   0.474  0.654E-01  0.654E-01
   0.484  0.657E-01  0.657E-01
   0.494  0.660E-01  0.660E-01
   0.504  0.662E-01  0.662E-01
   0.514  0.665E-01  0.665E-01
   0.524  0.667E-01  0.667E-01
   0.534  0.669E-01  0.669E-01
   0.544  0.671E-01  0.671E-01
   0.554  0.673E-01  0.673E-01
   0.564  0.676E-01  0.676E-01
   0.574  0.678E-01  0.678E-01
   0.584  0.680E-01  0.680E-01
   0.594  0.682E-01  0.682E-01
   0.604  0.684E-01  0.684E-01
   0.614  0.686E-01  0.686E-01
   0.624  0.687E-01  0.687E-01
   0.634  0.689E-01  0.689E-01
   0.644  0.691E-01  0.691E-01
   0.654  0.693E-01  0.693E-01
   0.664  0.695E-01  0.695E-01
   0.674  0.697E-01  0.697E-01
   0.684  0.699E-01  0.699E-01
   0.694  0.701E-01  0.701E-01
   0.704  0.703E-01  0.703E-01
   0.714  0.705E-01  0.705E-01
   0.724  0.707E-01  0.707E-01
   0.734  0.709E-01  0.709E-01
   0.744  0.711E-01  0.711E-01
   0.754  0.713E-01  0.713E-01
   0.764  0.715E-01  0.715E-01
   0.774  0.717E-01  0.717E-01
   0.784  0.720E-01  0.720E-01
   0.794  0.722E-01  0.722E-01
   0.804  0.724E-01  0.724E-01
   0.814  0.726E-01  0.726E-01
   0.824  0.729E-01  0.729E-01
   0.834  0.731E-01  0.731E-01
   0.844  0.733E-01  0.733E-01
   0.854  0.736E-01  0.736E-01
   0.864  0.738E-01  0.738E-01
   0.874  0.741E-01  0.741E-01
   0.884  0.743E-01  0.743E-01
   0.894  0.745E-01  0.745E-01
   0.904  0.748E-01  0.748E-01
   0.914  0.750E-01  0.750E-01
   0.924  0.753E-01  0.753E-01
   0.934  0.755E-01  0.755E-01
   0.944  0.757E-01  0.757E-01
   0.954  0.760E-01  0.760E-01
   0.964  0.762E-01  0.762E-01
   0.974  0.764E-01  0.764E-01
   0.984  0.767E-01  0.767E-01
   0.994  0.769E-01  0.769E-01
   1.004  0.771E-01  0.771E-01
   1.014  0.773E-01  0.773E-01
   1.024  0.775E-01  0.775E-01
   1.034  0.777E-01  0.777E-01
   1.044  0.779E-01  0.779E-01
   1.054  0.780E-01  0.780E-01
   1.064  0.782E-01  0.782E-01
   1.074  0.783E-01  0.783E-01
   1.084  0.785E-01  0.785E-01
   1.094  0.786E-01  0.786E-01
   1.104  0.787E-01  0.787E-01
   1.114  0.788E-01  0.788E-01
   1.124  0.788E-01  0.788E-01
   1.134  0.789E-01  0.789E-01
   1.144  0.789E-01  0.789E-01
   1.154  0.790E-01  0.790E-01
   1.164  0.790E-01  0.790E-01
   1.174  0.790E-01  0.790E-01
   1.184  0.789E-01  0.789E-01
   1.194  0.789E-01  0.789E-01
   1.204  0.788E-01  0.788E-01
   1.214  0.787E-01  0.787E-01
   1.224  0.786E-01  0.786E-01
   1.234  0.784E-01  0.784E-01
   1.244  0.783E-01  0.783E-01
   1.254  0.781E-01  0.781E-01
   1.264  0.779E-01  0.779E-01
   1.274  0.777E-01  0.777E-01
   1.284  0.774E-01  0.774E-01
   1.294  0.771E-01  0.771E-01
   1.304  0.768E-01  0.768E-01
   1.314  0.765E-01  0.765E-01
   1.324  0.761E-01  0.761E-01
   1.334  0.758E-01  0.758E-01
   1.344  0.754E-01  0.754E-01
   1.354  0.749E-01  0.749E-01
   1.364  0.745E-01  0.745E-01
   1.374  0.740E-01  0.740E-01
   1.384  0.735E-01  0.735E-01
   1.394  0.730E-01  0.730E-01
   1.404  0.725E-01  0.725E-01
   1.414  0.719E-01  0.719E-01
   1.424  0.713E-01  0.713E-01
   1.434  0.707E-01  0.707E-01
   1.444  0.701E-01  0.701E-01
   1.454  0.694E-01  0.694E-01
   1.464  0.687E-01  0.687E-01
   1.474  0.681E-01  0.681E-01
   1.484  0.673E-01  0.673E-01
   1.494  0.666E-01  0.666E-01
   1.504  0.659E-01  0.659E-01
   1.514  0.651E-01  0.651E-01
   1.524  0.643E-01  0.643E-01
   1.534  0.635E-01  0.635E-01
   1.544  0.627E-01  0.627E-01
   1.554  0.619E-01  0.619E-01
   1.564  0.610E-01  0.610E-01
   1.574  0.602E-01  0.602E-01
   1.584  0.593E-01  0.593E-01
   1.594  0.585E-01  0.585E-01
   1.604  0.576E-01  0.576E-01
   1.614  0.567E-01  0.567E-01
   1.624  0.558E-01  0.558E-01
   1.634  0.549E-01  0.549E-01
   1.644  0.540E-01  0.540E-01
   1.654  0.531E-01  0.531E-01
   1.664  0.522E-01  0.522E-01
   1.674  0.512E-01  0.512E-01
   1.684  0.503E-01  0.503E-01
   1.694  0.494E-01  0.494E-01
   1.704  0.485E-01  0.485E-01
   1.714  0.476E-01  0.476E-01
   1.724  0.467E-01  0.467E-01
   1.734  0.457E-01  0.457E-01
   1.744  0.448E-01  0.448E-01
   1.754  0.439E-01  0.439E-01
   1.764  0.430E-01  0.430E-01
   1.774  0.422E-01  0.422E-01
   1.784  0.413E-01  0.413E-01
   1.794  0.404E-01  0.404E-01
   1.804  0.396E-01  0.396E-01
   1.814  0.387E-01  0.387E-01
   1.824  0.379E-01  0.379E-01
   1.834  0.371E-01  0.371E-01
   1.844  0.363E-01  0.363E-01
   1.854  0.355E-01  0.355E-01
   1.864  0.347E-01  0.347E-01
   1.874  0.340E-01  0.340E-01
   1.884  0.332E-01  0.332E-01
   1.894  0.325E-01  0.325E-01
   1.904  0.318E-01  0.318E-01
   1.914  0.311E-01  0.311E-01
   1.924  0.305E-01  0.305E-01
   1.934  0.299E-01  0.299E-01
   1.944  0.293E-01  0.293E-01
   1.954  0.287E-01  0.287E-01
   1.964  0.281E-01  0.281E-01
   1.974  0.276E-01  0.276E-01
   1.984  0.271E-01  0.271E-01
   1.994  0.266E-01  0.266E-01
   2.004  0.262E-01  0.262E-01
   2.014  0.258E-01  0.258E-01
   2.024  0.254E-01  0.254E-01
   2.034  0.250E-01  0.250E-01
   2.044  0.247E-01  0.247E-01
   2.054  0.244E-01  0.244E-01
   2.064  0.241E-01  0.241E-01
   2.074  0.239E-01  0.239E-01
   2.084  0.237E-01  0.237E-01
   2.094  0.235E-01  0.235E-01
   2.104  0.234E-01  0.234E-01
   2.114  0.233E-01  0.233E-01
   2.124  0.232E-01  0.232E-01
   2.134  0.232E-01  0.232E-01
   2.144  0.232E-01  0.232E-01
   2.154  0.233E-01  0.233E-01
   2.164  0.233E-01  0.233E-01
   2.174  0.234E-01  0.234E-01
   2.184  0.236E-01  0.236E-01
   2.194  0.238E-01  0.238E-01
   2.204  0.240E-01  0.240E-01
   2.214  0.242E-01  0.242E-01
   2.224  0.245E-01  0.245E-01
   2.234  0.249E-01  0.249E-01
   2.244  0.252E-01  0.252E-01
   2.254  0.256E-01  0.256E-01
   2.264  0.260E-01  0.260E-01
   2.274  0.265E-01  0.265E-01
   2.284  0.270E-01  0.270E-01
   2.294  0.275E-01  0.275E-01
   2.304  0.281E-01  0.281E-01
   2.314  0.287E-01  0.287E-01
   2.324  0.293E-01  0.293E-01
   2.334  0.300E-01  0.300E-01
   2.344  0.307E-01  0.307E-01
   2.354  0.314E-01  0.314E-01
   2.364  0.321E-01  0.321E-01
   2.374  0.329E-01  0.329E-01
   2.384  0.337E-01  0.337E-01
   2.394  0.346E-01  0.346E-01
   2.404  0.354E-01  0.354E-01
   2.414  0.363E-01  0.363E-01
   2.424  0.372E-01  0.372E-01
   2.434  0.381E-01  0.381E-01
   2.444  0.391E-01  0.391E-01
   2.454  0.401E-01  0.401E-01
   2.464  0.411E-01  0.411E-01
   2.474  0.421E-01  0.421E-01
   2.484  0.431E-01  0.431E-01
   2.494  0.441E-01  0.441E-01
   2.504  0.452E-01  0.452E-01
   2.514  0.462E-01  0.462E-01
   2.524  0.473E-01  0.473E-01
   2.534  0.484E-01  0.484E-01
   2.544  0.495E-01  0.495E-01
   2.554  0.506E-01  0.506E-01
   2.564  0.517E-01  0.517E-01
   2.574  0.527E-01  0.527E-01
   2.584  0.538E-01  0.538E-01
   2.594  0.549E-01  0.549E-01
   2.604  0.560E-01  0.560E-01
   2.614  0.571E-01  0.571E-01
   2.624  0.582E-01  0.582E-01
   2.634  0.593E-01  0.593E-01
   2.644  0.603E-01  0.603E-01
   2.654  0.614E-01  0.614E-01
   2.664  0.624E-01  0.624E-01
   2.674  0.634E-01  0.634E-01
   2.684  0.644E-01  0.644E-01
   2.694  0.654E-01  0.654E-01
   2.704  0.664E-01  0.664E-01
   2.714  0.673E-01  0.673E-01
   2.724  0.682E-01  0.682E-01
   2.734  0.691E-01  0.691E-01
   2.744  0.699E-01  0.699E-01
   2.754  0.708E-01  0.708E-01
   2.764  0.716E-01  0.716E-01
   2.774  0.723E-01  0.723E-01
   2.784  0.731E-01  0.731E-01
   2.794  0.737E-01  0.737E-01
   2.804  0.744E-01  0.744E-01
   2.814  0.750E-01  0.750E-01
   2.824  0.756E-01  0.756E-01
   2.834  0.762E-01  0.762E-01
   2.844  0.767E-01  0.767E-01
   2.854  0.771E-01  0.771E-01
   2.864  0.775E-01  0.775E-01
   2.874  0.779E-01  0.779E-01
   2.884  0.782E-01  0.782E-01
   2.894  0.785E-01  0.785E-01
   2.904  0.787E-01  0.787E-01
   2.914  0.789E-01  0.789E-01
   2.924  0.791E-01  0.791E-01
   2.934  0.792E-01  0.792E-01
   2.944  0.792E-01  0.792E-01
   2.954  0.792E-01  0.792E-01
   2.964  0.792E-01  0.792E-01
   2.974  0.791E-01  0.791E-01
   2.984  0.789E-01  0.789E-01
   2.994  0.787E-01  0.787E-01
   3.004  0.785E-01  0.785E-01
   3.014  0.782E-01  0.782E-01
   3.024  0.778E-01  0.778E-01
   3.034  0.775E-01  0.775E-01
   3.044  0.770E-01  0.770E-01
   3.054  0.766E-01  0.766E-01
   3.064  0.760E-01  0.760E-01
   3.074  0.755E-01  0.755E-01
   3.084  0.748E-01  0.748E-01
   3.094  0.742E-01  0.742E-01
   3.104  0.735E-01  0.735E-01
   3.114  0.728E-01  0.728E-01
   3.124  0.720E-01  0.720E-01
   3.134  0.712E-01  0.712E-01
   3.144  0.703E-01  0.703E-01
   3.154  0.694E-01  0.694E-01
   3.164  0.685E-01  0.685E-01
   3.174  0.676E-01  0.676E-01
   3.184  0.666E-01  0.666E-01
   3.194  0.656E-01  0.656E-01
   3.204  0.645E-01  0.645E-01
   3.214  0.634E-01  0.634E-01
   3.224  0.623E-01  0.623E-01
   3.234  0.612E-01  0.612E-01
   3.244  0.601E-01  0.601E-01
   3.254  0.589E-01  0.589E-01
   3.264  0.577E-01  0.577E-01
   3.274  0.565E-01  0.565E-01
   3.284  0.553E-01  0.553E-01
   3.294  0.540E-01  0.540E-01
   3.304  0.528E-01  0.528E-01
   3.314  0.515E-01  0.515E-01
   3.324  0.502E-01  0.502E-01
   3.334  0.489E-01  0.489E-01
   3.344  0.477E-01  0.477E-01
   3.354  0.464E-01  0.464E-01
   3.364  0.451E-01  0.451E-01
   3.374  0.438E-01  0.438E-01
   3.384  0.425E-01  0.425E-01
   3.394  0.412E-01  0.412E-01
   3.404  0.399E-01  0.399E-01
   3.414  0.386E-01  0.386E-01
   3.424  0.373E-01  0.373E-01
   3.434  0.360E-01  0.360E-01
   3.444  0.348E-01  0.348E-01
   3.454  0.335E-01  0.335E-01
   3.464  0.323E-01  0.323E-01
   3.474  0.310E-01  0.310E-01
   3.484  0.298E-01  0.298E-01
   3.494  0.286E-01  0.286E-01
   3.504  0.274E-01  0.274E-01
   3.514  0.262E-01  0.262E-01
   3.524  0.251E-01  0.251E-01
   3.534  0.239E-01  0.239E-01
   3.544  0.228E-01  0.228E-01
   3.554  0.217E-01  0.217E-01
   3.564  0.206E-01  0.206E-01
   3.574  0.196E-01  0.196E-01
   3.584  0.185E-01  0.185E-01
   3.594  0.175E-01  0.175E-01
   3.604  0.165E-01  0.165E-01
   3.614  0.156E-01  0.156E-01
   3.624  0.146E-01  0.146E-01
   3.634  0.137E-01  0.137E-01
   3.644  0.128E-01  0.128E-01
   3.654  0.120E-01  0.120E-01
   3.664  0.111E-01  0.111E-01
   3.674  0.103E-01  0.103E-01
   3.684  0.951E-02  0.951E-02
   3.694  0.875E-02  0.875E-02
   3.704  0.801E-02  0.801E-02
   3.714  0.730E-02  0.730E-02
   3.724  0.661E-02  0.661E-02
   3.734  0.595E-02  0.595E-02
   3.744  0.532E-02  0.532E-02
   3.754  0.471E-02  0.471E-02
   3.764  0.413E-02  0.413E-02
   3.774  0.357E-02  0.357E-02
   3.784  0.304E-02  0.304E-02
   3.794  0.253E-02  0.253E-02
   3.804  0.204E-02  0.204E-02
   3.814  0.158E-02  0.158E-02
   3.824  0.114E-02  0.114E-02
   3.834  0.727E-03  0.727E-03
   3.844  0.334E-03  0.334E-03
   3.854 -0.369E-04 -0.369E-04
   3.864 -0.386E-03 -0.386E-03
   3.874 -0.715E-03 -0.715E-03
   3.884 -0.102E-02 -0.102E-02
   3.894 -0.131E-02 -0.131E-02
   3.904 -0.158E-02 -0.158E-02
   3.914 -0.183E-02 -0.183E-02
   3.924 -0.206E-02 -0.206E-02
   3.934 -0.228E-02 -0.228E-02
   3.944 -0.247E-02 -0.247E-02
   3.954 -0.265E-02 -0.265E-02
   3.964 -0.282E-02 -0.282E-02
   3.974 -0.297E-02 -0.297E-02
   3.984 -0.310E-02 -0.310E-02
   3.994 -0.322E-02 -0.322E-02
   4.004 -0.333E-02 -0.333E-02
   4.014 -0.342E-02 -0.342E-02
   4.024 -0.351E-02 -0.351E-02
   4.034 -0.358E-02 -0.358E-02
   4.044 -0.363E-02 -0.363E-02
   4.054 -0.368E-02 -0.368E-02
   4.064 -0.372E-02 -0.372E-02
   4.074 -0.375E-02 -0.375E-02
   4.084 -0.377E-02 -0.377E-02
   4.094 -0.378E-02 -0.378E-02
   4.104 -0.378E-02 -0.378E-02
   4.114 -0.377E-02 -0.377E-02
   4.124 -0.376E-02 -0.376E-02
   4.134 -0.374E-02 -0.374E-02
   4.144 -0.372E-02 -0.372E-02
   4.154 -0.369E-02 -0.369E-02
   4.164 -0.365E-02 -0.365E-02
   4.174 -0.361E-02 -0.361E-02
   4.184 -0.356E-02 -0.356E-02
   4.194 -0.351E-02 -0.351E-02
   4.204 -0.346E-02 -0.346E-02
   4.214 -0.340E-02 -0.340E-02
   4.224 -0.334E-02 -0.334E-02
   4.234 -0.328E-02 -0.328E-02
   4.244 -0.321E-02 -0.321E-02
   4.254 -0.315E-02 -0.315E-02
   4.264 -0.308E-02 -0.308E-02
   4.274 -0.301E-02 -0.301E-02
   4.284 -0.293E-02 -0.293E-02
   4.294 -0.286E-02 -0.286E-02
   4.304 -0.279E-02 -0.279E-02
   4.314 -0.271E-02 -0.271E-02
   4.324 -0.264E-02 -0.264E-02
   4.334 -0.256E-02 -0.256E-02
   4.344 -0.249E-02 -0.249E-02
   4.354 -0.241E-02 -0.241E-02
   4.364 -0.234E-02 -0.234E-02
   4.374 -0.227E-02 -0.227E-02
   4.384 -0.219E-02 -0.219E-02
   4.394 -0.212E-02 -0.212E-02
   4.404 -0.205E-02 -0.205E-02
   4.414 -0.198E-02 -0.198E-02
   4.424 -0.191E-02 -0.191E-02
   4.434 -0.184E-02 -0.184E-02
   4.444 -0.177E-02 -0.177E-02
   4.454 -0.171E-02 -0.171E-02
   4.464 -0.164E-02 -0.164E-02
   4.474 -0.158E-02 -0.158E-02
   4.484 -0.152E-02 -0.152E-02
   4.494 -0.146E-02 -0.146E-02
   4.504 -0.140E-02 -0.140E-02
   4.514 -0.134E-02 -0.134E-02
   4.524 -0.128E-02 -0.128E-02
   4.534 -0.123E-02 -0.123E-02
   4.544 -0.118E-02 -0.118E-02
   4.554 -0.113E-02 -0.113E-02
   4.564 -0.108E-02 -0.108E-02
   4.574 -0.103E-02 -0.103E-02
   4.584 -0.981E-03 -0.981E-03
   4.594 -0.936E-03 -0.936E-03
   4.604 -0.892E-03 -0.892E-03
   4.614 -0.850E-03 -0.850E-03
   4.624 -0.810E-03 -0.810E-03
   4.634 -0.770E-03 -0.770E-03
   4.644 -0.733E-03 -0.733E-03
   4.654 -0.697E-03 -0.697E-03
   4.664 -0.662E-03 -0.662E-03
   4.674 -0.629E-03 -0.629E-03
   4.684 -0.597E-03 -0.597E-03
   4.694 -0.566E-03 -0.566E-03
   4.704 -0.536E-03 -0.536E-03
   4.714 -0.508E-03 -0.508E-03
   4.724 -0.481E-03 -0.481E-03
   4.734 -0.456E-03 -0.456E-03
   4.744 -0.431E-03 -0.431E-03
   4.754 -0.407E-03 -0.407E-03
   4.764 -0.385E-03 -0.385E-03
   4.774 -0.364E-03 -0.364E-03
   4.784 -0.343E-03 -0.343E-03
   4.794 -0.324E-03 -0.324E-03
   4.804 -0.305E-03 -0.305E-03
   4.814 -0.288E-03 -0.288E-03
   4.824 -0.271E-03 -0.271E-03
   4.834 -0.255E-03 -0.255E-03
   4.844 -0.240E-03 -0.240E-03
   4.854 -0.226E-03 -0.226E-03
   4.864 -0.212E-03 -0.212E-03
   4.874 -0.199E-03 -0.199E-03
   4.884 -0.187E-03 -0.187E-03
   4.894 -0.176E-03 -0.176E-03
   4.904 -0.165E-03 -0.165E-03
   4.914 -0.154E-03 -0.154E-03
   4.924 -0.145E-03 -0.145E-03
   4.934 -0.135E-03 -0.135E-03
   4.944 -0.127E-03 -0.127E-03
   4.954 -0.119E-03 -0.119E-03
   4.964 -0.111E-03 -0.111E-03
   4.974 -0.104E-03 -0.104E-03
   4.984 -0.969E-04 -0.969E-04
   4.994 -0.905E-04 -0.905E-04
   5.004 -0.844E-04 -0.844E-04
   5.014 -0.788E-04 -0.788E-04
   5.024 -0.734E-04 -0.734E-04
   5.034 -0.684E-04 -0.684E-04
   5.044 -0.637E-04 -0.637E-04
   5.054 -0.593E-04 -0.593E-04
   5.064 -0.552E-04 -0.552E-04
   5.074 -0.514E-04 -0.514E-04
   5.084 -0.477E-04 -0.477E-04
   5.094 -0.444E-04 -0.444E-04
   5.104 -0.412E-04 -0.412E-04
   5.114 -0.382E-04 -0.382E-04
   5.124 -0.355E-04 -0.355E-04
   5.134 -0.329E-04 -0.329E-04
   5.144 -0.305E-04 -0.305E-04
   5.154 -0.283E-04 -0.283E-04
   5.164 -0.262E-04 -0.262E-04
   5.174 -0.242E-04 -0.242E-04
   5.184 -0.224E-04 -0.224E-04
   5.194 -0.207E-04 -0.207E-04
   5.204 -0.192E-04 -0.192E-04
   5.214 -0.177E-04 -0.177E-04
   5.224 -0.163E-04 -0.163E-04
   5.234 -0.151E-04 -0.151E-04
   5.244 -0.139E-04 -0.139E-04
   5.254 -0.128E-04 -0.128E-04
   5.264 -0.118E-04 -0.118E-04
   5.274 -0.109E-04 -0.109E-04
   5.284 -0.100E-04 -0.100E-04
   5.294 -0.924E-05 -0.924E-05
