# E (eV)   ldos(E)   pdos(E)   
 -27.116 -0.233E-05 -0.233E-05
 -27.106 -0.251E-05 -0.251E-05
 -27.096 -0.271E-05 -0.271E-05
 -27.086 -0.292E-05 -0.292E-05
 -27.076 -0.315E-05 -0.315E-05
 -27.066 -0.339E-05 -0.339E-05
 -27.056 -0.365E-05 -0.365E-05
 -27.046 -0.393E-05 -0.393E-05
 -27.036 -0.423E-05 -0.423E-05
 -27.026 -0.455E-05 -0.455E-05
 -27.016 -0.489E-05 -0.489E-05
 -27.006 -0.525E-05 -0.525E-05
 -26.996 -0.563E-05 -0.563E-05
 -26.986 -0.604E-05 -0.604E-05
 -26.976 -0.648E-05 -0.648E-05
 -26.966 -0.694E-05 -0.694E-05
 -26.956 -0.743E-05 -0.743E-05
 -26.946 -0.796E-05 -0.796E-05
 -26.936 -0.851E-05 -0.851E-05
 -26.926 -0.910E-05 -0.910E-05
 -26.916 -0.973E-05 -0.973E-05
 -26.906 -0.104E-04 -0.104E-04
 -26.896 -0.111E-04 -0.111E-04
 -26.886 -0.118E-04 -0.118E-04
 -26.876 -0.126E-04 -0.126E-04
 -26.866 -0.134E-04 -0.134E-04
 -26.856 -0.143E-04 -0.143E-04
 -26.846 -0.153E-04 -0.153E-04
 -26.836 -0.162E-04 -0.162E-04
 -26.826 -0.173E-04 -0.173E-04
 -26.816 -0.183E-04 -0.183E-04
 -26.806 -0.195E-04 -0.195E-04
 -26.796 -0.207E-04 -0.207E-04
 -26.786 -0.219E-04 -0.219E-04
 -26.776 -0.233E-04 -0.233E-04
 -26.766 -0.247E-04 -0.247E-04
 -26.756 -0.261E-04 -0.261E-04
 -26.746 -0.276E-04 -0.276E-04
 -26.736 -0.292E-04 -0.292E-04
 -26.726 -0.309E-04 -0.309E-04
 -26.716 -0.327E-04 -0.327E-04
 -26.706 -0.345E-04 -0.345E-04
 -26.696 -0.364E-04 -0.364E-04
 -26.686 -0.384E-04 -0.384E-04
 -26.676 -0.405E-04 -0.405E-04
 -26.666 -0.427E-04 -0.427E-04
 -26.656 -0.449E-04 -0.449E-04
 -26.646 -0.472E-04 -0.472E-04
 -26.636 -0.497E-04 -0.497E-04
 -26.626 -0.522E-04 -0.522E-04
 -26.616 -0.548E-04 -0.548E-04
 -26.606 -0.575E-04 -0.575E-04
 -26.596 -0.603E-04 -0.603E-04
 -26.586 -0.632E-04 -0.632E-04
 -26.576 -0.662E-04 -0.662E-04
 -26.566 -0.693E-04 -0.693E-04
 -26.556 -0.725E-04 -0.725E-04
 -26.546 -0.758E-04 -0.758E-04
 -26.536 -0.792E-04 -0.792E-04
 -26.526 -0.826E-04 -0.826E-04
 -26.516 -0.862E-04 -0.862E-04
 -26.506 -0.898E-04 -0.898E-04
 -26.496 -0.936E-04 -0.936E-04
 -26.486 -0.974E-04 -0.974E-04
 -26.476 -0.101E-03 -0.101E-03
 -26.466 -0.105E-03 -0.105E-03
 -26.456 -0.109E-03 -0.109E-03
 -26.446 -0.113E-03 -0.113E-03
 -26.436 -0.118E-03 -0.118E-03
 -26.426 -0.122E-03 -0.122E-03
 -26.416 -0.126E-03 -0.126E-03
 -26.406 -0.130E-03 -0.130E-03
 -26.396 -0.135E-03 -0.135E-03
 -26.386 -0.139E-03 -0.139E-03
 -26.376 -0.144E-03 -0.144E-03
 -26.366 -0.148E-03 -0.148E-03
 -26.356 -0.152E-03 -0.152E-03
 -26.346 -0.157E-03 -0.157E-03
 -26.336 -0.161E-03 -0.161E-03
 -26.326 -0.165E-03 -0.165E-03
 -26.316 -0.170E-03 -0.170E-03
 -26.306 -0.174E-03 -0.174E-03
 -26.296 -0.178E-03 -0.178E-03
 -26.286 -0.182E-03 -0.182E-03
 -26.276 -0.186E-03 -0.186E-03
 -26.266 -0.189E-03 -0.189E-03
 -26.256 -0.193E-03 -0.193E-03
 -26.246 -0.196E-03 -0.196E-03
 -26.236 -0.200E-03 -0.200E-03
 -26.226 -0.202E-03 -0.202E-03
 -26.216 -0.205E-03 -0.205E-03
 -26.206 -0.208E-03 -0.208E-03
 -26.196 -0.210E-03 -0.210E-03
 -26.186 -0.212E-03 -0.212E-03
 -26.176 -0.213E-03 -0.213E-03
 -26.166 -0.214E-03 -0.214E-03
 -26.156 -0.215E-03 -0.215E-03
 -26.146 -0.215E-03 -0.215E-03
 -26.136 -0.215E-03 -0.215E-03
 -26.126 -0.214E-03 -0.214E-03
 -26.116 -0.213E-03 -0.213E-03
 -26.106 -0.211E-03 -0.211E-03
 -26.096 -0.209E-03 -0.209E-03
 -26.086 -0.206E-03 -0.206E-03
 -26.076 -0.202E-03 -0.202E-03
 -26.066 -0.198E-03 -0.198E-03
 -26.056 -0.193E-03 -0.193E-03
 -26.046 -0.187E-03 -0.187E-03
 -26.036 -0.180E-03 -0.180E-03
 -26.026 -0.173E-03 -0.173E-03
 -26.016 -0.164E-03 -0.164E-03
 -26.006 -0.155E-03 -0.155E-03
 -25.996 -0.145E-03 -0.145E-03
 -25.986 -0.134E-03 -0.134E-03
 -25.976 -0.122E-03 -0.122E-03
 -25.966 -0.109E-03 -0.109E-03
 -25.956 -0.945E-04 -0.945E-04
 -25.946 -0.792E-04 -0.792E-04
 -25.936 -0.628E-04 -0.628E-04
 -25.926 -0.451E-04 -0.451E-04
 -25.916 -0.263E-04 -0.263E-04
 -25.906 -0.628E-05 -0.628E-05
 -25.896  0.150E-04  0.150E-04
 -25.886  0.376E-04  0.376E-04
 -25.876  0.615E-04  0.615E-04
 -25.866  0.867E-04  0.867E-04
 -25.856  0.113E-03  0.113E-03
 -25.846  0.141E-03  0.141E-03
 -25.836  0.171E-03  0.171E-03
 -25.826  0.201E-03  0.201E-03
 -25.816  0.234E-03  0.234E-03
 -25.806  0.267E-03  0.267E-03
 -25.796  0.302E-03  0.302E-03
 -25.786  0.339E-03  0.339E-03
 -25.776  0.377E-03  0.377E-03
 -25.766  0.416E-03  0.416E-03
 -25.756  0.457E-03  0.457E-03
 -25.746  0.499E-03  0.499E-03
 -25.736  0.543E-03  0.543E-03
 -25.726  0.589E-03  0.589E-03
 -25.716  0.635E-03  0.635E-03
 -25.706  0.683E-03  0.683E-03
 -25.696  0.733E-03  0.733E-03
 -25.686  0.784E-03  0.784E-03
 -25.676  0.836E-03  0.836E-03
 -25.666  0.890E-03  0.890E-03
 -25.656  0.944E-03  0.944E-03
 -25.646  0.100E-02  0.100E-02
 -25.636  0.106E-02  0.106E-02
 -25.626  0.112E-02  0.112E-02
 -25.616  0.118E-02  0.118E-02
 -25.606  0.124E-02  0.124E-02
 -25.596  0.130E-02  0.130E-02
 -25.586  0.136E-02  0.136E-02
 -25.576  0.143E-02  0.143E-02
 -25.566  0.149E-02  0.149E-02
 -25.556  0.156E-02  0.156E-02
 -25.546  0.162E-02  0.162E-02
 -25.536  0.169E-02  0.169E-02
 -25.526  0.176E-02  0.176E-02
 -25.516  0.182E-02  0.182E-02
 -25.506  0.189E-02  0.189E-02
 -25.496  0.196E-02  0.196E-02
 -25.486  0.203E-02  0.203E-02
 -25.476  0.210E-02  0.210E-02
 -25.466  0.217E-02  0.217E-02
 -25.456  0.224E-02  0.224E-02
 -25.446  0.230E-02  0.230E-02
 -25.436  0.237E-02  0.237E-02
 -25.426  0.244E-02  0.244E-02
 -25.416  0.251E-02  0.251E-02
 -25.406  0.258E-02  0.258E-02
 -25.396  0.264E-02  0.264E-02
 -25.386  0.271E-02  0.271E-02
 -25.376  0.278E-02  0.278E-02
 -25.366  0.284E-02  0.284E-02
 -25.356  0.290E-02  0.290E-02
 -25.346  0.297E-02  0.297E-02
 -25.336  0.303E-02  0.303E-02
 -25.326  0.309E-02  0.309E-02
 -25.316  0.315E-02  0.315E-02
 -25.306  0.320E-02  0.320E-02
 -25.296  0.326E-02  0.326E-02
 -25.286  0.331E-02  0.331E-02
 -25.276  0.337E-02  0.337E-02
 -25.266  0.342E-02  0.342E-02
 -25.256  0.346E-02  0.346E-02
 -25.246  0.351E-02  0.351E-02
 -25.236  0.355E-02  0.355E-02
 -25.226  0.360E-02  0.360E-02
 -25.216  0.364E-02  0.364E-02
 -25.206  0.367E-02  0.367E-02
 -25.196  0.371E-02  0.371E-02
 -25.186  0.374E-02  0.374E-02
 -25.176  0.377E-02  0.377E-02
 -25.166  0.380E-02  0.380E-02
 -25.156  0.383E-02  0.383E-02
 -25.146  0.385E-02  0.385E-02
 -25.136  0.387E-02  0.387E-02
 -25.126  0.389E-02  0.389E-02
 -25.116  0.390E-02  0.390E-02
 -25.106  0.391E-02  0.391E-02
 -25.096  0.392E-02  0.392E-02
 -25.086  0.393E-02  0.393E-02
 -25.076  0.393E-02  0.393E-02
 -25.066  0.393E-02  0.393E-02
 -25.056  0.393E-02  0.393E-02
 -25.046  0.392E-02  0.392E-02
 -25.036  0.391E-02  0.391E-02
 -25.026  0.390E-02  0.390E-02
 -25.016  0.389E-02  0.389E-02
 -25.006  0.387E-02  0.387E-02
 -24.996  0.385E-02  0.385E-02
 -24.986  0.383E-02  0.383E-02
 -24.976  0.381E-02  0.381E-02
 -24.966  0.378E-02  0.378E-02
 -24.956  0.375E-02  0.375E-02
 -24.946  0.372E-02  0.372E-02
 -24.936  0.368E-02  0.368E-02
 -24.926  0.365E-02  0.365E-02
 -24.916  0.361E-02  0.361E-02
 -24.906  0.356E-02  0.356E-02
 -24.896  0.352E-02  0.352E-02
 -24.886  0.348E-02  0.348E-02
 -24.876  0.343E-02  0.343E-02
 -24.866  0.338E-02  0.338E-02
 -24.856  0.333E-02  0.333E-02
 -24.846  0.327E-02  0.327E-02
 -24.836  0.322E-02  0.322E-02
 -24.826  0.316E-02  0.316E-02
 -24.816  0.310E-02  0.310E-02
 -24.806  0.304E-02  0.304E-02
 -24.796  0.298E-02  0.298E-02
 -24.786  0.292E-02  0.292E-02
 -24.776  0.286E-02  0.286E-02
 -24.766  0.279E-02  0.279E-02
 -24.756  0.273E-02  0.273E-02
 -24.746  0.266E-02  0.266E-02
 -24.736  0.259E-02  0.259E-02
 -24.726  0.253E-02  0.253E-02
 -24.716  0.246E-02  0.246E-02
 -24.706  0.239E-02  0.239E-02
 -24.696  0.232E-02  0.232E-02
 -24.686  0.225E-02  0.225E-02
 -24.676  0.218E-02  0.218E-02
 -24.666  0.211E-02  0.211E-02
 -24.656  0.204E-02  0.204E-02
 -24.646  0.198E-02  0.198E-02
 -24.636  0.191E-02  0.191E-02
 -24.626  0.184E-02  0.184E-02
 -24.616  0.177E-02  0.177E-02
 -24.606  0.170E-02  0.170E-02
 -24.596  0.164E-02  0.164E-02
 -24.586  0.157E-02  0.157E-02
 -24.576  0.151E-02  0.151E-02
 -24.566  0.144E-02  0.144E-02
 -24.556  0.138E-02  0.138E-02
 -24.546  0.131E-02  0.131E-02
 -24.536  0.125E-02  0.125E-02
 -24.526  0.119E-02  0.119E-02
 -24.516  0.113E-02  0.113E-02
 -24.506  0.107E-02  0.107E-02
 -24.496  0.101E-02  0.101E-02
 -24.486  0.958E-03  0.958E-03
 -24.476  0.902E-03  0.902E-03
 -24.466  0.849E-03  0.849E-03
 -24.456  0.796E-03  0.796E-03
 -24.446  0.745E-03  0.745E-03
 -24.436  0.695E-03  0.695E-03
 -24.426  0.646E-03  0.646E-03
 -24.416  0.599E-03  0.599E-03
 -24.406  0.554E-03  0.554E-03
 -24.396  0.510E-03  0.510E-03
 -24.386  0.467E-03  0.467E-03
 -24.376  0.426E-03  0.426E-03
 -24.366  0.386E-03  0.386E-03
 -24.356  0.348E-03  0.348E-03
 -24.346  0.311E-03  0.311E-03
 -24.336  0.275E-03  0.275E-03
 -24.326  0.241E-03  0.241E-03
 -24.316  0.209E-03  0.209E-03
 -24.306  0.178E-03  0.178E-03
 -24.296  0.148E-03  0.148E-03
 -24.286  0.120E-03  0.120E-03
 -24.276  0.929E-04  0.929E-04
 -24.266  0.673E-04  0.673E-04
 -24.256  0.431E-04  0.431E-04
 -24.246  0.203E-04  0.203E-04
 -24.236 -0.135E-05 -0.135E-05
 -24.226 -0.217E-04 -0.217E-04
 -24.216 -0.408E-04 -0.408E-04
 -24.206 -0.587E-04 -0.587E-04
 -24.196 -0.754E-04 -0.754E-04
 -24.186 -0.910E-04 -0.910E-04
 -24.176 -0.105E-03 -0.105E-03
 -24.166 -0.119E-03 -0.119E-03
 -24.156 -0.131E-03 -0.131E-03
 -24.146 -0.143E-03 -0.143E-03
 -24.136 -0.153E-03 -0.153E-03
 -24.126 -0.162E-03 -0.162E-03
 -24.116 -0.171E-03 -0.171E-03
 -24.106 -0.179E-03 -0.179E-03
 -24.096 -0.185E-03 -0.185E-03
 -24.086 -0.191E-03 -0.191E-03
 -24.076 -0.197E-03 -0.197E-03
 -24.066 -0.201E-03 -0.201E-03
 -24.056 -0.205E-03 -0.205E-03
 -24.046 -0.208E-03 -0.208E-03
 -24.036 -0.211E-03 -0.211E-03
 -24.026 -0.213E-03 -0.213E-03
 -24.016 -0.214E-03 -0.214E-03
 -24.006 -0.215E-03 -0.215E-03
 -23.996 -0.215E-03 -0.215E-03
 -23.986 -0.215E-03 -0.215E-03
 -23.976 -0.214E-03 -0.214E-03
 -23.966 -0.213E-03 -0.213E-03
 -23.956 -0.212E-03 -0.212E-03
 -23.946 -0.210E-03 -0.210E-03
 -23.936 -0.208E-03 -0.208E-03
 -23.926 -0.206E-03 -0.206E-03
 -23.916 -0.203E-03 -0.203E-03
 -23.906 -0.200E-03 -0.200E-03
 -23.896 -0.197E-03 -0.197E-03
 -23.886 -0.194E-03 -0.194E-03
 -23.876 -0.190E-03 -0.190E-03
 -23.866 -0.187E-03 -0.187E-03
 -23.856 -0.183E-03 -0.183E-03
 -23.846 -0.179E-03 -0.179E-03
 -23.836 -0.175E-03 -0.175E-03
 -23.826 -0.171E-03 -0.171E-03
 -23.816 -0.166E-03 -0.166E-03
 -23.806 -0.162E-03 -0.162E-03
 -23.796 -0.158E-03 -0.158E-03
 -23.786 -0.153E-03 -0.153E-03
 -23.776 -0.149E-03 -0.149E-03
 -23.766 -0.145E-03 -0.145E-03
 -23.756 -0.140E-03 -0.140E-03
 -23.746 -0.136E-03 -0.136E-03
 -23.736 -0.131E-03 -0.131E-03
 -23.726 -0.127E-03 -0.127E-03
 -23.716 -0.123E-03 -0.123E-03
 -23.706 -0.119E-03 -0.119E-03
 -23.696 -0.114E-03 -0.114E-03
 -23.686 -0.110E-03 -0.110E-03
 -23.676 -0.106E-03 -0.106E-03
 -23.666 -0.102E-03 -0.102E-03
 -23.656 -0.983E-04 -0.983E-04
 -23.646 -0.945E-04 -0.945E-04
 -23.636 -0.907E-04 -0.907E-04
 -23.626 -0.870E-04 -0.870E-04
 -23.616 -0.835E-04 -0.835E-04
 -23.606 -0.800E-04 -0.800E-04
 -23.596 -0.766E-04 -0.766E-04
 -23.586 -0.733E-04 -0.733E-04
 -23.576 -0.701E-04 -0.701E-04
 -23.566 -0.670E-04 -0.670E-04
 -23.556 -0.639E-04 -0.639E-04
 -23.546 -0.610E-04 -0.610E-04
 -23.536 -0.582E-04 -0.582E-04
 -23.526 -0.555E-04 -0.555E-04
 -23.516 -0.528E-04 -0.528E-04
 -23.506 -0.503E-04 -0.503E-04
 -23.496 -0.478E-04 -0.478E-04
 -23.486 -0.455E-04 -0.455E-04
 -23.476 -0.432E-04 -0.432E-04
 -23.466 -0.410E-04 -0.410E-04
 -23.456 -0.389E-04 -0.389E-04
 -23.446 -0.369E-04 -0.369E-04
 -23.436 -0.350E-04 -0.350E-04
 -23.426 -0.331E-04 -0.331E-04
 -23.416 -0.313E-04 -0.313E-04
 -23.406 -0.296E-04 -0.296E-04
 -23.396 -0.280E-04 -0.280E-04
 -23.386 -0.265E-04 -0.265E-04
 -23.376 -0.250E-04 -0.250E-04
 -23.366 -0.236E-04 -0.236E-04
 -23.356 -0.223E-04 -0.223E-04
 -23.346 -0.210E-04 -0.210E-04
 -23.336 -0.198E-04 -0.198E-04
 -23.326 -0.186E-04 -0.186E-04
 -23.316 -0.175E-04 -0.175E-04
 -23.306 -0.165E-04 -0.165E-04
 -23.296 -0.155E-04 -0.155E-04
 -23.286 -0.145E-04 -0.145E-04
 -23.276 -0.137E-04 -0.137E-04
 -23.266 -0.128E-04 -0.128E-04
 -23.256 -0.120E-04 -0.120E-04
 -23.246 -0.113E-04 -0.113E-04
 -23.236 -0.106E-04 -0.106E-04
 -23.226 -0.988E-05 -0.988E-05
 -23.216 -0.925E-05 -0.925E-05
 -23.206 -0.865E-05 -0.865E-05
 -23.196 -0.809E-05 -0.809E-05
 -23.186 -0.755E-05 -0.755E-05
 -23.176 -0.705E-05 -0.705E-05
 -23.166 -0.658E-05 -0.658E-05
 -23.156 -0.614E-05 -0.614E-05
 -23.146 -0.573E-05 -0.573E-05
 -23.136 -0.534E-05 -0.534E-05
 -23.126 -0.497E-05 -0.497E-05
 -23.116 -0.463E-05 -0.463E-05
 -23.106 -0.430E-05 -0.430E-05
 -23.096 -0.400E-05 -0.400E-05
 -23.086 -0.372E-05 -0.372E-05
 -23.076 -0.346E-05 -0.346E-05
 -23.066 -0.321E-05 -0.321E-05
 -23.056 -0.298E-05 -0.298E-05
 -23.046 -0.276E-05 -0.276E-05
 -23.036 -0.256E-05 -0.256E-05
 -23.026 -0.238E-05 -0.238E-05
 -23.016 -0.220E-05 -0.220E-05
 -23.006 -0.204E-05 -0.204E-05
 -22.996 -0.189E-05 -0.189E-05
 -22.986 -0.175E-05 -0.175E-05
 -22.976 -0.161E-05 -0.161E-05
 -22.966 -0.149E-05 -0.149E-05
 -22.956 -0.138E-05 -0.138E-05
 -22.946 -0.128E-05 -0.128E-05
 -22.936 -0.118E-05 -0.118E-05
 -22.926 -0.109E-05 -0.109E-05
 -22.916 -0.101E-05 -0.101E-05
 -22.906 -0.930E-06 -0.930E-06
 -22.896 -0.860E-06 -0.860E-06
 -22.886 -0.795E-06 -0.795E-06
 -22.876 -0.735E-06 -0.735E-06
 -22.866 -0.681E-06 -0.681E-06
 -22.856 -0.631E-06 -0.631E-06
 -22.846 -0.585E-06 -0.585E-06
 -22.836 -0.544E-06 -0.544E-06
 -22.826 -0.506E-06 -0.506E-06
 -22.816 -0.472E-06 -0.472E-06
 -22.806 -0.441E-06 -0.441E-06
 -22.796 -0.414E-06 -0.414E-06
 -22.786 -0.390E-06 -0.390E-06
 -22.776 -0.369E-06 -0.369E-06
 -22.766 -0.351E-06 -0.351E-06
 -22.756 -0.335E-06 -0.335E-06
 -22.746 -0.323E-06 -0.323E-06
 -22.736 -0.313E-06 -0.313E-06
 -22.726 -0.305E-06 -0.305E-06
 -22.716 -0.300E-06 -0.300E-06
 -22.706 -0.297E-06 -0.297E-06
 -22.696 -0.297E-06 -0.297E-06
 -22.686 -0.300E-06 -0.300E-06
 -22.676 -0.304E-06 -0.304E-06
 -22.666 -0.312E-06 -0.312E-06
 -22.656 -0.322E-06 -0.322E-06
 -22.646 -0.334E-06 -0.334E-06
 -22.636 -0.350E-06 -0.350E-06
 -22.626 -0.368E-06 -0.368E-06
 -22.616 -0.389E-06 -0.389E-06
 -22.606 -0.413E-06 -0.413E-06
 -22.596 -0.441E-06 -0.441E-06
 -22.586 -0.472E-06 -0.472E-06
 -22.576 -0.507E-06 -0.507E-06
 -22.566 -0.545E-06 -0.545E-06
 -22.556 -0.588E-06 -0.588E-06
 -22.546 -0.635E-06 -0.635E-06
 -22.536 -0.686E-06 -0.686E-06
 -22.526 -0.742E-06 -0.742E-06
 -22.516 -0.804E-06 -0.804E-06
 -22.506 -0.872E-06 -0.872E-06
 -22.496 -0.945E-06 -0.945E-06
 -22.486 -0.102E-05 -0.102E-05
 -22.476 -0.111E-05 -0.111E-05
 -22.466 -0.121E-05 -0.121E-05
 -22.456 -0.131E-05 -0.131E-05
 -22.446 -0.142E-05 -0.142E-05
 -22.436 -0.154E-05 -0.154E-05
 -22.426 -0.167E-05 -0.167E-05
 -22.416 -0.180E-05 -0.180E-05
 -22.406 -0.196E-05 -0.196E-05
 -22.396 -0.212E-05 -0.212E-05
 -22.386 -0.229E-05 -0.229E-05
 -22.376 -0.248E-05 -0.248E-05
 -22.366 -0.268E-05 -0.268E-05
 -22.356 -0.290E-05 -0.290E-05
 -22.346 -0.313E-05 -0.313E-05
 -22.336 -0.338E-05 -0.338E-05
 -22.326 -0.365E-05 -0.365E-05
 -22.316 -0.394E-05 -0.394E-05
 -22.306 -0.425E-05 -0.425E-05
 -22.296 -0.458E-05 -0.458E-05
 -22.286 -0.493E-05 -0.493E-05
 -22.276 -0.531E-05 -0.531E-05
 -22.266 -0.572E-05 -0.572E-05
 -22.256 -0.615E-05 -0.615E-05
 -22.246 -0.662E-05 -0.662E-05
 -22.236 -0.711E-05 -0.711E-05
 -22.226 -0.764E-05 -0.764E-05
 -22.216 -0.820E-05 -0.820E-05
 -22.206 -0.880E-05 -0.880E-05
 -22.196 -0.943E-05 -0.943E-05
 -22.186 -0.101E-04 -0.101E-04
 -22.176 -0.108E-04 -0.108E-04
 -22.166 -0.116E-04 -0.116E-04
 -22.156 -0.124E-04 -0.124E-04
 -22.146 -0.133E-04 -0.133E-04
 -22.136 -0.142E-04 -0.142E-04
 -22.126 -0.152E-04 -0.152E-04
 -22.116 -0.162E-04 -0.162E-04
 -22.106 -0.173E-04 -0.173E-04
 -22.096 -0.184E-04 -0.184E-04
 -22.086 -0.196E-04 -0.196E-04
 -22.076 -0.209E-04 -0.209E-04
 -22.066 -0.223E-04 -0.223E-04
 -22.056 -0.237E-04 -0.237E-04
 -22.046 -0.252E-04 -0.252E-04
 -22.036 -0.268E-04 -0.268E-04
 -22.026 -0.285E-04 -0.285E-04
 -22.016 -0.303E-04 -0.303E-04
 -22.006 -0.321E-04 -0.321E-04
 -21.996 -0.341E-04 -0.341E-04
 -21.986 -0.361E-04 -0.361E-04
 -21.976 -0.383E-04 -0.383E-04
 -21.966 -0.405E-04 -0.405E-04
 -21.956 -0.429E-04 -0.429E-04
 -21.946 -0.454E-04 -0.454E-04
 -21.936 -0.479E-04 -0.479E-04
 -21.926 -0.506E-04 -0.506E-04
 -21.916 -0.535E-04 -0.535E-04
 -21.906 -0.564E-04 -0.564E-04
 -21.896 -0.595E-04 -0.595E-04
 -21.886 -0.627E-04 -0.627E-04
 -21.876 -0.660E-04 -0.660E-04
 -21.866 -0.695E-04 -0.695E-04
 -21.856 -0.731E-04 -0.731E-04
 -21.846 -0.768E-04 -0.768E-04
 -21.836 -0.807E-04 -0.807E-04
 -21.826 -0.847E-04 -0.847E-04
 -21.816 -0.889E-04 -0.889E-04
 -21.806 -0.932E-04 -0.932E-04
 -21.796 -0.976E-04 -0.976E-04
 -21.786 -0.102E-03 -0.102E-03
 -21.776 -0.107E-03 -0.107E-03
 -21.766 -0.112E-03 -0.112E-03
 -21.756 -0.117E-03 -0.117E-03
 -21.746 -0.122E-03 -0.122E-03
 -21.736 -0.127E-03 -0.127E-03
 -21.726 -0.133E-03 -0.133E-03
 -21.716 -0.138E-03 -0.138E-03
 -21.706 -0.144E-03 -0.144E-03
 -21.696 -0.150E-03 -0.150E-03
 -21.686 -0.156E-03 -0.156E-03
 -21.676 -0.162E-03 -0.162E-03
 -21.666 -0.168E-03 -0.168E-03
 -21.656 -0.175E-03 -0.175E-03
 -21.646 -0.181E-03 -0.181E-03
 -21.636 -0.187E-03 -0.187E-03
 -21.626 -0.194E-03 -0.194E-03
 -21.616 -0.201E-03 -0.201E-03
 -21.606 -0.207E-03 -0.207E-03
 -21.596 -0.214E-03 -0.214E-03
 -21.586 -0.221E-03 -0.221E-03
 -21.576 -0.227E-03 -0.227E-03
 -21.566 -0.234E-03 -0.234E-03
 -21.556 -0.241E-03 -0.241E-03
 -21.546 -0.247E-03 -0.247E-03
 -21.536 -0.254E-03 -0.254E-03
 -21.526 -0.261E-03 -0.261E-03
 -21.516 -0.267E-03 -0.267E-03
 -21.506 -0.273E-03 -0.273E-03
 -21.496 -0.280E-03 -0.280E-03
 -21.486 -0.286E-03 -0.286E-03
 -21.476 -0.291E-03 -0.291E-03
 -21.466 -0.297E-03 -0.297E-03
 -21.456 -0.302E-03 -0.302E-03
 -21.446 -0.307E-03 -0.307E-03
 -21.436 -0.312E-03 -0.312E-03
 -21.426 -0.316E-03 -0.316E-03
 -21.416 -0.320E-03 -0.320E-03
 -21.406 -0.324E-03 -0.324E-03
 -21.396 -0.327E-03 -0.327E-03
 -21.386 -0.330E-03 -0.330E-03
 -21.376 -0.332E-03 -0.332E-03
 -21.366 -0.333E-03 -0.333E-03
 -21.356 -0.334E-03 -0.334E-03
 -21.346 -0.335E-03 -0.335E-03
 -21.336 -0.334E-03 -0.334E-03
 -21.326 -0.333E-03 -0.333E-03
 -21.316 -0.331E-03 -0.331E-03
 -21.306 -0.329E-03 -0.329E-03
 -21.296 -0.325E-03 -0.325E-03
 -21.286 -0.321E-03 -0.321E-03
 -21.276 -0.316E-03 -0.316E-03
 -21.266 -0.310E-03 -0.310E-03
 -21.256 -0.303E-03 -0.303E-03
 -21.246 -0.294E-03 -0.294E-03
 -21.236 -0.285E-03 -0.285E-03
 -21.226 -0.275E-03 -0.275E-03
 -21.216 -0.263E-03 -0.263E-03
 -21.206 -0.250E-03 -0.250E-03
 -21.196 -0.237E-03 -0.237E-03
 -21.186 -0.221E-03 -0.221E-03
 -21.176 -0.205E-03 -0.205E-03
 -21.166 -0.187E-03 -0.187E-03
 -21.156 -0.168E-03 -0.168E-03
 -21.146 -0.148E-03 -0.148E-03
 -21.136 -0.126E-03 -0.126E-03
 -21.126 -0.103E-03 -0.103E-03
 -21.116 -0.784E-04 -0.784E-04
 -21.106 -0.524E-04 -0.524E-04
 -21.096 -0.251E-04 -0.251E-04
 -21.086  0.367E-05  0.367E-05
 -21.076  0.338E-04  0.338E-04
 -21.066  0.654E-04  0.654E-04
 -21.056  0.983E-04  0.983E-04
 -21.046  0.133E-03  0.133E-03
 -21.036  0.168E-03  0.168E-03
 -21.026  0.205E-03  0.205E-03
 -21.016  0.243E-03  0.243E-03
 -21.006  0.283E-03  0.283E-03
 -20.996  0.323E-03  0.323E-03
 -20.986  0.365E-03  0.365E-03
 -20.976  0.408E-03  0.408E-03
 -20.966  0.452E-03  0.452E-03
 -20.956  0.497E-03  0.497E-03
 -20.946  0.542E-03  0.542E-03
 -20.936  0.588E-03  0.588E-03
 -20.926  0.635E-03  0.635E-03
 -20.916  0.683E-03  0.683E-03
 -20.906  0.731E-03  0.731E-03
 -20.896  0.779E-03  0.779E-03
 -20.886  0.827E-03  0.827E-03
 -20.876  0.876E-03  0.876E-03
 -20.866  0.924E-03  0.924E-03
 -20.856  0.972E-03  0.972E-03
 -20.846  0.102E-02  0.102E-02
 -20.836  0.107E-02  0.107E-02
 -20.826  0.111E-02  0.111E-02
 -20.816  0.116E-02  0.116E-02
 -20.806  0.120E-02  0.120E-02
 -20.796  0.124E-02  0.124E-02
 -20.786  0.128E-02  0.128E-02
 -20.776  0.132E-02  0.132E-02
 -20.766  0.136E-02  0.136E-02
 -20.756  0.140E-02  0.140E-02
 -20.746  0.143E-02  0.143E-02
 -20.736  0.146E-02  0.146E-02
 -20.726  0.148E-02  0.148E-02
 -20.716  0.151E-02  0.151E-02
 -20.706  0.153E-02  0.153E-02
 -20.696  0.154E-02  0.154E-02
 -20.686  0.155E-02  0.155E-02
 -20.676  0.156E-02  0.156E-02
 -20.666  0.156E-02  0.156E-02
 -20.656  0.156E-02  0.156E-02
 -20.646  0.155E-02  0.155E-02
 -20.636  0.154E-02  0.154E-02
 -20.626  0.152E-02  0.152E-02
 -20.616  0.149E-02  0.149E-02
 -20.606  0.146E-02  0.146E-02
 -20.596  0.142E-02  0.142E-02
 -20.586  0.138E-02  0.138E-02
 -20.576  0.133E-02  0.133E-02
 -20.566  0.127E-02  0.127E-02
 -20.556  0.120E-02  0.120E-02
 -20.546  0.113E-02  0.113E-02
 -20.536  0.105E-02  0.105E-02
 -20.526  0.956E-03  0.956E-03
 -20.516  0.857E-03  0.857E-03
 -20.506  0.750E-03  0.750E-03
 -20.496  0.635E-03  0.635E-03
 -20.486  0.510E-03  0.510E-03
 -20.476  0.378E-03  0.378E-03
 -20.466  0.236E-03  0.236E-03
 -20.456  0.851E-04  0.851E-04
 -20.446 -0.745E-04 -0.745E-04
 -20.436 -0.243E-03 -0.243E-03
 -20.426 -0.420E-03 -0.420E-03
 -20.416 -0.606E-03 -0.606E-03
 -20.406 -0.800E-03 -0.800E-03
 -20.396 -0.100E-02 -0.100E-02
 -20.386 -0.121E-02 -0.121E-02
 -20.376 -0.143E-02 -0.143E-02
 -20.366 -0.166E-02 -0.166E-02
 -20.356 -0.190E-02 -0.190E-02
 -20.346 -0.214E-02 -0.214E-02
 -20.336 -0.238E-02 -0.238E-02
 -20.326 -0.264E-02 -0.264E-02
 -20.316 -0.290E-02 -0.290E-02
 -20.306 -0.316E-02 -0.316E-02
 -20.296 -0.343E-02 -0.343E-02
 -20.286 -0.371E-02 -0.371E-02
 -20.276 -0.398E-02 -0.398E-02
 -20.266 -0.426E-02 -0.426E-02
 -20.256 -0.454E-02 -0.454E-02
 -20.246 -0.482E-02 -0.482E-02
 -20.236 -0.510E-02 -0.510E-02
 -20.226 -0.538E-02 -0.538E-02
 -20.216 -0.565E-02 -0.565E-02
 -20.206 -0.592E-02 -0.592E-02
 -20.196 -0.619E-02 -0.619E-02
 -20.186 -0.645E-02 -0.645E-02
 -20.176 -0.670E-02 -0.670E-02
 -20.166 -0.695E-02 -0.695E-02
 -20.156 -0.718E-02 -0.718E-02
 -20.146 -0.740E-02 -0.740E-02
 -20.136 -0.761E-02 -0.761E-02
 -20.126 -0.780E-02 -0.780E-02
 -20.116 -0.797E-02 -0.797E-02
 -20.106 -0.813E-02 -0.813E-02
 -20.096 -0.826E-02 -0.826E-02
 -20.086 -0.837E-02 -0.837E-02
 -20.076 -0.846E-02 -0.846E-02
 -20.066 -0.852E-02 -0.852E-02
 -20.056 -0.855E-02 -0.855E-02
 -20.046 -0.855E-02 -0.855E-02
 -20.036 -0.852E-02 -0.852E-02
 -20.026 -0.845E-02 -0.845E-02
 -20.016 -0.835E-02 -0.835E-02
 -20.006 -0.820E-02 -0.820E-02
 -19.996 -0.801E-02 -0.801E-02
 -19.986 -0.778E-02 -0.778E-02
 -19.976 -0.750E-02 -0.750E-02
 -19.966 -0.718E-02 -0.718E-02
 -19.956 -0.680E-02 -0.680E-02
 -19.946 -0.637E-02 -0.637E-02
 -19.936 -0.588E-02 -0.588E-02
 -19.926 -0.533E-02 -0.533E-02
 -19.916 -0.473E-02 -0.473E-02
 -19.906 -0.406E-02 -0.406E-02
 -19.896 -0.332E-02 -0.332E-02
 -19.886 -0.252E-02 -0.252E-02
 -19.876 -0.165E-02 -0.165E-02
 -19.866 -0.703E-03 -0.703E-03
 -19.856  0.315E-03  0.315E-03
 -19.846  0.141E-02  0.141E-02
 -19.836  0.258E-02  0.258E-02
 -19.826  0.383E-02  0.383E-02
 -19.816  0.517E-02  0.517E-02
 -19.806  0.658E-02  0.658E-02
 -19.796  0.808E-02  0.808E-02
 -19.786  0.967E-02  0.967E-02
 -19.776  0.113E-01  0.113E-01
 -19.766  0.131E-01  0.131E-01
 -19.756  0.150E-01  0.150E-01
 -19.746  0.169E-01  0.169E-01
 -19.736  0.189E-01  0.189E-01
 -19.726  0.211E-01  0.211E-01
 -19.716  0.233E-01  0.233E-01
 -19.706  0.256E-01  0.256E-01
 -19.696  0.280E-01  0.280E-01
 -19.686  0.305E-01  0.305E-01
 -19.676  0.331E-01  0.331E-01
 -19.666  0.358E-01  0.358E-01
 -19.656  0.386E-01  0.386E-01
 -19.646  0.415E-01  0.415E-01
 -19.636  0.445E-01  0.445E-01
 -19.626  0.475E-01  0.475E-01
 -19.616  0.507E-01  0.507E-01
 -19.606  0.539E-01  0.539E-01
 -19.596  0.572E-01  0.572E-01
 -19.586  0.606E-01  0.606E-01
 -19.576  0.641E-01  0.641E-01
 -19.566  0.676E-01  0.676E-01
 -19.556  0.713E-01  0.713E-01
 -19.546  0.750E-01  0.750E-01
 -19.536  0.788E-01  0.788E-01
 -19.526  0.826E-01  0.826E-01
 -19.516  0.865E-01  0.865E-01
 -19.506  0.905E-01  0.905E-01
 -19.496  0.945E-01  0.945E-01
 -19.486  0.986E-01  0.986E-01
 -19.476  0.103E+00  0.103E+00
 -19.466  0.107E+00  0.107E+00
 -19.456  0.111E+00  0.111E+00
 -19.446  0.115E+00  0.115E+00
 -19.436  0.120E+00  0.120E+00
 -19.426  0.124E+00  0.124E+00
 -19.416  0.128E+00  0.128E+00
 -19.406  0.132E+00  0.132E+00
 -19.396  0.137E+00  0.137E+00
 -19.386  0.141E+00  0.141E+00
 -19.376  0.145E+00  0.145E+00
 -19.366  0.150E+00  0.150E+00
 -19.356  0.154E+00  0.154E+00
 -19.346  0.158E+00  0.158E+00
 -19.336  0.162E+00  0.162E+00
 -19.326  0.167E+00  0.167E+00
 -19.316  0.171E+00  0.171E+00
 -19.306  0.175E+00  0.175E+00
 -19.296  0.179E+00  0.179E+00
 -19.286  0.183E+00  0.183E+00
 -19.276  0.187E+00  0.187E+00
 -19.266  0.191E+00  0.191E+00
 -19.256  0.194E+00  0.194E+00
 -19.246  0.198E+00  0.198E+00
 -19.236  0.201E+00  0.201E+00
 -19.226  0.205E+00  0.205E+00
 -19.216  0.208E+00  0.208E+00
 -19.206  0.212E+00  0.212E+00
 -19.196  0.215E+00  0.215E+00
 -19.186  0.218E+00  0.218E+00
 -19.176  0.221E+00  0.221E+00
 -19.166  0.223E+00  0.223E+00
 -19.156  0.226E+00  0.226E+00
 -19.146  0.228E+00  0.228E+00
 -19.136  0.231E+00  0.231E+00
 -19.126  0.233E+00  0.233E+00
 -19.116  0.235E+00  0.235E+00
 -19.106  0.237E+00  0.237E+00
 -19.096  0.239E+00  0.239E+00
 -19.086  0.240E+00  0.240E+00
 -19.076  0.242E+00  0.242E+00
 -19.066  0.243E+00  0.243E+00
 -19.056  0.244E+00  0.244E+00
 -19.046  0.245E+00  0.245E+00
 -19.036  0.245E+00  0.245E+00
 -19.026  0.246E+00  0.246E+00
 -19.016  0.246E+00  0.246E+00
 -19.006  0.246E+00  0.246E+00
 -18.996  0.246E+00  0.246E+00
 -18.986  0.246E+00  0.246E+00
 -18.976  0.246E+00  0.246E+00
 -18.966  0.245E+00  0.245E+00
 -18.956  0.245E+00  0.245E+00
 -18.946  0.244E+00  0.244E+00
 -18.936  0.243E+00  0.243E+00
 -18.926  0.241E+00  0.241E+00
 -18.916  0.240E+00  0.240E+00
 -18.906  0.238E+00  0.238E+00
 -18.896  0.237E+00  0.237E+00
 -18.886  0.235E+00  0.235E+00
 -18.876  0.233E+00  0.233E+00
 -18.866  0.231E+00  0.231E+00
 -18.856  0.228E+00  0.228E+00
 -18.846  0.226E+00  0.226E+00
 -18.836  0.223E+00  0.223E+00
 -18.826  0.220E+00  0.220E+00
 -18.816  0.217E+00  0.217E+00
 -18.806  0.214E+00  0.214E+00
 -18.796  0.211E+00  0.211E+00
 -18.786  0.208E+00  0.208E+00
 -18.776  0.205E+00  0.205E+00
 -18.766  0.201E+00  0.201E+00
 -18.756  0.197E+00  0.197E+00
 -18.746  0.194E+00  0.194E+00
 -18.736  0.190E+00  0.190E+00
 -18.726  0.186E+00  0.186E+00
 -18.716  0.182E+00  0.182E+00
 -18.706  0.178E+00  0.178E+00
 -18.696  0.174E+00  0.174E+00
 -18.686  0.170E+00  0.170E+00
 -18.676  0.166E+00  0.166E+00
 -18.666  0.162E+00  0.162E+00
 -18.656  0.158E+00  0.158E+00
 -18.646  0.153E+00  0.153E+00
 -18.636  0.149E+00  0.149E+00
 -18.626  0.145E+00  0.145E+00
 -18.616  0.140E+00  0.140E+00
 -18.606  0.136E+00  0.136E+00
 -18.596  0.132E+00  0.132E+00
 -18.586  0.127E+00  0.127E+00
 -18.576  0.123E+00  0.123E+00
 -18.566  0.119E+00  0.119E+00
 -18.556  0.114E+00  0.114E+00
 -18.546  0.110E+00  0.110E+00
 -18.536  0.106E+00  0.106E+00
 -18.526  0.102E+00  0.102E+00
 -18.516  0.975E-01  0.975E-01
 -18.506  0.933E-01  0.933E-01
 -18.496  0.893E-01  0.893E-01
 -18.486  0.853E-01  0.853E-01
 -18.476  0.813E-01  0.813E-01
 -18.466  0.774E-01  0.774E-01
 -18.456  0.736E-01  0.736E-01
 -18.446  0.698E-01  0.698E-01
 -18.436  0.661E-01  0.661E-01
 -18.426  0.625E-01  0.625E-01
 -18.416  0.589E-01  0.589E-01
 -18.406  0.554E-01  0.554E-01
 -18.396  0.520E-01  0.520E-01
 -18.386  0.487E-01  0.487E-01
 -18.376  0.455E-01  0.455E-01
 -18.366  0.424E-01  0.424E-01
 -18.356  0.393E-01  0.393E-01
 -18.346  0.363E-01  0.363E-01
 -18.336  0.335E-01  0.335E-01
 -18.326  0.307E-01  0.307E-01
 -18.316  0.280E-01  0.280E-01
 -18.306  0.254E-01  0.254E-01
 -18.296  0.229E-01  0.229E-01
 -18.286  0.204E-01  0.204E-01
 -18.276  0.181E-01  0.181E-01
 -18.266  0.158E-01  0.158E-01
 -18.256  0.137E-01  0.137E-01
 -18.246  0.116E-01  0.116E-01
 -18.236  0.963E-02  0.963E-02
 -18.226  0.774E-02  0.774E-02
 -18.216  0.594E-02  0.594E-02
 -18.206  0.421E-02  0.421E-02
 -18.196  0.258E-02  0.258E-02
 -18.186  0.102E-02  0.102E-02
 -18.176 -0.455E-03 -0.455E-03
 -18.166 -0.185E-02 -0.185E-02
 -18.156 -0.317E-02 -0.317E-02
 -18.146 -0.441E-02 -0.441E-02
 -18.136 -0.558E-02 -0.558E-02
 -18.126 -0.668E-02 -0.668E-02
 -18.116 -0.770E-02 -0.770E-02
 -18.106 -0.866E-02 -0.866E-02
 -18.096 -0.955E-02 -0.955E-02
 -18.086 -0.104E-01 -0.104E-01
 -18.076 -0.111E-01 -0.111E-01
 -18.066 -0.119E-01 -0.119E-01
 -18.056 -0.125E-01 -0.125E-01
 -18.046 -0.131E-01 -0.131E-01
 -18.036 -0.136E-01 -0.136E-01
 -18.026 -0.141E-01 -0.141E-01
 -18.016 -0.146E-01 -0.146E-01
 -18.006 -0.150E-01 -0.150E-01
 -17.996 -0.153E-01 -0.153E-01
 -17.986 -0.156E-01 -0.156E-01
 -17.976 -0.159E-01 -0.159E-01
 -17.966 -0.161E-01 -0.161E-01
 -17.956 -0.163E-01 -0.163E-01
 -17.946 -0.165E-01 -0.165E-01
 -17.936 -0.166E-01 -0.166E-01
 -17.926 -0.167E-01 -0.167E-01
 -17.916 -0.168E-01 -0.168E-01
 -17.906 -0.168E-01 -0.168E-01
 -17.896 -0.168E-01 -0.168E-01
 -17.886 -0.168E-01 -0.168E-01
 -17.876 -0.168E-01 -0.168E-01
 -17.866 -0.167E-01 -0.167E-01
 -17.856 -0.167E-01 -0.167E-01
 -17.846 -0.166E-01 -0.166E-01
 -17.836 -0.165E-01 -0.165E-01
 -17.826 -0.164E-01 -0.164E-01
 -17.816 -0.162E-01 -0.162E-01
 -17.806 -0.161E-01 -0.161E-01
 -17.796 -0.160E-01 -0.160E-01
 -17.786 -0.158E-01 -0.158E-01
 -17.776 -0.157E-01 -0.157E-01
 -17.766 -0.155E-01 -0.155E-01
 -17.756 -0.153E-01 -0.153E-01
 -17.746 -0.151E-01 -0.151E-01
 -17.736 -0.150E-01 -0.150E-01
 -17.726 -0.148E-01 -0.148E-01
 -17.716 -0.146E-01 -0.146E-01
 -17.706 -0.144E-01 -0.144E-01
 -17.696 -0.142E-01 -0.142E-01
 -17.686 -0.140E-01 -0.140E-01
 -17.676 -0.139E-01 -0.139E-01
 -17.666 -0.137E-01 -0.137E-01
 -17.656 -0.135E-01 -0.135E-01
 -17.646 -0.133E-01 -0.133E-01
 -17.636 -0.131E-01 -0.131E-01
 -17.626 -0.130E-01 -0.130E-01
 -17.616 -0.128E-01 -0.128E-01
 -17.606 -0.126E-01 -0.126E-01
 -17.596 -0.125E-01 -0.125E-01
 -17.586 -0.123E-01 -0.123E-01
 -17.576 -0.122E-01 -0.122E-01
 -17.566 -0.120E-01 -0.120E-01
 -17.556 -0.119E-01 -0.119E-01
 -17.546 -0.117E-01 -0.117E-01
 -17.536 -0.116E-01 -0.116E-01
 -17.526 -0.115E-01 -0.115E-01
 -17.516 -0.114E-01 -0.114E-01
 -17.506 -0.112E-01 -0.112E-01
 -17.496 -0.111E-01 -0.111E-01
 -17.486 -0.110E-01 -0.110E-01
 -17.476 -0.109E-01 -0.109E-01
 -17.466 -0.108E-01 -0.108E-01
 -17.456 -0.107E-01 -0.107E-01
 -17.446 -0.106E-01 -0.106E-01
 -17.436 -0.105E-01 -0.105E-01
 -17.426 -0.104E-01 -0.104E-01
 -17.416 -0.103E-01 -0.103E-01
 -17.406 -0.102E-01 -0.102E-01
 -17.396 -0.101E-01 -0.101E-01
 -17.386 -0.996E-02 -0.996E-02
 -17.376 -0.984E-02 -0.984E-02
 -17.366 -0.972E-02 -0.972E-02
 -17.356 -0.959E-02 -0.959E-02
 -17.346 -0.945E-02 -0.945E-02
 -17.336 -0.931E-02 -0.931E-02
 -17.326 -0.915E-02 -0.915E-02
 -17.316 -0.898E-02 -0.898E-02
 -17.306 -0.879E-02 -0.879E-02
 -17.296 -0.859E-02 -0.859E-02
 -17.286 -0.837E-02 -0.837E-02
 -17.276 -0.813E-02 -0.813E-02
 -17.266 -0.786E-02 -0.786E-02
 -17.256 -0.757E-02 -0.757E-02
 -17.246 -0.726E-02 -0.726E-02
 -17.236 -0.692E-02 -0.692E-02
 -17.226 -0.654E-02 -0.654E-02
 -17.216 -0.613E-02 -0.613E-02
 -17.206 -0.569E-02 -0.569E-02
 -17.196 -0.520E-02 -0.520E-02
 -17.186 -0.468E-02 -0.468E-02
 -17.176 -0.411E-02 -0.411E-02
 -17.166 -0.349E-02 -0.349E-02
 -17.156 -0.281E-02 -0.281E-02
 -17.146 -0.209E-02 -0.209E-02
 -17.136 -0.131E-02 -0.131E-02
 -17.126 -0.462E-03 -0.462E-03
 -17.116  0.447E-03  0.447E-03
 -17.106  0.142E-02  0.142E-02
 -17.096  0.247E-02  0.247E-02
 -17.086  0.359E-02  0.359E-02
 -17.076  0.480E-02  0.480E-02
 -17.066  0.608E-02  0.608E-02
 -17.056  0.745E-02  0.745E-02
 -17.046  0.891E-02  0.891E-02
 -17.036  0.105E-01  0.105E-01
 -17.026  0.121E-01  0.121E-01
 -17.016  0.139E-01  0.139E-01
 -17.006  0.157E-01  0.157E-01
 -16.996  0.177E-01  0.177E-01
 -16.986  0.198E-01  0.198E-01
 -16.976  0.220E-01  0.220E-01
 -16.966  0.243E-01  0.243E-01
 -16.956  0.267E-01  0.267E-01
 -16.946  0.293E-01  0.293E-01
 -16.936  0.320E-01  0.320E-01
 -16.926  0.348E-01  0.348E-01
 -16.916  0.378E-01  0.378E-01
 -16.906  0.409E-01  0.409E-01
 -16.896  0.441E-01  0.441E-01
 -16.886  0.475E-01  0.475E-01
 -16.876  0.511E-01  0.511E-01
 -16.866  0.547E-01  0.547E-01
 -16.856  0.586E-01  0.586E-01
 -16.846  0.626E-01  0.626E-01
 -16.836  0.667E-01  0.667E-01
 -16.826  0.710E-01  0.710E-01
 -16.816  0.755E-01  0.755E-01
 -16.806  0.801E-01  0.801E-01
 -16.796  0.849E-01  0.849E-01
 -16.786  0.899E-01  0.899E-01
 -16.776  0.950E-01  0.950E-01
 -16.766  0.100E+00  0.100E+00
 -16.756  0.106E+00  0.106E+00
 -16.746  0.111E+00  0.111E+00
 -16.736  0.117E+00  0.117E+00
 -16.726  0.123E+00  0.123E+00
 -16.716  0.129E+00  0.129E+00
 -16.706  0.135E+00  0.135E+00
 -16.696  0.141E+00  0.141E+00
 -16.686  0.148E+00  0.148E+00
 -16.676  0.155E+00  0.155E+00
 -16.666  0.161E+00  0.161E+00
 -16.656  0.168E+00  0.168E+00
 -16.646  0.175E+00  0.175E+00
 -16.636  0.182E+00  0.182E+00
 -16.626  0.190E+00  0.190E+00
 -16.616  0.197E+00  0.197E+00
 -16.606  0.204E+00  0.204E+00
 -16.596  0.212E+00  0.212E+00
 -16.586  0.220E+00  0.220E+00
 -16.576  0.227E+00  0.227E+00
 -16.566  0.235E+00  0.235E+00
 -16.556  0.243E+00  0.243E+00
 -16.546  0.251E+00  0.251E+00
 -16.536  0.259E+00  0.259E+00
 -16.526  0.267E+00  0.267E+00
 -16.516  0.275E+00  0.275E+00
 -16.506  0.283E+00  0.283E+00
 -16.496  0.291E+00  0.291E+00
 -16.486  0.299E+00  0.299E+00
 -16.476  0.307E+00  0.307E+00
 -16.466  0.315E+00  0.315E+00
 -16.456  0.323E+00  0.323E+00
 -16.446  0.331E+00  0.331E+00
 -16.436  0.338E+00  0.338E+00
 -16.426  0.346E+00  0.346E+00
 -16.416  0.354E+00  0.354E+00
 -16.406  0.362E+00  0.362E+00
 -16.396  0.369E+00  0.369E+00
 -16.386  0.376E+00  0.376E+00
 -16.376  0.384E+00  0.384E+00
 -16.366  0.391E+00  0.391E+00
 -16.356  0.398E+00  0.398E+00
 -16.346  0.404E+00  0.404E+00
 -16.336  0.411E+00  0.411E+00
 -16.326  0.417E+00  0.417E+00
 -16.316  0.423E+00  0.423E+00
 -16.306  0.429E+00  0.429E+00
 -16.296  0.435E+00  0.435E+00
 -16.286  0.441E+00  0.441E+00
 -16.276  0.446E+00  0.446E+00
 -16.266  0.451E+00  0.451E+00
 -16.256  0.456E+00  0.456E+00
 -16.246  0.460E+00  0.460E+00
 -16.236  0.465E+00  0.465E+00
 -16.226  0.469E+00  0.469E+00
 -16.216  0.472E+00  0.472E+00
 -16.206  0.476E+00  0.476E+00
 -16.196  0.479E+00  0.479E+00
 -16.186  0.481E+00  0.481E+00
 -16.176  0.484E+00  0.484E+00
 -16.166  0.486E+00  0.486E+00
 -16.156  0.488E+00  0.488E+00
 -16.146  0.489E+00  0.489E+00
 -16.136  0.490E+00  0.490E+00
 -16.126  0.491E+00  0.491E+00
 -16.116  0.491E+00  0.491E+00
 -16.106  0.491E+00  0.491E+00
 -16.096  0.491E+00  0.491E+00
 -16.086  0.491E+00  0.491E+00
 -16.076  0.490E+00  0.490E+00
 -16.066  0.488E+00  0.488E+00
 -16.056  0.487E+00  0.487E+00
 -16.046  0.485E+00  0.485E+00
 -16.036  0.482E+00  0.482E+00
 -16.026  0.480E+00  0.480E+00
 -16.016  0.477E+00  0.477E+00
 -16.006  0.474E+00  0.474E+00
 -15.996  0.470E+00  0.470E+00
 -15.986  0.466E+00  0.466E+00
 -15.976  0.462E+00  0.462E+00
 -15.966  0.458E+00  0.458E+00
 -15.956  0.453E+00  0.453E+00
 -15.946  0.448E+00  0.448E+00
 -15.936  0.442E+00  0.442E+00
 -15.926  0.437E+00  0.437E+00
 -15.916  0.431E+00  0.431E+00
 -15.906  0.425E+00  0.425E+00
 -15.896  0.419E+00  0.419E+00
 -15.886  0.412E+00  0.412E+00
 -15.876  0.405E+00  0.405E+00
 -15.866  0.398E+00  0.398E+00
 -15.856  0.391E+00  0.391E+00
 -15.846  0.384E+00  0.384E+00
 -15.836  0.376E+00  0.376E+00
 -15.826  0.369E+00  0.369E+00
 -15.816  0.361E+00  0.361E+00
 -15.806  0.353E+00  0.353E+00
 -15.796  0.345E+00  0.345E+00
 -15.786  0.337E+00  0.337E+00
 -15.776  0.329E+00  0.329E+00
 -15.766  0.320E+00  0.320E+00
 -15.756  0.312E+00  0.312E+00
 -15.746  0.303E+00  0.303E+00
 -15.736  0.295E+00  0.295E+00
 -15.726  0.286E+00  0.286E+00
 -15.716  0.278E+00  0.278E+00
 -15.706  0.269E+00  0.269E+00
 -15.696  0.261E+00  0.261E+00
 -15.686  0.252E+00  0.252E+00
 -15.676  0.243E+00  0.243E+00
 -15.666  0.235E+00  0.235E+00
 -15.656  0.226E+00  0.226E+00
 -15.646  0.218E+00  0.218E+00
 -15.636  0.210E+00  0.210E+00
 -15.626  0.201E+00  0.201E+00
 -15.616  0.193E+00  0.193E+00
 -15.606  0.185E+00  0.185E+00
 -15.596  0.177E+00  0.177E+00
 -15.586  0.169E+00  0.169E+00
 -15.576  0.161E+00  0.161E+00
 -15.566  0.153E+00  0.153E+00
 -15.556  0.146E+00  0.146E+00
 -15.546  0.138E+00  0.138E+00
 -15.536  0.131E+00  0.131E+00
 -15.526  0.124E+00  0.124E+00
 -15.516  0.117E+00  0.117E+00
 -15.506  0.110E+00  0.110E+00
 -15.496  0.103E+00  0.103E+00
 -15.486  0.969E-01  0.969E-01
 -15.476  0.905E-01  0.905E-01
 -15.466  0.844E-01  0.844E-01
 -15.456  0.783E-01  0.783E-01
 -15.446  0.725E-01  0.725E-01
 -15.436  0.668E-01  0.668E-01
 -15.426  0.614E-01  0.614E-01
 -15.416  0.560E-01  0.560E-01
 -15.406  0.509E-01  0.509E-01
 -15.396  0.460E-01  0.460E-01
 -15.386  0.412E-01  0.412E-01
 -15.376  0.366E-01  0.366E-01
 -15.366  0.322E-01  0.322E-01
 -15.356  0.280E-01  0.280E-01
 -15.346  0.239E-01  0.239E-01
 -15.336  0.200E-01  0.200E-01
 -15.326  0.163E-01  0.163E-01
 -15.316  0.128E-01  0.128E-01
 -15.306  0.942E-02  0.942E-02
 -15.296  0.622E-02  0.622E-02
 -15.286  0.318E-02  0.318E-02
 -15.276  0.307E-03  0.307E-03
 -15.266 -0.241E-02 -0.241E-02
 -15.256 -0.498E-02 -0.498E-02
 -15.246 -0.739E-02 -0.739E-02
 -15.236 -0.966E-02 -0.966E-02
 -15.226 -0.118E-01 -0.118E-01
 -15.216 -0.138E-01 -0.138E-01
 -15.206 -0.156E-01 -0.156E-01
 -15.196 -0.173E-01 -0.173E-01
 -15.186 -0.189E-01 -0.189E-01
 -15.176 -0.204E-01 -0.204E-01
 -15.166 -0.218E-01 -0.218E-01
 -15.156 -0.230E-01 -0.230E-01
 -15.146 -0.241E-01 -0.241E-01
 -15.136 -0.251E-01 -0.251E-01
 -15.126 -0.261E-01 -0.261E-01
 -15.116 -0.269E-01 -0.269E-01
 -15.106 -0.276E-01 -0.276E-01
 -15.096 -0.282E-01 -0.282E-01
 -15.086 -0.288E-01 -0.288E-01
 -15.076 -0.293E-01 -0.293E-01
 -15.066 -0.297E-01 -0.297E-01
 -15.056 -0.300E-01 -0.300E-01
 -15.046 -0.302E-01 -0.302E-01
 -15.036 -0.304E-01 -0.304E-01
 -15.026 -0.305E-01 -0.305E-01
 -15.016 -0.306E-01 -0.306E-01
 -15.006 -0.306E-01 -0.306E-01
 -14.996 -0.306E-01 -0.306E-01
 -14.986 -0.305E-01 -0.305E-01
 -14.976 -0.304E-01 -0.304E-01
 -14.966 -0.302E-01 -0.302E-01
 -14.956 -0.300E-01 -0.300E-01
 -14.946 -0.297E-01 -0.297E-01
 -14.936 -0.294E-01 -0.294E-01
 -14.926 -0.291E-01 -0.291E-01
 -14.916 -0.287E-01 -0.287E-01
 -14.906 -0.284E-01 -0.284E-01
 -14.896 -0.280E-01 -0.280E-01
 -14.886 -0.275E-01 -0.275E-01
 -14.876 -0.271E-01 -0.271E-01
 -14.866 -0.266E-01 -0.266E-01
 -14.856 -0.261E-01 -0.261E-01
 -14.846 -0.256E-01 -0.256E-01
 -14.836 -0.251E-01 -0.251E-01
 -14.826 -0.246E-01 -0.246E-01
 -14.816 -0.240E-01 -0.240E-01
 -14.806 -0.234E-01 -0.234E-01
 -14.796 -0.229E-01 -0.229E-01
 -14.786 -0.223E-01 -0.223E-01
 -14.776 -0.217E-01 -0.217E-01
 -14.766 -0.211E-01 -0.211E-01
 -14.756 -0.205E-01 -0.205E-01
 -14.746 -0.198E-01 -0.198E-01
 -14.736 -0.192E-01 -0.192E-01
 -14.726 -0.186E-01 -0.186E-01
 -14.716 -0.179E-01 -0.179E-01
 -14.706 -0.172E-01 -0.172E-01
 -14.696 -0.166E-01 -0.166E-01
 -14.686 -0.159E-01 -0.159E-01
 -14.676 -0.152E-01 -0.152E-01
 -14.666 -0.145E-01 -0.145E-01
 -14.656 -0.138E-01 -0.138E-01
 -14.646 -0.131E-01 -0.131E-01
 -14.636 -0.123E-01 -0.123E-01
 -14.626 -0.116E-01 -0.116E-01
 -14.616 -0.108E-01 -0.108E-01
 -14.606 -0.101E-01 -0.101E-01
 -14.596 -0.930E-02 -0.930E-02
 -14.586 -0.851E-02 -0.851E-02
 -14.576 -0.770E-02 -0.770E-02
 -14.566 -0.688E-02 -0.688E-02
 -14.556 -0.604E-02 -0.604E-02
 -14.546 -0.519E-02 -0.519E-02
 -14.536 -0.432E-02 -0.432E-02
 -14.526 -0.344E-02 -0.344E-02
 -14.516 -0.254E-02 -0.254E-02
 -14.506 -0.162E-02 -0.162E-02
 -14.496 -0.679E-03 -0.679E-03
 -14.486  0.278E-03  0.278E-03
 -14.476  0.125E-02  0.125E-02
 -14.466  0.225E-02  0.225E-02
 -14.456  0.327E-02  0.327E-02
 -14.446  0.430E-02  0.430E-02
 -14.436  0.536E-02  0.536E-02
 -14.426  0.644E-02  0.644E-02
 -14.416  0.754E-02  0.754E-02
 -14.406  0.866E-02  0.866E-02
 -14.396  0.980E-02  0.980E-02
 -14.386  0.110E-01  0.110E-01
 -14.376  0.122E-01  0.122E-01
 -14.366  0.134E-01  0.134E-01
 -14.356  0.146E-01  0.146E-01
 -14.346  0.158E-01  0.158E-01
 -14.336  0.171E-01  0.171E-01
 -14.326  0.184E-01  0.184E-01
 -14.316  0.197E-01  0.197E-01
 -14.306  0.210E-01  0.210E-01
 -14.296  0.224E-01  0.224E-01
 -14.286  0.238E-01  0.238E-01
 -14.276  0.251E-01  0.251E-01
 -14.266  0.266E-01  0.266E-01
 -14.256  0.280E-01  0.280E-01
 -14.246  0.294E-01  0.294E-01
 -14.236  0.309E-01  0.309E-01
 -14.226  0.323E-01  0.323E-01
 -14.216  0.338E-01  0.338E-01
 -14.206  0.353E-01  0.353E-01
 -14.196  0.368E-01  0.368E-01
 -14.186  0.383E-01  0.383E-01
 -14.176  0.399E-01  0.399E-01
 -14.166  0.414E-01  0.414E-01
 -14.156  0.429E-01  0.429E-01
 -14.146  0.445E-01  0.445E-01
 -14.136  0.460E-01  0.460E-01
 -14.126  0.476E-01  0.476E-01
 -14.116  0.492E-01  0.492E-01
 -14.106  0.507E-01  0.507E-01
 -14.096  0.523E-01  0.523E-01
 -14.086  0.538E-01  0.538E-01
 -14.076  0.554E-01  0.554E-01
 -14.066  0.569E-01  0.569E-01
 -14.056  0.585E-01  0.585E-01
 -14.046  0.600E-01  0.600E-01
 -14.036  0.615E-01  0.615E-01
 -14.026  0.631E-01  0.631E-01
 -14.016  0.646E-01  0.646E-01
 -14.006  0.661E-01  0.661E-01
 -13.996  0.675E-01  0.675E-01
 -13.986  0.690E-01  0.690E-01
 -13.976  0.704E-01  0.704E-01
 -13.966  0.719E-01  0.719E-01
 -13.956  0.733E-01  0.733E-01
 -13.946  0.747E-01  0.747E-01
 -13.936  0.760E-01  0.760E-01
 -13.926  0.774E-01  0.774E-01
 -13.916  0.787E-01  0.787E-01
 -13.906  0.800E-01  0.800E-01
 -13.896  0.813E-01  0.813E-01
 -13.886  0.825E-01  0.825E-01
 -13.876  0.837E-01  0.837E-01
 -13.866  0.849E-01  0.849E-01
 -13.856  0.861E-01  0.861E-01
 -13.846  0.872E-01  0.872E-01
 -13.836  0.883E-01  0.883E-01
 -13.826  0.894E-01  0.894E-01
 -13.816  0.904E-01  0.904E-01
 -13.806  0.914E-01  0.914E-01
 -13.796  0.924E-01  0.924E-01
 -13.786  0.933E-01  0.933E-01
 -13.776  0.942E-01  0.942E-01
 -13.766  0.951E-01  0.951E-01
 -13.756  0.959E-01  0.959E-01
 -13.746  0.968E-01  0.968E-01
 -13.736  0.975E-01  0.975E-01
 -13.726  0.983E-01  0.983E-01
 -13.716  0.990E-01  0.990E-01
 -13.706  0.997E-01  0.997E-01
 -13.696  0.100E+00  0.100E+00
 -13.686  0.101E+00  0.101E+00
 -13.676  0.102E+00  0.102E+00
 -13.666  0.102E+00  0.102E+00
 -13.656  0.103E+00  0.103E+00
 -13.646  0.103E+00  0.103E+00
 -13.636  0.104E+00  0.104E+00
 -13.626  0.104E+00  0.104E+00
 -13.616  0.104E+00  0.104E+00
 -13.606  0.105E+00  0.105E+00
 -13.596  0.105E+00  0.105E+00
 -13.586  0.105E+00  0.105E+00
 -13.576  0.106E+00  0.106E+00
 -13.566  0.106E+00  0.106E+00
 -13.556  0.106E+00  0.106E+00
 -13.546  0.106E+00  0.106E+00
 -13.536  0.107E+00  0.107E+00
 -13.526  0.107E+00  0.107E+00
 -13.516  0.107E+00  0.107E+00
 -13.506  0.107E+00  0.107E+00
 -13.496  0.107E+00  0.107E+00
 -13.486  0.107E+00  0.107E+00
 -13.476  0.107E+00  0.107E+00
 -13.466  0.107E+00  0.107E+00
 -13.456  0.107E+00  0.107E+00
 -13.446  0.107E+00  0.107E+00
 -13.436  0.107E+00  0.107E+00
 -13.426  0.107E+00  0.107E+00
 -13.416  0.107E+00  0.107E+00
 -13.406  0.107E+00  0.107E+00
 -13.396  0.107E+00  0.107E+00
 -13.386  0.107E+00  0.107E+00
 -13.376  0.107E+00  0.107E+00
 -13.366  0.107E+00  0.107E+00
 -13.356  0.107E+00  0.107E+00
 -13.346  0.106E+00  0.106E+00
 -13.336  0.106E+00  0.106E+00
 -13.326  0.106E+00  0.106E+00
 -13.316  0.106E+00  0.106E+00
 -13.306  0.106E+00  0.106E+00
 -13.296  0.105E+00  0.105E+00
 -13.286  0.105E+00  0.105E+00
 -13.276  0.105E+00  0.105E+00
 -13.266  0.105E+00  0.105E+00
 -13.256  0.104E+00  0.104E+00
 -13.246  0.104E+00  0.104E+00
 -13.236  0.104E+00  0.104E+00
 -13.226  0.103E+00  0.103E+00
 -13.216  0.103E+00  0.103E+00
 -13.206  0.103E+00  0.103E+00
 -13.196  0.102E+00  0.102E+00
 -13.186  0.102E+00  0.102E+00
 -13.176  0.101E+00  0.101E+00
 -13.166  0.101E+00  0.101E+00
 -13.156  0.101E+00  0.101E+00
 -13.146  0.100E+00  0.100E+00
 -13.136  0.996E-01  0.996E-01
 -13.126  0.991E-01  0.991E-01
 -13.116  0.986E-01  0.986E-01
 -13.106  0.980E-01  0.980E-01
 -13.096  0.974E-01  0.974E-01
 -13.086  0.968E-01  0.968E-01
 -13.076  0.962E-01  0.962E-01
 -13.066  0.956E-01  0.956E-01
 -13.056  0.950E-01  0.950E-01
 -13.046  0.943E-01  0.943E-01
 -13.036  0.936E-01  0.936E-01
 -13.026  0.928E-01  0.928E-01
 -13.016  0.921E-01  0.921E-01
 -13.006  0.913E-01  0.913E-01
 -12.996  0.905E-01  0.905E-01
 -12.986  0.897E-01  0.897E-01
 -12.976  0.889E-01  0.889E-01
 -12.966  0.880E-01  0.880E-01
 -12.956  0.871E-01  0.871E-01
 -12.946  0.862E-01  0.862E-01
 -12.936  0.852E-01  0.852E-01
 -12.926  0.842E-01  0.842E-01
 -12.916  0.832E-01  0.832E-01
 -12.906  0.822E-01  0.822E-01
 -12.896  0.812E-01  0.812E-01
 -12.886  0.801E-01  0.801E-01
 -12.876  0.790E-01  0.790E-01
 -12.866  0.778E-01  0.778E-01
 -12.856  0.767E-01  0.767E-01
 -12.846  0.755E-01  0.755E-01
 -12.836  0.743E-01  0.743E-01
 -12.826  0.731E-01  0.731E-01
 -12.816  0.719E-01  0.719E-01
 -12.806  0.706E-01  0.706E-01
 -12.796  0.693E-01  0.693E-01
 -12.786  0.680E-01  0.680E-01
 -12.776  0.667E-01  0.667E-01
 -12.766  0.653E-01  0.653E-01
 -12.756  0.640E-01  0.640E-01
 -12.746  0.626E-01  0.626E-01
 -12.736  0.612E-01  0.612E-01
 -12.726  0.598E-01  0.598E-01
 -12.716  0.584E-01  0.584E-01
 -12.706  0.570E-01  0.570E-01
 -12.696  0.555E-01  0.555E-01
 -12.686  0.541E-01  0.541E-01
 -12.676  0.526E-01  0.526E-01
 -12.666  0.511E-01  0.511E-01
 -12.656  0.496E-01  0.496E-01
 -12.646  0.481E-01  0.481E-01
 -12.636  0.466E-01  0.466E-01
 -12.626  0.452E-01  0.452E-01
 -12.616  0.437E-01  0.437E-01
 -12.606  0.422E-01  0.422E-01
 -12.596  0.407E-01  0.407E-01
 -12.586  0.392E-01  0.392E-01
 -12.576  0.377E-01  0.377E-01
 -12.566  0.362E-01  0.362E-01
 -12.556  0.347E-01  0.347E-01
 -12.546  0.332E-01  0.332E-01
 -12.536  0.317E-01  0.317E-01
 -12.526  0.303E-01  0.303E-01
 -12.516  0.288E-01  0.288E-01
 -12.506  0.274E-01  0.274E-01
 -12.496  0.260E-01  0.260E-01
 -12.486  0.245E-01  0.245E-01
 -12.476  0.232E-01  0.232E-01
 -12.466  0.218E-01  0.218E-01
 -12.456  0.204E-01  0.204E-01
 -12.446  0.191E-01  0.191E-01
 -12.436  0.178E-01  0.178E-01
 -12.426  0.165E-01  0.165E-01
 -12.416  0.152E-01  0.152E-01
 -12.406  0.139E-01  0.139E-01
 -12.396  0.127E-01  0.127E-01
 -12.386  0.115E-01  0.115E-01
 -12.376  0.103E-01  0.103E-01
 -12.366  0.919E-02  0.919E-02
 -12.356  0.807E-02  0.807E-02
 -12.346  0.699E-02  0.699E-02
 -12.336  0.594E-02  0.594E-02
 -12.326  0.492E-02  0.492E-02
 -12.316  0.393E-02  0.393E-02
 -12.306  0.298E-02  0.298E-02
 -12.296  0.206E-02  0.206E-02
 -12.286  0.118E-02  0.118E-02
 -12.276  0.338E-03  0.338E-03
 -12.266 -0.467E-03 -0.467E-03
 -12.256 -0.123E-02 -0.123E-02
 -12.246 -0.196E-02 -0.196E-02
 -12.236 -0.265E-02 -0.265E-02
 -12.226 -0.329E-02 -0.329E-02
 -12.216 -0.389E-02 -0.389E-02
 -12.206 -0.445E-02 -0.445E-02
 -12.196 -0.497E-02 -0.497E-02
 -12.186 -0.544E-02 -0.544E-02
 -12.176 -0.586E-02 -0.586E-02
 -12.166 -0.624E-02 -0.624E-02
 -12.156 -0.658E-02 -0.658E-02
 -12.146 -0.686E-02 -0.686E-02
 -12.136 -0.710E-02 -0.710E-02
 -12.126 -0.729E-02 -0.729E-02
 -12.116 -0.743E-02 -0.743E-02
 -12.106 -0.752E-02 -0.752E-02
 -12.096 -0.756E-02 -0.756E-02
 -12.086 -0.755E-02 -0.755E-02
 -12.076 -0.749E-02 -0.749E-02
 -12.066 -0.737E-02 -0.737E-02
 -12.056 -0.721E-02 -0.721E-02
 -12.046 -0.699E-02 -0.699E-02
 -12.036 -0.671E-02 -0.671E-02
 -12.026 -0.638E-02 -0.638E-02
 -12.016 -0.600E-02 -0.600E-02
 -12.006 -0.557E-02 -0.557E-02
 -11.996 -0.507E-02 -0.507E-02
 -11.986 -0.453E-02 -0.453E-02
 -11.976 -0.393E-02 -0.393E-02
 -11.966 -0.327E-02 -0.327E-02
 -11.956 -0.255E-02 -0.255E-02
 -11.946 -0.178E-02 -0.178E-02
 -11.936 -0.957E-03 -0.957E-03
 -11.926 -0.754E-04 -0.754E-04
 -11.916  0.863E-03  0.863E-03
 -11.906  0.186E-02  0.186E-02
 -11.896  0.291E-02  0.291E-02
 -11.886  0.401E-02  0.401E-02
 -11.876  0.517E-02  0.517E-02
 -11.866  0.639E-02  0.639E-02
 -11.856  0.766E-02  0.766E-02
 -11.846  0.898E-02  0.898E-02
 -11.836  0.104E-01  0.104E-01
 -11.826  0.118E-01  0.118E-01
 -11.816  0.133E-01  0.133E-01
 -11.806  0.148E-01  0.148E-01
 -11.796  0.164E-01  0.164E-01
 -11.786  0.180E-01  0.180E-01
 -11.776  0.197E-01  0.197E-01
 -11.766  0.214E-01  0.214E-01
 -11.756  0.232E-01  0.232E-01
 -11.746  0.250E-01  0.250E-01
 -11.736  0.269E-01  0.269E-01
 -11.726  0.288E-01  0.288E-01
 -11.716  0.308E-01  0.308E-01
 -11.706  0.328E-01  0.328E-01
 -11.696  0.348E-01  0.348E-01
 -11.686  0.368E-01  0.368E-01
 -11.676  0.389E-01  0.389E-01
 -11.666  0.411E-01  0.411E-01
 -11.656  0.432E-01  0.432E-01
 -11.646  0.454E-01  0.454E-01
 -11.636  0.476E-01  0.476E-01
 -11.626  0.498E-01  0.498E-01
 -11.616  0.521E-01  0.521E-01
 -11.606  0.544E-01  0.544E-01
 -11.596  0.567E-01  0.567E-01
 -11.586  0.590E-01  0.590E-01
 -11.576  0.613E-01  0.613E-01
 -11.566  0.636E-01  0.636E-01
 -11.556  0.659E-01  0.659E-01
 -11.546  0.683E-01  0.683E-01
 -11.536  0.706E-01  0.706E-01
 -11.526  0.729E-01  0.729E-01
 -11.516  0.753E-01  0.753E-01
 -11.506  0.776E-01  0.776E-01
 -11.496  0.799E-01  0.799E-01
 -11.486  0.822E-01  0.822E-01
 -11.476  0.845E-01  0.845E-01
 -11.466  0.867E-01  0.867E-01
 -11.456  0.890E-01  0.890E-01
 -11.446  0.912E-01  0.912E-01
 -11.436  0.934E-01  0.934E-01
 -11.426  0.955E-01  0.955E-01
 -11.416  0.977E-01  0.977E-01
 -11.406  0.998E-01  0.998E-01
 -11.396  0.102E+00  0.102E+00
 -11.386  0.104E+00  0.104E+00
 -11.376  0.106E+00  0.106E+00
 -11.366  0.108E+00  0.108E+00
 -11.356  0.110E+00  0.110E+00
 -11.346  0.111E+00  0.111E+00
 -11.336  0.113E+00  0.113E+00
 -11.326  0.115E+00  0.115E+00
 -11.316  0.117E+00  0.117E+00
 -11.306  0.118E+00  0.118E+00
 -11.296  0.120E+00  0.120E+00
 -11.286  0.121E+00  0.121E+00
 -11.276  0.123E+00  0.123E+00
 -11.266  0.124E+00  0.124E+00
 -11.256  0.125E+00  0.125E+00
 -11.246  0.127E+00  0.127E+00
 -11.236  0.128E+00  0.128E+00
 -11.226  0.129E+00  0.129E+00
 -11.216  0.130E+00  0.130E+00
 -11.206  0.131E+00  0.131E+00
 -11.196  0.132E+00  0.132E+00
 -11.186  0.133E+00  0.133E+00
 -11.176  0.133E+00  0.133E+00
 -11.166  0.134E+00  0.134E+00
 -11.156  0.135E+00  0.135E+00
 -11.146  0.135E+00  0.135E+00
 -11.136  0.136E+00  0.136E+00
 -11.126  0.136E+00  0.136E+00
 -11.116  0.137E+00  0.137E+00
 -11.106  0.137E+00  0.137E+00
 -11.096  0.137E+00  0.137E+00
 -11.086  0.137E+00  0.137E+00
 -11.076  0.137E+00  0.137E+00
 -11.066  0.137E+00  0.137E+00
 -11.056  0.137E+00  0.137E+00
 -11.046  0.137E+00  0.137E+00
 -11.036  0.137E+00  0.137E+00
 -11.026  0.137E+00  0.137E+00
 -11.016  0.136E+00  0.136E+00
 -11.006  0.136E+00  0.136E+00
 -10.996  0.136E+00  0.136E+00
 -10.986  0.135E+00  0.135E+00
 -10.976  0.135E+00  0.135E+00
 -10.966  0.134E+00  0.134E+00
 -10.956  0.134E+00  0.134E+00
 -10.946  0.133E+00  0.133E+00
 -10.936  0.132E+00  0.132E+00
 -10.926  0.132E+00  0.132E+00
 -10.916  0.131E+00  0.131E+00
 -10.906  0.130E+00  0.130E+00
 -10.896  0.129E+00  0.129E+00
 -10.886  0.128E+00  0.128E+00
 -10.876  0.127E+00  0.127E+00
 -10.866  0.127E+00  0.127E+00
 -10.856  0.126E+00  0.126E+00
 -10.846  0.125E+00  0.125E+00
 -10.836  0.124E+00  0.124E+00
 -10.826  0.123E+00  0.123E+00
 -10.816  0.122E+00  0.122E+00
 -10.806  0.120E+00  0.120E+00
 -10.796  0.119E+00  0.119E+00
 -10.786  0.118E+00  0.118E+00
 -10.776  0.117E+00  0.117E+00
 -10.766  0.116E+00  0.116E+00
 -10.756  0.115E+00  0.115E+00
 -10.746  0.114E+00  0.114E+00
 -10.736  0.113E+00  0.113E+00
 -10.726  0.112E+00  0.112E+00
 -10.716  0.110E+00  0.110E+00
 -10.706  0.109E+00  0.109E+00
 -10.696  0.108E+00  0.108E+00
 -10.686  0.107E+00  0.107E+00
 -10.676  0.106E+00  0.106E+00
 -10.666  0.105E+00  0.105E+00
 -10.656  0.103E+00  0.103E+00
 -10.646  0.102E+00  0.102E+00
 -10.636  0.101E+00  0.101E+00
 -10.626  0.100E+00  0.100E+00
 -10.616  0.988E-01  0.988E-01
 -10.606  0.976E-01  0.976E-01
 -10.596  0.965E-01  0.965E-01
 -10.586  0.953E-01  0.953E-01
 -10.576  0.942E-01  0.942E-01
 -10.566  0.930E-01  0.930E-01
 -10.556  0.919E-01  0.919E-01
 -10.546  0.907E-01  0.907E-01
 -10.536  0.896E-01  0.896E-01
 -10.526  0.884E-01  0.884E-01
 -10.516  0.873E-01  0.873E-01
 -10.506  0.861E-01  0.861E-01
 -10.496  0.850E-01  0.850E-01
 -10.486  0.839E-01  0.839E-01
 -10.476  0.827E-01  0.827E-01
 -10.466  0.816E-01  0.816E-01
 -10.456  0.805E-01  0.805E-01
 -10.446  0.793E-01  0.793E-01
 -10.436  0.782E-01  0.782E-01
 -10.426  0.771E-01  0.771E-01
 -10.416  0.759E-01  0.759E-01
 -10.406  0.748E-01  0.748E-01
 -10.396  0.737E-01  0.737E-01
 -10.386  0.725E-01  0.725E-01
 -10.376  0.714E-01  0.714E-01
 -10.366  0.702E-01  0.702E-01
 -10.356  0.691E-01  0.691E-01
 -10.346  0.679E-01  0.679E-01
 -10.336  0.668E-01  0.668E-01
 -10.326  0.656E-01  0.656E-01
 -10.316  0.645E-01  0.645E-01
 -10.306  0.633E-01  0.633E-01
 -10.296  0.622E-01  0.622E-01
 -10.286  0.610E-01  0.610E-01
 -10.276  0.598E-01  0.598E-01
 -10.266  0.586E-01  0.586E-01
 -10.256  0.575E-01  0.575E-01
 -10.246  0.563E-01  0.563E-01
 -10.236  0.551E-01  0.551E-01
 -10.226  0.539E-01  0.539E-01
 -10.216  0.528E-01  0.528E-01
 -10.206  0.516E-01  0.516E-01
 -10.196  0.504E-01  0.504E-01
 -10.186  0.492E-01  0.492E-01
 -10.176  0.480E-01  0.480E-01
 -10.166  0.468E-01  0.468E-01
 -10.156  0.456E-01  0.456E-01
 -10.146  0.445E-01  0.445E-01
 -10.136  0.433E-01  0.433E-01
 -10.126  0.421E-01  0.421E-01
 -10.116  0.409E-01  0.409E-01
 -10.106  0.397E-01  0.397E-01
 -10.096  0.386E-01  0.386E-01
 -10.086  0.374E-01  0.374E-01
 -10.076  0.363E-01  0.363E-01
 -10.066  0.351E-01  0.351E-01
 -10.056  0.340E-01  0.340E-01
 -10.046  0.328E-01  0.328E-01
 -10.036  0.317E-01  0.317E-01
 -10.026  0.306E-01  0.306E-01
 -10.016  0.295E-01  0.295E-01
 -10.006  0.284E-01  0.284E-01
  -9.996  0.273E-01  0.273E-01
  -9.986  0.262E-01  0.262E-01
  -9.976  0.252E-01  0.252E-01
  -9.966  0.241E-01  0.241E-01
  -9.956  0.231E-01  0.231E-01
  -9.946  0.221E-01  0.221E-01
  -9.936  0.211E-01  0.211E-01
  -9.926  0.201E-01  0.201E-01
  -9.916  0.191E-01  0.191E-01
  -9.906  0.182E-01  0.182E-01
  -9.896  0.172E-01  0.172E-01
  -9.886  0.163E-01  0.163E-01
  -9.876  0.154E-01  0.154E-01
  -9.866  0.146E-01  0.146E-01
  -9.856  0.137E-01  0.137E-01
  -9.846  0.129E-01  0.129E-01
  -9.836  0.121E-01  0.121E-01
  -9.826  0.113E-01  0.113E-01
  -9.816  0.105E-01  0.105E-01
  -9.806  0.974E-02  0.974E-02
  -9.796  0.902E-02  0.902E-02
  -9.786  0.831E-02  0.831E-02
  -9.776  0.763E-02  0.763E-02
  -9.766  0.697E-02  0.697E-02
  -9.756  0.634E-02  0.634E-02
  -9.746  0.572E-02  0.572E-02
  -9.736  0.513E-02  0.513E-02
  -9.726  0.456E-02  0.456E-02
  -9.716  0.402E-02  0.402E-02
  -9.706  0.349E-02  0.349E-02
  -9.696  0.299E-02  0.299E-02
  -9.686  0.251E-02  0.251E-02
  -9.676  0.205E-02  0.205E-02
  -9.666  0.162E-02  0.162E-02
  -9.656  0.120E-02  0.120E-02
  -9.646  0.809E-03  0.809E-03
  -9.636  0.436E-03  0.436E-03
  -9.626  0.832E-04  0.832E-04
  -9.616 -0.250E-03 -0.250E-03
  -9.606 -0.563E-03 -0.563E-03
  -9.596 -0.856E-03 -0.856E-03
  -9.586 -0.113E-02 -0.113E-02
  -9.576 -0.139E-02 -0.139E-02
  -9.566 -0.163E-02 -0.163E-02
  -9.556 -0.185E-02 -0.185E-02
  -9.546 -0.205E-02 -0.205E-02
  -9.536 -0.224E-02 -0.224E-02
  -9.526 -0.241E-02 -0.241E-02
  -9.516 -0.257E-02 -0.257E-02
  -9.506 -0.271E-02 -0.271E-02
  -9.496 -0.283E-02 -0.283E-02
  -9.486 -0.295E-02 -0.295E-02
  -9.476 -0.304E-02 -0.304E-02
  -9.466 -0.313E-02 -0.313E-02
  -9.456 -0.320E-02 -0.320E-02
  -9.446 -0.326E-02 -0.326E-02
  -9.436 -0.331E-02 -0.331E-02
  -9.426 -0.335E-02 -0.335E-02
  -9.416 -0.338E-02 -0.338E-02
  -9.406 -0.340E-02 -0.340E-02
  -9.396 -0.340E-02 -0.340E-02
  -9.386 -0.340E-02 -0.340E-02
  -9.376 -0.339E-02 -0.339E-02
  -9.366 -0.338E-02 -0.338E-02
  -9.356 -0.335E-02 -0.335E-02
  -9.346 -0.332E-02 -0.332E-02
  -9.336 -0.328E-02 -0.328E-02
  -9.326 -0.323E-02 -0.323E-02
  -9.316 -0.318E-02 -0.318E-02
  -9.306 -0.312E-02 -0.312E-02
  -9.296 -0.305E-02 -0.305E-02
  -9.286 -0.298E-02 -0.298E-02
  -9.276 -0.291E-02 -0.291E-02
  -9.266 -0.283E-02 -0.283E-02
  -9.256 -0.274E-02 -0.274E-02
  -9.246 -0.265E-02 -0.265E-02
  -9.236 -0.256E-02 -0.256E-02
  -9.226 -0.247E-02 -0.247E-02
  -9.216 -0.237E-02 -0.237E-02
  -9.206 -0.226E-02 -0.226E-02
  -9.196 -0.216E-02 -0.216E-02
  -9.186 -0.205E-02 -0.205E-02
  -9.176 -0.193E-02 -0.193E-02
  -9.166 -0.182E-02 -0.182E-02
  -9.156 -0.170E-02 -0.170E-02
  -9.146 -0.158E-02 -0.158E-02
  -9.136 -0.146E-02 -0.146E-02
  -9.126 -0.133E-02 -0.133E-02
  -9.116 -0.120E-02 -0.120E-02
  -9.106 -0.107E-02 -0.107E-02
  -9.096 -0.941E-03 -0.941E-03
  -9.086 -0.807E-03 -0.807E-03
  -9.076 -0.670E-03 -0.670E-03
  -9.066 -0.531E-03 -0.531E-03
  -9.056 -0.390E-03 -0.390E-03
  -9.046 -0.247E-03 -0.247E-03
  -9.036 -0.102E-03 -0.102E-03
  -9.026  0.457E-04  0.457E-04
  -9.016  0.195E-03  0.195E-03
  -9.006  0.347E-03  0.347E-03
  -8.996  0.501E-03  0.501E-03
  -8.986  0.658E-03  0.658E-03
  -8.976  0.816E-03  0.816E-03
  -8.966  0.977E-03  0.977E-03
  -8.956  0.114E-02  0.114E-02
  -8.946  0.131E-02  0.131E-02
  -8.936  0.147E-02  0.147E-02
  -8.926  0.164E-02  0.164E-02
  -8.916  0.182E-02  0.182E-02
  -8.906  0.199E-02  0.199E-02
  -8.896  0.217E-02  0.217E-02
  -8.886  0.235E-02  0.235E-02
  -8.876  0.253E-02  0.253E-02
  -8.866  0.271E-02  0.271E-02
  -8.856  0.290E-02  0.290E-02
  -8.846  0.309E-02  0.309E-02
  -8.836  0.328E-02  0.328E-02
  -8.826  0.347E-02  0.347E-02
  -8.816  0.366E-02  0.366E-02
  -8.806  0.386E-02  0.386E-02
  -8.796  0.406E-02  0.406E-02
  -8.786  0.426E-02  0.426E-02
  -8.776  0.446E-02  0.446E-02
  -8.766  0.467E-02  0.467E-02
  -8.756  0.487E-02  0.487E-02
  -8.746  0.508E-02  0.508E-02
  -8.736  0.529E-02  0.529E-02
  -8.726  0.550E-02  0.550E-02
  -8.716  0.571E-02  0.571E-02
  -8.706  0.592E-02  0.592E-02
  -8.696  0.613E-02  0.613E-02
  -8.686  0.635E-02  0.635E-02
  -8.676  0.656E-02  0.656E-02
  -8.666  0.677E-02  0.677E-02
  -8.656  0.699E-02  0.699E-02
  -8.646  0.720E-02  0.720E-02
  -8.636  0.741E-02  0.741E-02
  -8.626  0.763E-02  0.763E-02
  -8.616  0.784E-02  0.784E-02
  -8.606  0.805E-02  0.805E-02
  -8.596  0.826E-02  0.826E-02
  -8.586  0.847E-02  0.847E-02
  -8.576  0.867E-02  0.867E-02
  -8.566  0.888E-02  0.888E-02
  -8.556  0.908E-02  0.908E-02
  -8.546  0.928E-02  0.928E-02
  -8.536  0.948E-02  0.948E-02
  -8.526  0.967E-02  0.967E-02
  -8.516  0.986E-02  0.986E-02
  -8.506  0.101E-01  0.101E-01
  -8.496  0.102E-01  0.102E-01
  -8.486  0.104E-01  0.104E-01
  -8.476  0.106E-01  0.106E-01
  -8.466  0.108E-01  0.108E-01
  -8.456  0.109E-01  0.109E-01
  -8.446  0.111E-01  0.111E-01
  -8.436  0.113E-01  0.113E-01
  -8.426  0.114E-01  0.114E-01
  -8.416  0.116E-01  0.116E-01
  -8.406  0.117E-01  0.117E-01
  -8.396  0.118E-01  0.118E-01
  -8.386  0.120E-01  0.120E-01
  -8.376  0.121E-01  0.121E-01
  -8.366  0.122E-01  0.122E-01
  -8.356  0.123E-01  0.123E-01
  -8.346  0.124E-01  0.124E-01
  -8.336  0.125E-01  0.125E-01
  -8.326  0.126E-01  0.126E-01
  -8.316  0.127E-01  0.127E-01
  -8.306  0.128E-01  0.128E-01
  -8.296  0.128E-01  0.128E-01
  -8.286  0.129E-01  0.129E-01
  -8.276  0.129E-01  0.129E-01
  -8.266  0.130E-01  0.130E-01
  -8.256  0.130E-01  0.130E-01
  -8.246  0.131E-01  0.131E-01
  -8.236  0.131E-01  0.131E-01
  -8.226  0.131E-01  0.131E-01
  -8.216  0.131E-01  0.131E-01
  -8.206  0.131E-01  0.131E-01
  -8.196  0.131E-01  0.131E-01
  -8.186  0.131E-01  0.131E-01
  -8.176  0.130E-01  0.130E-01
  -8.166  0.130E-01  0.130E-01
  -8.156  0.130E-01  0.130E-01
  -8.146  0.129E-01  0.129E-01
  -8.136  0.129E-01  0.129E-01
  -8.126  0.128E-01  0.128E-01
  -8.116  0.128E-01  0.128E-01
  -8.106  0.127E-01  0.127E-01
  -8.096  0.126E-01  0.126E-01
  -8.086  0.125E-01  0.125E-01
  -8.076  0.124E-01  0.124E-01
  -8.066  0.123E-01  0.123E-01
  -8.056  0.122E-01  0.122E-01
  -8.046  0.121E-01  0.121E-01
  -8.036  0.120E-01  0.120E-01
  -8.026  0.119E-01  0.119E-01
  -8.016  0.117E-01  0.117E-01
  -8.006  0.116E-01  0.116E-01
  -7.996  0.115E-01  0.115E-01
  -7.986  0.113E-01  0.113E-01
  -7.976  0.112E-01  0.112E-01
  -7.966  0.110E-01  0.110E-01
  -7.956  0.108E-01  0.108E-01
  -7.946  0.107E-01  0.107E-01
  -7.936  0.105E-01  0.105E-01
  -7.926  0.104E-01  0.104E-01
  -7.916  0.102E-01  0.102E-01
  -7.906  0.100E-01  0.100E-01
  -7.896  0.983E-02  0.983E-02
  -7.886  0.965E-02  0.965E-02
  -7.876  0.947E-02  0.947E-02
  -7.866  0.929E-02  0.929E-02
  -7.856  0.910E-02  0.910E-02
  -7.846  0.892E-02  0.892E-02
  -7.836  0.873E-02  0.873E-02
  -7.826  0.854E-02  0.854E-02
  -7.816  0.835E-02  0.835E-02
  -7.806  0.817E-02  0.817E-02
  -7.796  0.798E-02  0.798E-02
  -7.786  0.779E-02  0.779E-02
  -7.776  0.760E-02  0.760E-02
  -7.766  0.741E-02  0.741E-02
  -7.756  0.722E-02  0.722E-02
  -7.746  0.704E-02  0.704E-02
  -7.736  0.685E-02  0.685E-02
  -7.726  0.667E-02  0.667E-02
  -7.716  0.649E-02  0.649E-02
  -7.706  0.631E-02  0.631E-02
  -7.696  0.613E-02  0.613E-02
  -7.686  0.596E-02  0.596E-02
  -7.676  0.579E-02  0.579E-02
  -7.666  0.562E-02  0.562E-02
  -7.656  0.545E-02  0.545E-02
  -7.646  0.529E-02  0.529E-02
  -7.636  0.512E-02  0.512E-02
  -7.626  0.497E-02  0.497E-02
  -7.616  0.481E-02  0.481E-02
  -7.606  0.466E-02  0.466E-02
  -7.596  0.452E-02  0.452E-02
  -7.586  0.438E-02  0.438E-02
  -7.576  0.424E-02  0.424E-02
  -7.566  0.411E-02  0.411E-02
  -7.556  0.398E-02  0.398E-02
  -7.546  0.385E-02  0.385E-02
  -7.536  0.373E-02  0.373E-02
  -7.526  0.362E-02  0.362E-02
  -7.516  0.351E-02  0.351E-02
  -7.506  0.341E-02  0.341E-02
  -7.496  0.331E-02  0.331E-02
  -7.486  0.321E-02  0.321E-02
  -7.476  0.312E-02  0.312E-02
  -7.466  0.304E-02  0.304E-02
  -7.456  0.296E-02  0.296E-02
  -7.446  0.289E-02  0.289E-02
  -7.436  0.282E-02  0.282E-02
  -7.426  0.276E-02  0.276E-02
  -7.416  0.271E-02  0.271E-02
  -7.406  0.266E-02  0.266E-02
  -7.396  0.261E-02  0.261E-02
  -7.386  0.258E-02  0.258E-02
  -7.376  0.255E-02  0.255E-02
  -7.366  0.252E-02  0.252E-02
  -7.356  0.250E-02  0.250E-02
  -7.346  0.249E-02  0.249E-02
  -7.336  0.248E-02  0.248E-02
  -7.326  0.248E-02  0.248E-02
  -7.316  0.248E-02  0.248E-02
  -7.306  0.250E-02  0.250E-02
  -7.296  0.251E-02  0.251E-02
  -7.286  0.254E-02  0.254E-02
  -7.276  0.257E-02  0.257E-02
  -7.266  0.260E-02  0.260E-02
  -7.256  0.264E-02  0.264E-02
  -7.246  0.269E-02  0.269E-02
  -7.236  0.275E-02  0.275E-02
  -7.226  0.281E-02  0.281E-02
  -7.216  0.287E-02  0.287E-02
  -7.206  0.294E-02  0.294E-02
  -7.196  0.302E-02  0.302E-02
  -7.186  0.310E-02  0.310E-02
  -7.176  0.319E-02  0.319E-02
  -7.166  0.329E-02  0.329E-02
  -7.156  0.339E-02  0.339E-02
  -7.146  0.349E-02  0.349E-02
  -7.136  0.360E-02  0.360E-02
  -7.126  0.372E-02  0.372E-02
  -7.116  0.384E-02  0.384E-02
  -7.106  0.397E-02  0.397E-02
  -7.096  0.410E-02  0.410E-02
  -7.086  0.424E-02  0.424E-02
  -7.076  0.438E-02  0.438E-02
  -7.066  0.452E-02  0.452E-02
  -7.056  0.467E-02  0.467E-02
  -7.046  0.482E-02  0.482E-02
  -7.036  0.498E-02  0.498E-02
  -7.026  0.514E-02  0.514E-02
  -7.016  0.531E-02  0.531E-02
  -7.006  0.548E-02  0.548E-02
  -6.996  0.565E-02  0.565E-02
  -6.986  0.582E-02  0.582E-02
  -6.976  0.600E-02  0.600E-02
  -6.966  0.618E-02  0.618E-02
  -6.956  0.636E-02  0.636E-02
  -6.946  0.655E-02  0.655E-02
  -6.936  0.673E-02  0.673E-02
  -6.926  0.692E-02  0.692E-02
  -6.916  0.711E-02  0.711E-02
  -6.906  0.730E-02  0.730E-02
  -6.896  0.750E-02  0.750E-02
  -6.886  0.769E-02  0.769E-02
  -6.876  0.788E-02  0.788E-02
  -6.866  0.808E-02  0.808E-02
  -6.856  0.827E-02  0.827E-02
  -6.846  0.846E-02  0.846E-02
  -6.836  0.866E-02  0.866E-02
  -6.826  0.885E-02  0.885E-02
  -6.816  0.904E-02  0.904E-02
  -6.806  0.923E-02  0.923E-02
  -6.796  0.942E-02  0.942E-02
  -6.786  0.960E-02  0.960E-02
  -6.776  0.979E-02  0.979E-02
  -6.766  0.997E-02  0.997E-02
  -6.756  0.101E-01  0.101E-01
  -6.746  0.103E-01  0.103E-01
  -6.736  0.105E-01  0.105E-01
  -6.726  0.107E-01  0.107E-01
  -6.716  0.108E-01  0.108E-01
  -6.706  0.110E-01  0.110E-01
  -6.696  0.111E-01  0.111E-01
  -6.686  0.113E-01  0.113E-01
  -6.676  0.114E-01  0.114E-01
  -6.666  0.116E-01  0.116E-01
  -6.656  0.117E-01  0.117E-01
  -6.646  0.119E-01  0.119E-01
  -6.636  0.120E-01  0.120E-01
  -6.626  0.121E-01  0.121E-01
  -6.616  0.122E-01  0.122E-01
  -6.606  0.123E-01  0.123E-01
  -6.596  0.124E-01  0.124E-01
  -6.586  0.125E-01  0.125E-01
  -6.576  0.126E-01  0.126E-01
  -6.566  0.127E-01  0.127E-01
  -6.556  0.128E-01  0.128E-01
  -6.546  0.128E-01  0.128E-01
  -6.536  0.129E-01  0.129E-01
  -6.526  0.129E-01  0.129E-01
  -6.516  0.130E-01  0.130E-01
  -6.506  0.130E-01  0.130E-01
  -6.496  0.130E-01  0.130E-01
  -6.486  0.131E-01  0.131E-01
  -6.476  0.131E-01  0.131E-01
  -6.466  0.131E-01  0.131E-01
  -6.456  0.131E-01  0.131E-01
  -6.446  0.131E-01  0.131E-01
  -6.436  0.130E-01  0.130E-01
  -6.426  0.130E-01  0.130E-01
  -6.416  0.130E-01  0.130E-01
  -6.406  0.129E-01  0.129E-01
  -6.396  0.129E-01  0.129E-01
  -6.386  0.128E-01  0.128E-01
  -6.376  0.128E-01  0.128E-01
  -6.366  0.127E-01  0.127E-01
  -6.356  0.126E-01  0.126E-01
  -6.346  0.125E-01  0.125E-01
  -6.336  0.124E-01  0.124E-01
  -6.326  0.123E-01  0.123E-01
  -6.316  0.122E-01  0.122E-01
  -6.306  0.121E-01  0.121E-01
  -6.296  0.120E-01  0.120E-01
  -6.286  0.118E-01  0.118E-01
  -6.276  0.117E-01  0.117E-01
  -6.266  0.116E-01  0.116E-01
  -6.256  0.114E-01  0.114E-01
  -6.246  0.113E-01  0.113E-01
  -6.236  0.111E-01  0.111E-01
  -6.226  0.110E-01  0.110E-01
  -6.216  0.108E-01  0.108E-01
  -6.206  0.106E-01  0.106E-01
  -6.196  0.104E-01  0.104E-01
  -6.186  0.103E-01  0.103E-01
  -6.176  0.101E-01  0.101E-01
  -6.166  0.988E-02  0.988E-02
  -6.156  0.969E-02  0.969E-02
  -6.146  0.950E-02  0.950E-02
  -6.136  0.930E-02  0.930E-02
  -6.126  0.910E-02  0.910E-02
  -6.116  0.890E-02  0.890E-02
  -6.106  0.869E-02  0.869E-02
  -6.096  0.849E-02  0.849E-02
  -6.086  0.828E-02  0.828E-02
  -6.076  0.807E-02  0.807E-02
  -6.066  0.786E-02  0.786E-02
  -6.056  0.765E-02  0.765E-02
  -6.046  0.744E-02  0.744E-02
  -6.036  0.723E-02  0.723E-02
  -6.026  0.701E-02  0.701E-02
  -6.016  0.680E-02  0.680E-02
  -6.006  0.659E-02  0.659E-02
  -5.996  0.638E-02  0.638E-02
  -5.986  0.617E-02  0.617E-02
  -5.976  0.597E-02  0.597E-02
  -5.966  0.576E-02  0.576E-02
  -5.956  0.555E-02  0.555E-02
  -5.946  0.535E-02  0.535E-02
  -5.936  0.515E-02  0.515E-02
  -5.926  0.495E-02  0.495E-02
  -5.916  0.475E-02  0.475E-02
  -5.906  0.456E-02  0.456E-02
  -5.896  0.437E-02  0.437E-02
  -5.886  0.418E-02  0.418E-02
  -5.876  0.399E-02  0.399E-02
  -5.866  0.381E-02  0.381E-02
  -5.856  0.363E-02  0.363E-02
  -5.846  0.346E-02  0.346E-02
  -5.836  0.328E-02  0.328E-02
  -5.826  0.312E-02  0.312E-02
  -5.816  0.295E-02  0.295E-02
  -5.806  0.279E-02  0.279E-02
  -5.796  0.263E-02  0.263E-02
  -5.786  0.248E-02  0.248E-02
  -5.776  0.233E-02  0.233E-02
  -5.766  0.218E-02  0.218E-02
  -5.756  0.204E-02  0.204E-02
  -5.746  0.191E-02  0.191E-02
  -5.736  0.177E-02  0.177E-02
  -5.726  0.164E-02  0.164E-02
  -5.716  0.152E-02  0.152E-02
  -5.706  0.140E-02  0.140E-02
  -5.696  0.128E-02  0.128E-02
  -5.686  0.117E-02  0.117E-02
  -5.676  0.106E-02  0.106E-02
  -5.666  0.960E-03  0.960E-03
  -5.656  0.861E-03  0.861E-03
  -5.646  0.765E-03  0.765E-03
  -5.636  0.674E-03  0.674E-03
  -5.626  0.587E-03  0.587E-03
  -5.616  0.504E-03  0.504E-03
  -5.606  0.425E-03  0.425E-03
  -5.596  0.349E-03  0.349E-03
  -5.586  0.278E-03  0.278E-03
  -5.576  0.210E-03  0.210E-03
  -5.566  0.146E-03  0.146E-03
  -5.556  0.861E-04  0.861E-04
  -5.546  0.295E-04  0.295E-04
  -5.536 -0.236E-04 -0.236E-04
  -5.526 -0.732E-04 -0.732E-04
  -5.516 -0.119E-03 -0.119E-03
  -5.506 -0.162E-03 -0.162E-03
  -5.496 -0.202E-03 -0.202E-03
  -5.486 -0.239E-03 -0.239E-03
  -5.476 -0.272E-03 -0.272E-03
  -5.466 -0.302E-03 -0.302E-03
  -5.456 -0.330E-03 -0.330E-03
  -5.446 -0.355E-03 -0.355E-03
  -5.436 -0.376E-03 -0.376E-03
  -5.426 -0.396E-03 -0.396E-03
  -5.416 -0.412E-03 -0.412E-03
  -5.406 -0.426E-03 -0.426E-03
  -5.396 -0.438E-03 -0.438E-03
  -5.386 -0.447E-03 -0.447E-03
  -5.376 -0.454E-03 -0.454E-03
  -5.366 -0.459E-03 -0.459E-03
  -5.356 -0.461E-03 -0.461E-03
  -5.346 -0.462E-03 -0.462E-03
  -5.336 -0.460E-03 -0.460E-03
  -5.326 -0.456E-03 -0.456E-03
  -5.316 -0.451E-03 -0.451E-03
  -5.306 -0.444E-03 -0.444E-03
  -5.296 -0.435E-03 -0.435E-03
  -5.286 -0.424E-03 -0.424E-03
  -5.276 -0.412E-03 -0.412E-03
  -5.266 -0.398E-03 -0.398E-03
  -5.256 -0.382E-03 -0.382E-03
  -5.246 -0.365E-03 -0.365E-03
  -5.236 -0.347E-03 -0.347E-03
  -5.226 -0.327E-03 -0.327E-03
  -5.216 -0.306E-03 -0.306E-03
  -5.206 -0.284E-03 -0.284E-03
  -5.196 -0.260E-03 -0.260E-03
  -5.186 -0.235E-03 -0.235E-03
  -5.176 -0.209E-03 -0.209E-03
  -5.166 -0.182E-03 -0.182E-03
  -5.156 -0.154E-03 -0.154E-03
  -5.146 -0.125E-03 -0.125E-03
  -5.136 -0.943E-04 -0.943E-04
  -5.126 -0.631E-04 -0.631E-04
  -5.116 -0.309E-04 -0.309E-04
  -5.106  0.209E-05  0.209E-05
  -5.096  0.360E-04  0.360E-04
  -5.086  0.708E-04  0.708E-04
  -5.076  0.106E-03  0.106E-03
  -5.066  0.143E-03  0.143E-03
  -5.056  0.180E-03  0.180E-03
  -5.046  0.218E-03  0.218E-03
  -5.036  0.256E-03  0.256E-03
  -5.026  0.295E-03  0.295E-03
  -5.016  0.335E-03  0.335E-03
  -5.006  0.375E-03  0.375E-03
  -4.996  0.416E-03  0.416E-03
  -4.986  0.458E-03  0.458E-03
  -4.976  0.499E-03  0.499E-03
  -4.966  0.542E-03  0.542E-03
  -4.956  0.585E-03  0.585E-03
  -4.946  0.628E-03  0.628E-03
  -4.936  0.672E-03  0.672E-03
  -4.926  0.716E-03  0.716E-03
  -4.916  0.760E-03  0.760E-03
  -4.906  0.804E-03  0.804E-03
  -4.896  0.849E-03  0.849E-03
  -4.886  0.894E-03  0.894E-03
  -4.876  0.939E-03  0.939E-03
  -4.866  0.984E-03  0.984E-03
  -4.856  0.103E-02  0.103E-02
  -4.846  0.107E-02  0.107E-02
  -4.836  0.112E-02  0.112E-02
  -4.826  0.117E-02  0.117E-02
  -4.816  0.121E-02  0.121E-02
  -4.806  0.126E-02  0.126E-02
  -4.796  0.130E-02  0.130E-02
  -4.786  0.134E-02  0.134E-02
  -4.776  0.139E-02  0.139E-02
  -4.766  0.143E-02  0.143E-02
  -4.756  0.148E-02  0.148E-02
  -4.746  0.152E-02  0.152E-02
  -4.736  0.156E-02  0.156E-02
  -4.726  0.160E-02  0.160E-02
  -4.716  0.165E-02  0.165E-02
  -4.706  0.169E-02  0.169E-02
  -4.696  0.173E-02  0.173E-02
  -4.686  0.177E-02  0.177E-02
  -4.676  0.180E-02  0.180E-02
  -4.666  0.184E-02  0.184E-02
  -4.656  0.188E-02  0.188E-02
  -4.646  0.192E-02  0.192E-02
  -4.636  0.195E-02  0.195E-02
  -4.626  0.198E-02  0.198E-02
  -4.616  0.202E-02  0.202E-02
  -4.606  0.205E-02  0.205E-02
  -4.596  0.208E-02  0.208E-02
  -4.586  0.211E-02  0.211E-02
  -4.576  0.214E-02  0.214E-02
  -4.566  0.216E-02  0.216E-02
  -4.556  0.219E-02  0.219E-02
  -4.546  0.221E-02  0.221E-02
  -4.536  0.224E-02  0.224E-02
  -4.526  0.226E-02  0.226E-02
  -4.516  0.228E-02  0.228E-02
  -4.506  0.230E-02  0.230E-02
  -4.496  0.231E-02  0.231E-02
  -4.486  0.233E-02  0.233E-02
  -4.476  0.234E-02  0.234E-02
  -4.466  0.235E-02  0.235E-02
  -4.456  0.236E-02  0.236E-02
  -4.446  0.237E-02  0.237E-02
  -4.436  0.238E-02  0.238E-02
  -4.426  0.238E-02  0.238E-02
  -4.416  0.239E-02  0.239E-02
  -4.406  0.239E-02  0.239E-02
  -4.396  0.239E-02  0.239E-02
  -4.386  0.239E-02  0.239E-02
  -4.376  0.239E-02  0.239E-02
  -4.366  0.238E-02  0.238E-02
  -4.356  0.238E-02  0.238E-02
  -4.346  0.237E-02  0.237E-02
  -4.336  0.236E-02  0.236E-02
  -4.326  0.235E-02  0.235E-02
  -4.316  0.233E-02  0.233E-02
  -4.306  0.232E-02  0.232E-02
  -4.296  0.230E-02  0.230E-02
  -4.286  0.229E-02  0.229E-02
  -4.276  0.227E-02  0.227E-02
  -4.266  0.225E-02  0.225E-02
  -4.256  0.223E-02  0.223E-02
  -4.246  0.220E-02  0.220E-02
  -4.236  0.218E-02  0.218E-02
  -4.226  0.215E-02  0.215E-02
  -4.216  0.213E-02  0.213E-02
  -4.206  0.210E-02  0.210E-02
  -4.196  0.207E-02  0.207E-02
  -4.186  0.204E-02  0.204E-02
  -4.176  0.201E-02  0.201E-02
  -4.166  0.198E-02  0.198E-02
  -4.156  0.194E-02  0.194E-02
  -4.146  0.191E-02  0.191E-02
  -4.136  0.187E-02  0.187E-02
  -4.126  0.184E-02  0.184E-02
  -4.116  0.180E-02  0.180E-02
  -4.106  0.177E-02  0.177E-02
  -4.096  0.173E-02  0.173E-02
  -4.086  0.169E-02  0.169E-02
  -4.076  0.165E-02  0.165E-02
  -4.066  0.161E-02  0.161E-02
  -4.056  0.157E-02  0.157E-02
  -4.046  0.153E-02  0.153E-02
  -4.036  0.149E-02  0.149E-02
  -4.026  0.145E-02  0.145E-02
  -4.016  0.141E-02  0.141E-02
  -4.006  0.137E-02  0.137E-02
  -3.996  0.133E-02  0.133E-02
  -3.986  0.129E-02  0.129E-02
  -3.976  0.125E-02  0.125E-02
  -3.966  0.121E-02  0.121E-02
  -3.956  0.117E-02  0.117E-02
  -3.946  0.113E-02  0.113E-02
  -3.936  0.109E-02  0.109E-02
  -3.926  0.105E-02  0.105E-02
  -3.916  0.101E-02  0.101E-02
  -3.906  0.970E-03  0.970E-03
  -3.896  0.931E-03  0.931E-03
  -3.886  0.893E-03  0.893E-03
  -3.876  0.856E-03  0.856E-03
  -3.866  0.819E-03  0.819E-03
  -3.856  0.783E-03  0.783E-03
  -3.846  0.747E-03  0.747E-03
  -3.836  0.712E-03  0.712E-03
  -3.826  0.678E-03  0.678E-03
  -3.816  0.644E-03  0.644E-03
  -3.806  0.611E-03  0.611E-03
  -3.796  0.579E-03  0.579E-03
  -3.786  0.548E-03  0.548E-03
  -3.776  0.517E-03  0.517E-03
  -3.766  0.487E-03  0.487E-03
  -3.756  0.458E-03  0.458E-03
  -3.746  0.430E-03  0.430E-03
  -3.736  0.402E-03  0.402E-03
  -3.726  0.376E-03  0.376E-03
  -3.716  0.350E-03  0.350E-03
  -3.706  0.325E-03  0.325E-03
  -3.696  0.301E-03  0.301E-03
  -3.686  0.278E-03  0.278E-03
  -3.676  0.256E-03  0.256E-03
  -3.666  0.234E-03  0.234E-03
  -3.656  0.214E-03  0.214E-03
  -3.646  0.194E-03  0.194E-03
  -3.636  0.175E-03  0.175E-03
  -3.626  0.157E-03  0.157E-03
  -3.616  0.139E-03  0.139E-03
  -3.606  0.123E-03  0.123E-03
  -3.596  0.107E-03  0.107E-03
  -3.586  0.922E-04  0.922E-04
  -3.576  0.781E-04  0.781E-04
  -3.566  0.647E-04  0.647E-04
  -3.556  0.520E-04  0.520E-04
  -3.546  0.400E-04  0.400E-04
  -3.536  0.288E-04  0.288E-04
  -3.526  0.183E-04  0.183E-04
  -3.516  0.840E-05  0.840E-05
  -3.506 -0.820E-06 -0.820E-06
  -3.496 -0.940E-05 -0.940E-05
  -3.486 -0.174E-04 -0.174E-04
  -3.476 -0.247E-04 -0.247E-04
  -3.466 -0.315E-04 -0.315E-04
  -3.456 -0.378E-04 -0.378E-04
  -3.446 -0.435E-04 -0.435E-04
  -3.436 -0.486E-04 -0.486E-04
  -3.426 -0.533E-04 -0.533E-04
  -3.416 -0.575E-04 -0.575E-04
  -3.406 -0.613E-04 -0.613E-04
  -3.396 -0.646E-04 -0.646E-04
  -3.386 -0.675E-04 -0.675E-04
  -3.376 -0.700E-04 -0.700E-04
  -3.366 -0.722E-04 -0.722E-04
  -3.356 -0.740E-04 -0.740E-04
  -3.346 -0.754E-04 -0.754E-04
  -3.336 -0.765E-04 -0.765E-04
  -3.326 -0.774E-04 -0.774E-04
  -3.316 -0.779E-04 -0.779E-04
  -3.306 -0.782E-04 -0.782E-04
  -3.296 -0.782E-04 -0.782E-04
  -3.286 -0.780E-04 -0.780E-04
  -3.276 -0.776E-04 -0.776E-04
  -3.266 -0.770E-04 -0.770E-04
  -3.256 -0.762E-04 -0.762E-04
  -3.246 -0.753E-04 -0.753E-04
  -3.236 -0.742E-04 -0.742E-04
  -3.226 -0.729E-04 -0.729E-04
  -3.216 -0.716E-04 -0.716E-04
  -3.206 -0.701E-04 -0.701E-04
  -3.196 -0.685E-04 -0.685E-04
  -3.186 -0.668E-04 -0.668E-04
  -3.176 -0.651E-04 -0.651E-04
  -3.166 -0.633E-04 -0.633E-04
  -3.156 -0.614E-04 -0.614E-04
  -3.146 -0.595E-04 -0.595E-04
  -3.136 -0.575E-04 -0.575E-04
  -3.126 -0.555E-04 -0.555E-04
  -3.116 -0.535E-04 -0.535E-04
  -3.106 -0.515E-04 -0.515E-04
  -3.096 -0.494E-04 -0.494E-04
  -3.086 -0.474E-04 -0.474E-04
  -3.076 -0.454E-04 -0.454E-04
  -3.066 -0.433E-04 -0.433E-04
  -3.056 -0.413E-04 -0.413E-04
  -3.046 -0.394E-04 -0.394E-04
  -3.036 -0.374E-04 -0.374E-04
  -3.026 -0.355E-04 -0.355E-04
  -3.016 -0.336E-04 -0.336E-04
  -3.006 -0.317E-04 -0.317E-04
  -2.996 -0.299E-04 -0.299E-04
  -2.986 -0.281E-04 -0.281E-04
  -2.976 -0.264E-04 -0.264E-04
  -2.966 -0.247E-04 -0.247E-04
  -2.956 -0.231E-04 -0.231E-04
  -2.946 -0.215E-04 -0.215E-04
  -2.936 -0.200E-04 -0.200E-04
  -2.926 -0.185E-04 -0.185E-04
  -2.916 -0.170E-04 -0.170E-04
  -2.906 -0.157E-04 -0.157E-04
  -2.896 -0.143E-04 -0.143E-04
  -2.886 -0.131E-04 -0.131E-04
  -2.876 -0.118E-04 -0.118E-04
  -2.866 -0.107E-04 -0.107E-04
  -2.856 -0.955E-05 -0.955E-05
  -2.846 -0.848E-05 -0.848E-05
  -2.836 -0.746E-05 -0.746E-05
  -2.826 -0.648E-05 -0.648E-05
  -2.816 -0.556E-05 -0.556E-05
  -2.806 -0.468E-05 -0.468E-05
  -2.796 -0.384E-05 -0.384E-05
  -2.786 -0.305E-05 -0.305E-05
  -2.776 -0.229E-05 -0.229E-05
  -2.766 -0.158E-05 -0.158E-05
  -2.756 -0.905E-06 -0.905E-06
  -2.746 -0.265E-06 -0.265E-06
  -2.736  0.341E-06  0.341E-06
  -2.726  0.915E-06  0.915E-06
  -2.716  0.146E-05  0.146E-05
  -2.706  0.198E-05  0.198E-05
  -2.696  0.247E-05  0.247E-05
  -2.686  0.293E-05  0.293E-05
  -2.676  0.338E-05  0.338E-05
  -2.666  0.381E-05  0.381E-05
  -2.656  0.422E-05  0.422E-05
  -2.646  0.461E-05  0.461E-05
  -2.636  0.499E-05  0.499E-05
  -2.626  0.537E-05  0.537E-05
  -2.616  0.573E-05  0.573E-05
  -2.606  0.609E-05  0.609E-05
  -2.596  0.644E-05  0.644E-05
  -2.586  0.679E-05  0.679E-05
  -2.576  0.715E-05  0.715E-05
  -2.566  0.750E-05  0.750E-05
  -2.556  0.786E-05  0.786E-05
  -2.546  0.823E-05  0.823E-05
  -2.536  0.860E-05  0.860E-05
  -2.526  0.899E-05  0.899E-05
  -2.516  0.938E-05  0.938E-05
  -2.506  0.980E-05  0.980E-05
  -2.496  0.102E-04  0.102E-04
  -2.486  0.107E-04  0.107E-04
  -2.476  0.111E-04  0.111E-04
  -2.466  0.116E-04  0.116E-04
  -2.456  0.121E-04  0.121E-04
  -2.446  0.127E-04  0.127E-04
  -2.436  0.132E-04  0.132E-04
  -2.426  0.138E-04  0.138E-04
  -2.416  0.144E-04  0.144E-04
  -2.406  0.151E-04  0.151E-04
  -2.396  0.158E-04  0.158E-04
  -2.386  0.165E-04  0.165E-04
  -2.376  0.172E-04  0.172E-04
  -2.366  0.180E-04  0.180E-04
  -2.356  0.188E-04  0.188E-04
  -2.346  0.197E-04  0.197E-04
  -2.336  0.206E-04  0.206E-04
  -2.326  0.215E-04  0.215E-04
  -2.316  0.225E-04  0.225E-04
  -2.306  0.235E-04  0.235E-04
  -2.296  0.245E-04  0.245E-04
  -2.286  0.256E-04  0.256E-04
  -2.276  0.267E-04  0.267E-04
  -2.266  0.279E-04  0.279E-04
  -2.256  0.291E-04  0.291E-04
  -2.246  0.304E-04  0.304E-04
  -2.236  0.317E-04  0.317E-04
  -2.226  0.330E-04  0.330E-04
  -2.216  0.343E-04  0.343E-04
  -2.206  0.357E-04  0.357E-04
  -2.196  0.372E-04  0.372E-04
  -2.186  0.387E-04  0.387E-04
  -2.176  0.402E-04  0.402E-04
  -2.166  0.417E-04  0.417E-04
  -2.156  0.433E-04  0.433E-04
  -2.146  0.449E-04  0.449E-04
  -2.136  0.466E-04  0.466E-04
  -2.126  0.483E-04  0.483E-04
  -2.116  0.500E-04  0.500E-04
  -2.106  0.517E-04  0.517E-04
  -2.096  0.535E-04  0.535E-04
  -2.086  0.553E-04  0.553E-04
  -2.076  0.571E-04  0.571E-04
  -2.066  0.590E-04  0.590E-04
  -2.056  0.608E-04  0.608E-04
  -2.046  0.627E-04  0.627E-04
  -2.036  0.646E-04  0.646E-04
  -2.026  0.665E-04  0.665E-04
  -2.016  0.685E-04  0.685E-04
  -2.006  0.704E-04  0.704E-04
  -1.996  0.724E-04  0.724E-04
  -1.986  0.743E-04  0.743E-04
  -1.976  0.763E-04  0.763E-04
  -1.966  0.782E-04  0.782E-04
  -1.956  0.802E-04  0.802E-04
  -1.946  0.821E-04  0.821E-04
  -1.936  0.841E-04  0.841E-04
  -1.926  0.860E-04  0.860E-04
  -1.916  0.879E-04  0.879E-04
  -1.906  0.899E-04  0.899E-04
  -1.896  0.918E-04  0.918E-04
  -1.886  0.936E-04  0.936E-04
  -1.876  0.955E-04  0.955E-04
  -1.866  0.973E-04  0.973E-04
  -1.856  0.991E-04  0.991E-04
  -1.846  0.101E-03  0.101E-03
  -1.836  0.103E-03  0.103E-03
  -1.826  0.104E-03  0.104E-03
  -1.816  0.106E-03  0.106E-03
  -1.806  0.108E-03  0.108E-03
  -1.796  0.109E-03  0.109E-03
  -1.786  0.111E-03  0.111E-03
  -1.776  0.112E-03  0.112E-03
  -1.766  0.114E-03  0.114E-03
  -1.756  0.115E-03  0.115E-03
  -1.746  0.117E-03  0.117E-03
  -1.736  0.118E-03  0.118E-03
  -1.726  0.119E-03  0.119E-03
  -1.716  0.120E-03  0.120E-03
  -1.706  0.121E-03  0.121E-03
  -1.696  0.123E-03  0.123E-03
  -1.686  0.124E-03  0.124E-03
  -1.676  0.125E-03  0.125E-03
  -1.666  0.125E-03  0.125E-03
  -1.656  0.126E-03  0.126E-03
  -1.646  0.127E-03  0.127E-03
  -1.636  0.128E-03  0.128E-03
  -1.626  0.128E-03  0.128E-03
  -1.616  0.129E-03  0.129E-03
  -1.606  0.129E-03  0.129E-03
  -1.596  0.130E-03  0.130E-03
  -1.586  0.130E-03  0.130E-03
  -1.576  0.130E-03  0.130E-03
  -1.566  0.130E-03  0.130E-03
  -1.556  0.130E-03  0.130E-03
  -1.546  0.131E-03  0.131E-03
  -1.536  0.130E-03  0.130E-03
  -1.526  0.130E-03  0.130E-03
  -1.516  0.130E-03  0.130E-03
  -1.506  0.130E-03  0.130E-03
  -1.496  0.130E-03  0.130E-03
  -1.486  0.129E-03  0.129E-03
  -1.476  0.129E-03  0.129E-03
  -1.466  0.128E-03  0.128E-03
  -1.456  0.128E-03  0.128E-03
  -1.446  0.127E-03  0.127E-03
  -1.436  0.126E-03  0.126E-03
  -1.426  0.125E-03  0.125E-03
  -1.416  0.124E-03  0.124E-03
  -1.406  0.123E-03  0.123E-03
  -1.396  0.122E-03  0.122E-03
  -1.386  0.121E-03  0.121E-03
  -1.376  0.120E-03  0.120E-03
  -1.366  0.119E-03  0.119E-03
  -1.356  0.118E-03  0.118E-03
  -1.346  0.117E-03  0.117E-03
  -1.336  0.115E-03  0.115E-03
  -1.326  0.114E-03  0.114E-03
  -1.316  0.112E-03  0.112E-03
  -1.306  0.111E-03  0.111E-03
  -1.296  0.109E-03  0.109E-03
  -1.286  0.108E-03  0.108E-03
  -1.276  0.106E-03  0.106E-03
  -1.266  0.105E-03  0.105E-03
  -1.256  0.103E-03  0.103E-03
  -1.246  0.101E-03  0.101E-03
  -1.236  0.995E-04  0.995E-04
  -1.226  0.977E-04  0.977E-04
  -1.216  0.960E-04  0.960E-04
  -1.206  0.942E-04  0.942E-04
  -1.196  0.924E-04  0.924E-04
  -1.186  0.905E-04  0.905E-04
  -1.176  0.887E-04  0.887E-04
  -1.166  0.868E-04  0.868E-04
  -1.156  0.849E-04  0.849E-04
  -1.146  0.831E-04  0.831E-04
  -1.136  0.812E-04  0.812E-04
  -1.126  0.793E-04  0.793E-04
  -1.116  0.774E-04  0.774E-04
  -1.106  0.755E-04  0.755E-04
  -1.096  0.736E-04  0.736E-04
  -1.086  0.718E-04  0.718E-04
  -1.076  0.699E-04  0.699E-04
  -1.066  0.680E-04  0.680E-04
  -1.056  0.662E-04  0.662E-04
  -1.046  0.643E-04  0.643E-04
  -1.036  0.625E-04  0.625E-04
  -1.026  0.607E-04  0.607E-04
  -1.016  0.589E-04  0.589E-04
  -1.006  0.571E-04  0.571E-04
  -0.996  0.553E-04  0.553E-04
  -0.986  0.536E-04  0.536E-04
  -0.976  0.519E-04  0.519E-04
  -0.966  0.502E-04  0.502E-04
  -0.956  0.485E-04  0.485E-04
  -0.946  0.469E-04  0.469E-04
  -0.936  0.453E-04  0.453E-04
  -0.926  0.437E-04  0.437E-04
  -0.916  0.421E-04  0.421E-04
  -0.906  0.406E-04  0.406E-04
  -0.896  0.391E-04  0.391E-04
  -0.886  0.377E-04  0.377E-04
  -0.876  0.362E-04  0.362E-04
  -0.866  0.348E-04  0.348E-04
  -0.856  0.335E-04  0.335E-04
  -0.846  0.321E-04  0.321E-04
  -0.836  0.308E-04  0.308E-04
  -0.826  0.296E-04  0.296E-04
  -0.816  0.284E-04  0.284E-04
  -0.806  0.272E-04  0.272E-04
  -0.796  0.260E-04  0.260E-04
  -0.786  0.249E-04  0.249E-04
  -0.776  0.238E-04  0.238E-04
  -0.766  0.228E-04  0.228E-04
  -0.756  0.218E-04  0.218E-04
  -0.746  0.208E-04  0.208E-04
  -0.736  0.199E-04  0.199E-04
  -0.726  0.190E-04  0.190E-04
  -0.716  0.181E-04  0.181E-04
  -0.706  0.172E-04  0.172E-04
  -0.696  0.164E-04  0.164E-04
  -0.686  0.157E-04  0.157E-04
  -0.676  0.150E-04  0.150E-04
  -0.666  0.143E-04  0.143E-04
  -0.656  0.136E-04  0.136E-04
  -0.646  0.130E-04  0.130E-04
  -0.636  0.124E-04  0.124E-04
  -0.626  0.118E-04  0.118E-04
  -0.616  0.113E-04  0.113E-04
  -0.606  0.108E-04  0.108E-04
  -0.596  0.103E-04  0.103E-04
  -0.586  0.984E-05  0.984E-05
  -0.576  0.942E-05  0.942E-05
  -0.566  0.904E-05  0.904E-05
  -0.556  0.868E-05  0.868E-05
  -0.546  0.835E-05  0.835E-05
  -0.536  0.804E-05  0.804E-05
  -0.526  0.776E-05  0.776E-05
  -0.516  0.751E-05  0.751E-05
  -0.506  0.728E-05  0.728E-05
  -0.496  0.708E-05  0.708E-05
  -0.486  0.690E-05  0.690E-05
  -0.476  0.674E-05  0.674E-05
  -0.466  0.660E-05  0.660E-05
  -0.456  0.649E-05  0.649E-05
  -0.446  0.639E-05  0.639E-05
  -0.436  0.632E-05  0.632E-05
  -0.426  0.627E-05  0.627E-05
  -0.416  0.623E-05  0.623E-05
  -0.406  0.622E-05  0.622E-05
  -0.396  0.622E-05  0.622E-05
  -0.386  0.624E-05  0.624E-05
  -0.376  0.627E-05  0.627E-05
  -0.366  0.632E-05  0.632E-05
  -0.356  0.639E-05  0.639E-05
  -0.346  0.647E-05  0.647E-05
  -0.336  0.657E-05  0.657E-05
  -0.326  0.668E-05  0.668E-05
  -0.316  0.680E-05  0.680E-05
  -0.306  0.694E-05  0.694E-05
  -0.296  0.709E-05  0.709E-05
  -0.286  0.725E-05  0.725E-05
  -0.276  0.743E-05  0.743E-05
  -0.266  0.762E-05  0.762E-05
  -0.256  0.782E-05  0.782E-05
  -0.246  0.803E-05  0.803E-05
  -0.236  0.825E-05  0.825E-05
  -0.226  0.848E-05  0.848E-05
  -0.216  0.873E-05  0.873E-05
  -0.206  0.899E-05  0.899E-05
  -0.196  0.925E-05  0.925E-05
  -0.186  0.953E-05  0.953E-05
  -0.176  0.983E-05  0.983E-05
  -0.166  0.101E-04  0.101E-04
  -0.156  0.104E-04  0.104E-04
  -0.146  0.108E-04  0.108E-04
  -0.136  0.111E-04  0.111E-04
  -0.126  0.115E-04  0.115E-04
  -0.116  0.118E-04  0.118E-04
  -0.106  0.122E-04  0.122E-04
  -0.096  0.126E-04  0.126E-04
  -0.086  0.130E-04  0.130E-04
  -0.076  0.135E-04  0.135E-04
  -0.066  0.139E-04  0.139E-04
  -0.056  0.144E-04  0.144E-04
  -0.046  0.149E-04  0.149E-04
  -0.036  0.154E-04  0.154E-04
  -0.026  0.159E-04  0.159E-04
  -0.016  0.164E-04  0.164E-04
  -0.006  0.170E-04  0.170E-04
   0.004  0.176E-04  0.176E-04
   0.014  0.182E-04  0.182E-04
   0.024  0.189E-04  0.189E-04
   0.034  0.195E-04  0.195E-04
   0.044  0.202E-04  0.202E-04
   0.054  0.210E-04  0.210E-04
   0.064  0.217E-04  0.217E-04
   0.074  0.225E-04  0.225E-04
   0.084  0.234E-04  0.234E-04
   0.094  0.243E-04  0.243E-04
   0.104  0.252E-04  0.252E-04
   0.114  0.261E-04  0.261E-04
   0.124  0.271E-04  0.271E-04
   0.134  0.281E-04  0.281E-04
   0.144  0.292E-04  0.292E-04
   0.154  0.303E-04  0.303E-04
   0.164  0.315E-04  0.315E-04
   0.174  0.327E-04  0.327E-04
   0.184  0.340E-04  0.340E-04
   0.194  0.353E-04  0.353E-04
   0.204  0.366E-04  0.366E-04
   0.214  0.380E-04  0.380E-04
   0.224  0.395E-04  0.395E-04
   0.234  0.410E-04  0.410E-04
   0.244  0.426E-04  0.426E-04
   0.254  0.442E-04  0.442E-04
   0.264  0.459E-04  0.459E-04
   0.274  0.476E-04  0.476E-04
   0.284  0.494E-04  0.494E-04
   0.294  0.512E-04  0.512E-04
   0.304  0.531E-04  0.531E-04
   0.314  0.550E-04  0.550E-04
   0.324  0.570E-04  0.570E-04
   0.334  0.591E-04  0.591E-04
   0.344  0.611E-04  0.611E-04
   0.354  0.633E-04  0.633E-04
   0.364  0.655E-04  0.655E-04
   0.374  0.677E-04  0.677E-04
   0.384  0.699E-04  0.699E-04
   0.394  0.722E-04  0.722E-04
   0.404  0.746E-04  0.746E-04
   0.414  0.769E-04  0.769E-04
   0.424  0.793E-04  0.793E-04
   0.434  0.817E-04  0.817E-04
   0.444  0.841E-04  0.841E-04
   0.454  0.866E-04  0.866E-04
   0.464  0.890E-04  0.890E-04
   0.474  0.914E-04  0.914E-04
   0.484  0.939E-04  0.939E-04
   0.494  0.963E-04  0.963E-04
   0.504  0.987E-04  0.987E-04
   0.514  0.101E-03  0.101E-03
   0.524  0.103E-03  0.103E-03
   0.534  0.106E-03  0.106E-03
   0.544  0.108E-03  0.108E-03
   0.554  0.110E-03  0.110E-03
   0.564  0.112E-03  0.112E-03
   0.574  0.114E-03  0.114E-03
   0.584  0.116E-03  0.116E-03
   0.594  0.118E-03  0.118E-03
   0.604  0.119E-03  0.119E-03
   0.614  0.121E-03  0.121E-03
   0.624  0.122E-03  0.122E-03
   0.634  0.123E-03  0.123E-03
   0.644  0.124E-03  0.124E-03
   0.654  0.125E-03  0.125E-03
   0.664  0.126E-03  0.126E-03
   0.674  0.126E-03  0.126E-03
   0.684  0.126E-03  0.126E-03
   0.694  0.126E-03  0.126E-03
   0.704  0.125E-03  0.125E-03
   0.714  0.125E-03  0.125E-03
   0.724  0.124E-03  0.124E-03
   0.734  0.122E-03  0.122E-03
   0.744  0.120E-03  0.120E-03
   0.754  0.118E-03  0.118E-03
   0.764  0.116E-03  0.116E-03
   0.774  0.113E-03  0.113E-03
   0.784  0.110E-03  0.110E-03
   0.794  0.106E-03  0.106E-03
   0.804  0.102E-03  0.102E-03
   0.814  0.968E-04  0.968E-04
   0.824  0.915E-04  0.915E-04
   0.834  0.857E-04  0.857E-04
   0.844  0.793E-04  0.793E-04
   0.854  0.724E-04  0.724E-04
   0.864  0.649E-04  0.649E-04
   0.874  0.568E-04  0.568E-04
   0.884  0.481E-04  0.481E-04
   0.894  0.388E-04  0.388E-04
   0.904  0.288E-04  0.288E-04
   0.914  0.181E-04  0.181E-04
   0.924  0.674E-05  0.674E-05
   0.934 -0.532E-05 -0.532E-05
   0.944 -0.181E-04 -0.181E-04
   0.954 -0.316E-04 -0.316E-04
   0.964 -0.458E-04 -0.458E-04
   0.974 -0.607E-04 -0.607E-04
   0.984 -0.764E-04 -0.764E-04
   0.994 -0.928E-04 -0.928E-04
   1.004 -0.110E-03 -0.110E-03
   1.014 -0.128E-03 -0.128E-03
   1.024 -0.147E-03 -0.147E-03
   1.034 -0.166E-03 -0.166E-03
   1.044 -0.186E-03 -0.186E-03
   1.054 -0.207E-03 -0.207E-03
   1.064 -0.229E-03 -0.229E-03
   1.074 -0.251E-03 -0.251E-03
   1.084 -0.274E-03 -0.274E-03
   1.094 -0.297E-03 -0.297E-03
   1.104 -0.322E-03 -0.322E-03
   1.114 -0.347E-03 -0.347E-03
   1.124 -0.372E-03 -0.372E-03
   1.134 -0.398E-03 -0.398E-03
   1.144 -0.424E-03 -0.424E-03
   1.154 -0.451E-03 -0.451E-03
   1.164 -0.479E-03 -0.479E-03
   1.174 -0.506E-03 -0.506E-03
   1.184 -0.534E-03 -0.534E-03
   1.194 -0.562E-03 -0.562E-03
   1.204 -0.591E-03 -0.591E-03
   1.214 -0.619E-03 -0.619E-03
   1.224 -0.647E-03 -0.647E-03
   1.234 -0.676E-03 -0.676E-03
   1.244 -0.704E-03 -0.704E-03
   1.254 -0.732E-03 -0.732E-03
   1.264 -0.759E-03 -0.759E-03
   1.274 -0.786E-03 -0.786E-03
   1.284 -0.812E-03 -0.812E-03
   1.294 -0.838E-03 -0.838E-03
   1.304 -0.863E-03 -0.863E-03
   1.314 -0.886E-03 -0.886E-03
   1.324 -0.909E-03 -0.909E-03
   1.334 -0.930E-03 -0.930E-03
   1.344 -0.950E-03 -0.950E-03
   1.354 -0.969E-03 -0.969E-03
   1.364 -0.985E-03 -0.985E-03
   1.374 -0.100E-02 -0.100E-02
   1.384 -0.101E-02 -0.101E-02
   1.394 -0.102E-02 -0.102E-02
   1.404 -0.103E-02 -0.103E-02
   1.414 -0.104E-02 -0.104E-02
   1.424 -0.104E-02 -0.104E-02
   1.434 -0.104E-02 -0.104E-02
   1.444 -0.103E-02 -0.103E-02
   1.454 -0.103E-02 -0.103E-02
   1.464 -0.102E-02 -0.102E-02
   1.474 -0.100E-02 -0.100E-02
   1.484 -0.982E-03 -0.982E-03
   1.494 -0.959E-03 -0.959E-03
   1.504 -0.931E-03 -0.931E-03
   1.514 -0.898E-03 -0.898E-03
   1.524 -0.861E-03 -0.861E-03
   1.534 -0.818E-03 -0.818E-03
   1.544 -0.769E-03 -0.769E-03
   1.554 -0.715E-03 -0.715E-03
   1.564 -0.654E-03 -0.654E-03
   1.574 -0.588E-03 -0.588E-03
   1.584 -0.515E-03 -0.515E-03
   1.594 -0.435E-03 -0.435E-03
   1.604 -0.348E-03 -0.348E-03
   1.614 -0.254E-03 -0.254E-03
   1.624 -0.153E-03 -0.153E-03
   1.634 -0.440E-04 -0.440E-04
   1.644  0.728E-04  0.728E-04
   1.654  0.198E-03  0.198E-03
   1.664  0.331E-03  0.331E-03
   1.674  0.473E-03  0.473E-03
   1.684  0.624E-03  0.624E-03
   1.694  0.783E-03  0.783E-03
   1.704  0.952E-03  0.952E-03
   1.714  0.113E-02  0.113E-02
   1.724  0.132E-02  0.132E-02
   1.734  0.151E-02  0.151E-02
   1.744  0.172E-02  0.172E-02
   1.754  0.194E-02  0.194E-02
   1.764  0.216E-02  0.216E-02
   1.774  0.240E-02  0.240E-02
   1.784  0.265E-02  0.265E-02
   1.794  0.290E-02  0.290E-02
   1.804  0.317E-02  0.317E-02
   1.814  0.345E-02  0.345E-02
   1.824  0.374E-02  0.374E-02
   1.834  0.404E-02  0.404E-02
   1.844  0.435E-02  0.435E-02
   1.854  0.467E-02  0.467E-02
   1.864  0.500E-02  0.500E-02
   1.874  0.534E-02  0.534E-02
   1.884  0.569E-02  0.569E-02
   1.894  0.606E-02  0.606E-02
   1.904  0.643E-02  0.643E-02
   1.914  0.681E-02  0.681E-02
   1.924  0.721E-02  0.721E-02
   1.934  0.761E-02  0.761E-02
   1.944  0.802E-02  0.802E-02
   1.954  0.844E-02  0.844E-02
   1.964  0.888E-02  0.888E-02
   1.974  0.932E-02  0.932E-02
   1.984  0.977E-02  0.977E-02
   1.994  0.102E-01  0.102E-01
   2.004  0.107E-01  0.107E-01
   2.014  0.112E-01  0.112E-01
   2.024  0.117E-01  0.117E-01
   2.034  0.121E-01  0.121E-01
   2.044  0.126E-01  0.126E-01
   2.054  0.132E-01  0.132E-01
   2.064  0.137E-01  0.137E-01
   2.074  0.142E-01  0.142E-01
   2.084  0.147E-01  0.147E-01
   2.094  0.152E-01  0.152E-01
   2.104  0.158E-01  0.158E-01
   2.114  0.163E-01  0.163E-01
   2.124  0.169E-01  0.169E-01
   2.134  0.174E-01  0.174E-01
   2.144  0.180E-01  0.180E-01
   2.154  0.185E-01  0.185E-01
   2.164  0.191E-01  0.191E-01
   2.174  0.197E-01  0.197E-01
   2.184  0.202E-01  0.202E-01
   2.194  0.208E-01  0.208E-01
   2.204  0.214E-01  0.214E-01
   2.214  0.219E-01  0.219E-01
   2.224  0.225E-01  0.225E-01
   2.234  0.231E-01  0.231E-01
   2.244  0.236E-01  0.236E-01
   2.254  0.242E-01  0.242E-01
   2.264  0.248E-01  0.248E-01
   2.274  0.253E-01  0.253E-01
   2.284  0.259E-01  0.259E-01
   2.294  0.264E-01  0.264E-01
   2.304  0.270E-01  0.270E-01
   2.314  0.275E-01  0.275E-01
   2.324  0.281E-01  0.281E-01
   2.334  0.286E-01  0.286E-01
   2.344  0.292E-01  0.292E-01
   2.354  0.297E-01  0.297E-01
   2.364  0.302E-01  0.302E-01
   2.374  0.308E-01  0.308E-01
   2.384  0.313E-01  0.313E-01
   2.394  0.318E-01  0.318E-01
   2.404  0.323E-01  0.323E-01
   2.414  0.328E-01  0.328E-01
   2.424  0.333E-01  0.333E-01
   2.434  0.338E-01  0.338E-01
   2.444  0.343E-01  0.343E-01
   2.454  0.347E-01  0.347E-01
   2.464  0.352E-01  0.352E-01
   2.474  0.356E-01  0.356E-01
   2.484  0.361E-01  0.361E-01
   2.494  0.365E-01  0.365E-01
   2.504  0.369E-01  0.369E-01
   2.514  0.374E-01  0.374E-01
   2.524  0.378E-01  0.378E-01
   2.534  0.382E-01  0.382E-01
   2.544  0.386E-01  0.386E-01
   2.554  0.389E-01  0.389E-01
   2.564  0.393E-01  0.393E-01
   2.574  0.397E-01  0.397E-01
   2.584  0.400E-01  0.400E-01
   2.594  0.404E-01  0.404E-01
   2.604  0.407E-01  0.407E-01
   2.614  0.410E-01  0.410E-01
   2.624  0.413E-01  0.413E-01
   2.634  0.416E-01  0.416E-01
   2.644  0.419E-01  0.419E-01
   2.654  0.422E-01  0.422E-01
   2.664  0.425E-01  0.425E-01
   2.674  0.427E-01  0.427E-01
   2.684  0.430E-01  0.430E-01
   2.694  0.432E-01  0.432E-01
   2.704  0.435E-01  0.435E-01
   2.714  0.437E-01  0.437E-01
   2.724  0.439E-01  0.439E-01
   2.734  0.441E-01  0.441E-01
   2.744  0.443E-01  0.443E-01
   2.754  0.445E-01  0.445E-01
   2.764  0.446E-01  0.446E-01
   2.774  0.448E-01  0.448E-01
   2.784  0.449E-01  0.449E-01
   2.794  0.450E-01  0.450E-01
   2.804  0.452E-01  0.452E-01
   2.814  0.453E-01  0.453E-01
   2.824  0.454E-01  0.454E-01
   2.834  0.455E-01  0.455E-01
   2.844  0.455E-01  0.455E-01
   2.854  0.456E-01  0.456E-01
   2.864  0.456E-01  0.456E-01
   2.874  0.457E-01  0.457E-01
   2.884  0.457E-01  0.457E-01
   2.894  0.457E-01  0.457E-01
   2.904  0.457E-01  0.457E-01
   2.914  0.457E-01  0.457E-01
   2.924  0.457E-01  0.457E-01
   2.934  0.456E-01  0.456E-01
   2.944  0.456E-01  0.456E-01
   2.954  0.455E-01  0.455E-01
   2.964  0.455E-01  0.455E-01
   2.974  0.454E-01  0.454E-01
   2.984  0.453E-01  0.453E-01
   2.994  0.451E-01  0.451E-01
   3.004  0.450E-01  0.450E-01
   3.014  0.449E-01  0.449E-01
   3.024  0.447E-01  0.447E-01
   3.034  0.445E-01  0.445E-01
   3.044  0.444E-01  0.444E-01
   3.054  0.442E-01  0.442E-01
   3.064  0.439E-01  0.439E-01
   3.074  0.437E-01  0.437E-01
   3.084  0.435E-01  0.435E-01
   3.094  0.432E-01  0.432E-01
   3.104  0.429E-01  0.429E-01
   3.114  0.427E-01  0.427E-01
   3.124  0.424E-01  0.424E-01
   3.134  0.420E-01  0.420E-01
   3.144  0.417E-01  0.417E-01
   3.154  0.414E-01  0.414E-01
   3.164  0.410E-01  0.410E-01
   3.174  0.406E-01  0.406E-01
   3.184  0.403E-01  0.403E-01
   3.194  0.399E-01  0.399E-01
   3.204  0.394E-01  0.394E-01
   3.214  0.390E-01  0.390E-01
   3.224  0.386E-01  0.386E-01
   3.234  0.381E-01  0.381E-01
   3.244  0.377E-01  0.377E-01
   3.254  0.372E-01  0.372E-01
   3.264  0.367E-01  0.367E-01
   3.274  0.362E-01  0.362E-01
   3.284  0.357E-01  0.357E-01
   3.294  0.352E-01  0.352E-01
   3.304  0.346E-01  0.346E-01
   3.314  0.341E-01  0.341E-01
   3.324  0.335E-01  0.335E-01
   3.334  0.330E-01  0.330E-01
   3.344  0.324E-01  0.324E-01
   3.354  0.318E-01  0.318E-01
   3.364  0.312E-01  0.312E-01
   3.374  0.306E-01  0.306E-01
   3.384  0.300E-01  0.300E-01
   3.394  0.294E-01  0.294E-01
   3.404  0.288E-01  0.288E-01
   3.414  0.282E-01  0.282E-01
   3.424  0.276E-01  0.276E-01
   3.434  0.269E-01  0.269E-01
   3.444  0.263E-01  0.263E-01
   3.454  0.257E-01  0.257E-01
   3.464  0.250E-01  0.250E-01
   3.474  0.244E-01  0.244E-01
   3.484  0.237E-01  0.237E-01
   3.494  0.231E-01  0.231E-01
   3.504  0.224E-01  0.224E-01
   3.514  0.218E-01  0.218E-01
   3.524  0.212E-01  0.212E-01
   3.534  0.205E-01  0.205E-01
   3.544  0.199E-01  0.199E-01
   3.554  0.192E-01  0.192E-01
   3.564  0.186E-01  0.186E-01
   3.574  0.180E-01  0.180E-01
   3.584  0.173E-01  0.173E-01
   3.594  0.167E-01  0.167E-01
   3.604  0.161E-01  0.161E-01
   3.614  0.155E-01  0.155E-01
   3.624  0.149E-01  0.149E-01
   3.634  0.143E-01  0.143E-01
   3.644  0.137E-01  0.137E-01
   3.654  0.131E-01  0.131E-01
   3.664  0.126E-01  0.126E-01
   3.674  0.120E-01  0.120E-01
   3.684  0.114E-01  0.114E-01
   3.694  0.109E-01  0.109E-01
   3.704  0.104E-01  0.104E-01
   3.714  0.983E-02  0.983E-02
   3.724  0.932E-02  0.932E-02
   3.734  0.881E-02  0.881E-02
   3.744  0.832E-02  0.832E-02
   3.754  0.784E-02  0.784E-02
   3.764  0.737E-02  0.737E-02
   3.774  0.691E-02  0.691E-02
   3.784  0.646E-02  0.646E-02
   3.794  0.603E-02  0.603E-02
   3.804  0.560E-02  0.560E-02
   3.814  0.519E-02  0.519E-02
   3.824  0.479E-02  0.479E-02
   3.834  0.441E-02  0.441E-02
   3.844  0.404E-02  0.404E-02
   3.854  0.367E-02  0.367E-02
   3.864  0.333E-02  0.333E-02
   3.874  0.299E-02  0.299E-02
   3.884  0.267E-02  0.267E-02
   3.894  0.236E-02  0.236E-02
   3.904  0.206E-02  0.206E-02
   3.914  0.177E-02  0.177E-02
   3.924  0.150E-02  0.150E-02
   3.934  0.124E-02  0.124E-02
   3.944  0.988E-03  0.988E-03
   3.954  0.751E-03  0.751E-03
   3.964  0.525E-03  0.525E-03
   3.974  0.310E-03  0.310E-03
   3.984  0.107E-03  0.107E-03
   3.994 -0.858E-04 -0.858E-04
   4.004 -0.267E-03 -0.267E-03
   4.014 -0.438E-03 -0.438E-03
   4.024 -0.599E-03 -0.599E-03
   4.034 -0.749E-03 -0.749E-03
   4.044 -0.889E-03 -0.889E-03
   4.054 -0.102E-02 -0.102E-02
   4.064 -0.114E-02 -0.114E-02
   4.074 -0.125E-02 -0.125E-02
   4.084 -0.136E-02 -0.136E-02
   4.094 -0.145E-02 -0.145E-02
   4.104 -0.154E-02 -0.154E-02
   4.114 -0.162E-02 -0.162E-02
   4.124 -0.169E-02 -0.169E-02
   4.134 -0.175E-02 -0.175E-02
   4.144 -0.181E-02 -0.181E-02
   4.154 -0.186E-02 -0.186E-02
   4.164 -0.190E-02 -0.190E-02
   4.174 -0.194E-02 -0.194E-02
   4.184 -0.197E-02 -0.197E-02
   4.194 -0.199E-02 -0.199E-02
   4.204 -0.201E-02 -0.201E-02
   4.214 -0.203E-02 -0.203E-02
   4.224 -0.204E-02 -0.204E-02
   4.234 -0.204E-02 -0.204E-02
   4.244 -0.204E-02 -0.204E-02
   4.254 -0.204E-02 -0.204E-02
   4.264 -0.203E-02 -0.203E-02
   4.274 -0.202E-02 -0.202E-02
   4.284 -0.201E-02 -0.201E-02
   4.294 -0.199E-02 -0.199E-02
   4.304 -0.197E-02 -0.197E-02
   4.314 -0.195E-02 -0.195E-02
   4.324 -0.193E-02 -0.193E-02
   4.334 -0.190E-02 -0.190E-02
   4.344 -0.187E-02 -0.187E-02
   4.354 -0.184E-02 -0.184E-02
   4.364 -0.181E-02 -0.181E-02
   4.374 -0.177E-02 -0.177E-02
   4.384 -0.174E-02 -0.174E-02
   4.394 -0.170E-02 -0.170E-02
   4.404 -0.166E-02 -0.166E-02
   4.414 -0.162E-02 -0.162E-02
   4.424 -0.159E-02 -0.159E-02
   4.434 -0.155E-02 -0.155E-02
   4.444 -0.151E-02 -0.151E-02
   4.454 -0.146E-02 -0.146E-02
   4.464 -0.142E-02 -0.142E-02
   4.474 -0.138E-02 -0.138E-02
   4.484 -0.134E-02 -0.134E-02
   4.494 -0.130E-02 -0.130E-02
   4.504 -0.126E-02 -0.126E-02
   4.514 -0.122E-02 -0.122E-02
   4.524 -0.118E-02 -0.118E-02
   4.534 -0.114E-02 -0.114E-02
   4.544 -0.110E-02 -0.110E-02
   4.554 -0.106E-02 -0.106E-02
   4.564 -0.103E-02 -0.103E-02
   4.574 -0.989E-03 -0.989E-03
   4.584 -0.953E-03 -0.953E-03
   4.594 -0.917E-03 -0.917E-03
   4.604 -0.881E-03 -0.881E-03
   4.614 -0.847E-03 -0.847E-03
   4.624 -0.813E-03 -0.813E-03
   4.634 -0.780E-03 -0.780E-03
   4.644 -0.748E-03 -0.748E-03
   4.654 -0.717E-03 -0.717E-03
   4.664 -0.686E-03 -0.686E-03
   4.674 -0.657E-03 -0.657E-03
   4.684 -0.628E-03 -0.628E-03
   4.694 -0.600E-03 -0.600E-03
   4.704 -0.573E-03 -0.573E-03
   4.714 -0.547E-03 -0.547E-03
   4.724 -0.522E-03 -0.522E-03
   4.734 -0.497E-03 -0.497E-03
   4.744 -0.474E-03 -0.474E-03
   4.754 -0.451E-03 -0.451E-03
   4.764 -0.429E-03 -0.429E-03
   4.774 -0.408E-03 -0.408E-03
   4.784 -0.388E-03 -0.388E-03
   4.794 -0.368E-03 -0.368E-03
   4.804 -0.350E-03 -0.350E-03
   4.814 -0.332E-03 -0.332E-03
   4.824 -0.314E-03 -0.314E-03
   4.834 -0.298E-03 -0.298E-03
   4.844 -0.282E-03 -0.282E-03
   4.854 -0.267E-03 -0.267E-03
   4.864 -0.252E-03 -0.252E-03
   4.874 -0.239E-03 -0.239E-03
   4.884 -0.225E-03 -0.225E-03
   4.894 -0.213E-03 -0.213E-03
   4.904 -0.201E-03 -0.201E-03
   4.914 -0.189E-03 -0.189E-03
   4.924 -0.179E-03 -0.179E-03
   4.934 -0.168E-03 -0.168E-03
   4.944 -0.158E-03 -0.158E-03
   4.954 -0.149E-03 -0.149E-03
   4.964 -0.140E-03 -0.140E-03
   4.974 -0.132E-03 -0.132E-03
   4.984 -0.124E-03 -0.124E-03
   4.994 -0.116E-03 -0.116E-03
   5.004 -0.109E-03 -0.109E-03
   5.014 -0.102E-03 -0.102E-03
   5.024 -0.960E-04 -0.960E-04
   5.034 -0.899E-04 -0.899E-04
   5.044 -0.842E-04 -0.842E-04
   5.054 -0.788E-04 -0.788E-04
   5.064 -0.737E-04 -0.737E-04
   5.074 -0.689E-04 -0.689E-04
   5.084 -0.644E-04 -0.644E-04
   5.094 -0.602E-04 -0.602E-04
   5.104 -0.562E-04 -0.562E-04
   5.114 -0.524E-04 -0.524E-04
   5.124 -0.489E-04 -0.489E-04
   5.134 -0.456E-04 -0.456E-04
   5.144 -0.424E-04 -0.424E-04
   5.154 -0.395E-04 -0.395E-04
   5.164 -0.368E-04 -0.368E-04
   5.174 -0.342E-04 -0.342E-04
   5.184 -0.318E-04 -0.318E-04
   5.194 -0.295E-04 -0.295E-04
   5.204 -0.274E-04 -0.274E-04
   5.214 -0.255E-04 -0.255E-04
   5.224 -0.236E-04 -0.236E-04
   5.234 -0.219E-04 -0.219E-04
   5.244 -0.203E-04 -0.203E-04
   5.254 -0.188E-04 -0.188E-04
   5.264 -0.174E-04 -0.174E-04
   5.274 -0.161E-04 -0.161E-04
   5.284 -0.149E-04 -0.149E-04
   5.294 -0.138E-04 -0.138E-04
