# E (eV)   ldos(E)   pdos(E)   
 -27.116 -0.391E-03 -0.391E-03
 -27.106 -0.422E-03 -0.422E-03
 -27.096 -0.455E-03 -0.455E-03
 -27.086 -0.491E-03 -0.491E-03
 -27.076 -0.529E-03 -0.529E-03
 -27.066 -0.570E-03 -0.570E-03
 -27.056 -0.613E-03 -0.613E-03
 -27.046 -0.660E-03 -0.660E-03
 -27.036 -0.710E-03 -0.710E-03
 -27.026 -0.763E-03 -0.763E-03
 -27.016 -0.820E-03 -0.820E-03
 -27.006 -0.881E-03 -0.881E-03
 -26.996 -0.945E-03 -0.945E-03
 -26.986 -0.101E-02 -0.101E-02
 -26.976 -0.109E-02 -0.109E-02
 -26.966 -0.116E-02 -0.116E-02
 -26.956 -0.125E-02 -0.125E-02
 -26.946 -0.134E-02 -0.134E-02
 -26.936 -0.143E-02 -0.143E-02
 -26.926 -0.153E-02 -0.153E-02
 -26.916 -0.163E-02 -0.163E-02
 -26.906 -0.174E-02 -0.174E-02
 -26.896 -0.186E-02 -0.186E-02
 -26.886 -0.199E-02 -0.199E-02
 -26.876 -0.212E-02 -0.212E-02
 -26.866 -0.226E-02 -0.226E-02
 -26.856 -0.241E-02 -0.241E-02
 -26.846 -0.256E-02 -0.256E-02
 -26.836 -0.272E-02 -0.272E-02
 -26.826 -0.290E-02 -0.290E-02
 -26.816 -0.308E-02 -0.308E-02
 -26.806 -0.327E-02 -0.327E-02
 -26.796 -0.347E-02 -0.347E-02
 -26.786 -0.368E-02 -0.368E-02
 -26.776 -0.391E-02 -0.391E-02
 -26.766 -0.414E-02 -0.414E-02
 -26.756 -0.438E-02 -0.438E-02
 -26.746 -0.464E-02 -0.464E-02
 -26.736 -0.491E-02 -0.491E-02
 -26.726 -0.519E-02 -0.519E-02
 -26.716 -0.549E-02 -0.549E-02
 -26.706 -0.579E-02 -0.579E-02
 -26.696 -0.611E-02 -0.611E-02
 -26.686 -0.645E-02 -0.645E-02
 -26.676 -0.680E-02 -0.680E-02
 -26.666 -0.716E-02 -0.716E-02
 -26.656 -0.754E-02 -0.754E-02
 -26.646 -0.793E-02 -0.793E-02
 -26.636 -0.834E-02 -0.834E-02
 -26.626 -0.876E-02 -0.876E-02
 -26.616 -0.920E-02 -0.920E-02
 -26.606 -0.966E-02 -0.966E-02
 -26.596 -0.101E-01 -0.101E-01
 -26.586 -0.106E-01 -0.106E-01
 -26.576 -0.111E-01 -0.111E-01
 -26.566 -0.116E-01 -0.116E-01
 -26.556 -0.122E-01 -0.122E-01
 -26.546 -0.127E-01 -0.127E-01
 -26.536 -0.133E-01 -0.133E-01
 -26.526 -0.139E-01 -0.139E-01
 -26.516 -0.145E-01 -0.145E-01
 -26.506 -0.151E-01 -0.151E-01
 -26.496 -0.157E-01 -0.157E-01
 -26.486 -0.163E-01 -0.163E-01
 -26.476 -0.170E-01 -0.170E-01
 -26.466 -0.177E-01 -0.177E-01
 -26.456 -0.183E-01 -0.183E-01
 -26.446 -0.190E-01 -0.190E-01
 -26.436 -0.197E-01 -0.197E-01
 -26.426 -0.204E-01 -0.204E-01
 -26.416 -0.212E-01 -0.212E-01
 -26.406 -0.219E-01 -0.219E-01
 -26.396 -0.226E-01 -0.226E-01
 -26.386 -0.234E-01 -0.234E-01
 -26.376 -0.241E-01 -0.241E-01
 -26.366 -0.248E-01 -0.248E-01
 -26.356 -0.256E-01 -0.256E-01
 -26.346 -0.263E-01 -0.263E-01
 -26.336 -0.270E-01 -0.270E-01
 -26.326 -0.278E-01 -0.278E-01
 -26.316 -0.285E-01 -0.285E-01
 -26.306 -0.292E-01 -0.292E-01
 -26.296 -0.299E-01 -0.299E-01
 -26.286 -0.305E-01 -0.305E-01
 -26.276 -0.312E-01 -0.312E-01
 -26.266 -0.318E-01 -0.318E-01
 -26.256 -0.324E-01 -0.324E-01
 -26.246 -0.330E-01 -0.330E-01
 -26.236 -0.335E-01 -0.335E-01
 -26.226 -0.340E-01 -0.340E-01
 -26.216 -0.344E-01 -0.344E-01
 -26.206 -0.348E-01 -0.348E-01
 -26.196 -0.352E-01 -0.352E-01
 -26.186 -0.355E-01 -0.355E-01
 -26.176 -0.358E-01 -0.358E-01
 -26.166 -0.359E-01 -0.359E-01
 -26.156 -0.361E-01 -0.361E-01
 -26.146 -0.361E-01 -0.361E-01
 -26.136 -0.361E-01 -0.361E-01
 -26.126 -0.359E-01 -0.359E-01
 -26.116 -0.357E-01 -0.357E-01
 -26.106 -0.354E-01 -0.354E-01
 -26.096 -0.350E-01 -0.350E-01
 -26.086 -0.345E-01 -0.345E-01
 -26.076 -0.339E-01 -0.339E-01
 -26.066 -0.332E-01 -0.332E-01
 -26.056 -0.323E-01 -0.323E-01
 -26.046 -0.314E-01 -0.314E-01
 -26.036 -0.303E-01 -0.303E-01
 -26.026 -0.290E-01 -0.290E-01
 -26.016 -0.276E-01 -0.276E-01
 -26.006 -0.261E-01 -0.261E-01
 -25.996 -0.244E-01 -0.244E-01
 -25.986 -0.225E-01 -0.225E-01
 -25.976 -0.205E-01 -0.205E-01
 -25.966 -0.183E-01 -0.183E-01
 -25.956 -0.159E-01 -0.159E-01
 -25.946 -0.133E-01 -0.133E-01
 -25.936 -0.105E-01 -0.105E-01
 -25.926 -0.758E-02 -0.758E-02
 -25.916 -0.442E-02 -0.442E-02
 -25.906 -0.105E-02 -0.105E-02
 -25.896  0.252E-02  0.252E-02
 -25.886  0.631E-02  0.631E-02
 -25.876  0.103E-01  0.103E-01
 -25.866  0.146E-01  0.146E-01
 -25.856  0.190E-01  0.190E-01
 -25.846  0.237E-01  0.237E-01
 -25.836  0.286E-01  0.286E-01
 -25.826  0.338E-01  0.338E-01
 -25.816  0.392E-01  0.392E-01
 -25.806  0.448E-01  0.448E-01
 -25.796  0.507E-01  0.507E-01
 -25.786  0.569E-01  0.569E-01
 -25.776  0.632E-01  0.632E-01
 -25.766  0.699E-01  0.699E-01
 -25.756  0.767E-01  0.767E-01
 -25.746  0.838E-01  0.838E-01
 -25.736  0.912E-01  0.912E-01
 -25.726  0.988E-01  0.988E-01
 -25.716  0.107E+00  0.107E+00
 -25.706  0.115E+00  0.115E+00
 -25.696  0.123E+00  0.123E+00
 -25.686  0.132E+00  0.132E+00
 -25.676  0.140E+00  0.140E+00
 -25.666  0.149E+00  0.149E+00
 -25.656  0.159E+00  0.159E+00
 -25.646  0.168E+00  0.168E+00
 -25.636  0.178E+00  0.178E+00
 -25.626  0.187E+00  0.187E+00
 -25.616  0.197E+00  0.197E+00
 -25.606  0.208E+00  0.208E+00
 -25.596  0.218E+00  0.218E+00
 -25.586  0.229E+00  0.229E+00
 -25.576  0.239E+00  0.239E+00
 -25.566  0.250E+00  0.250E+00
 -25.556  0.261E+00  0.261E+00
 -25.546  0.272E+00  0.272E+00
 -25.536  0.283E+00  0.283E+00
 -25.526  0.295E+00  0.295E+00
 -25.516  0.306E+00  0.306E+00
 -25.506  0.317E+00  0.317E+00
 -25.496  0.329E+00  0.329E+00
 -25.486  0.341E+00  0.341E+00
 -25.476  0.352E+00  0.352E+00
 -25.466  0.364E+00  0.364E+00
 -25.456  0.375E+00  0.375E+00
 -25.446  0.387E+00  0.387E+00
 -25.436  0.398E+00  0.398E+00
 -25.426  0.410E+00  0.410E+00
 -25.416  0.421E+00  0.421E+00
 -25.406  0.433E+00  0.433E+00
 -25.396  0.444E+00  0.444E+00
 -25.386  0.455E+00  0.455E+00
 -25.376  0.466E+00  0.466E+00
 -25.366  0.477E+00  0.477E+00
 -25.356  0.487E+00  0.487E+00
 -25.346  0.498E+00  0.498E+00
 -25.336  0.508E+00  0.508E+00
 -25.326  0.518E+00  0.518E+00
 -25.316  0.528E+00  0.528E+00
 -25.306  0.538E+00  0.538E+00
 -25.296  0.547E+00  0.547E+00
 -25.286  0.556E+00  0.556E+00
 -25.276  0.565E+00  0.565E+00
 -25.266  0.573E+00  0.573E+00
 -25.256  0.581E+00  0.581E+00
 -25.246  0.589E+00  0.589E+00
 -25.236  0.597E+00  0.597E+00
 -25.226  0.604E+00  0.604E+00
 -25.216  0.611E+00  0.611E+00
 -25.206  0.617E+00  0.617E+00
 -25.196  0.623E+00  0.623E+00
 -25.186  0.628E+00  0.628E+00
 -25.176  0.633E+00  0.633E+00
 -25.166  0.638E+00  0.638E+00
 -25.156  0.642E+00  0.642E+00
 -25.146  0.646E+00  0.646E+00
 -25.136  0.649E+00  0.649E+00
 -25.126  0.652E+00  0.652E+00
 -25.116  0.655E+00  0.655E+00
 -25.106  0.657E+00  0.657E+00
 -25.096  0.658E+00  0.658E+00
 -25.086  0.659E+00  0.659E+00
 -25.076  0.660E+00  0.660E+00
 -25.066  0.660E+00  0.660E+00
 -25.056  0.659E+00  0.659E+00
 -25.046  0.658E+00  0.658E+00
 -25.036  0.657E+00  0.657E+00
 -25.026  0.655E+00  0.655E+00
 -25.016  0.653E+00  0.653E+00
 -25.006  0.650E+00  0.650E+00
 -24.996  0.647E+00  0.647E+00
 -24.986  0.643E+00  0.643E+00
 -24.976  0.639E+00  0.639E+00
 -24.966  0.634E+00  0.634E+00
 -24.956  0.629E+00  0.629E+00
 -24.946  0.624E+00  0.624E+00
 -24.936  0.618E+00  0.618E+00
 -24.926  0.612E+00  0.612E+00
 -24.916  0.605E+00  0.605E+00
 -24.906  0.598E+00  0.598E+00
 -24.896  0.591E+00  0.591E+00
 -24.886  0.583E+00  0.583E+00
 -24.876  0.575E+00  0.575E+00
 -24.866  0.567E+00  0.567E+00
 -24.856  0.558E+00  0.558E+00
 -24.846  0.549E+00  0.549E+00
 -24.836  0.540E+00  0.540E+00
 -24.826  0.530E+00  0.530E+00
 -24.816  0.521E+00  0.521E+00
 -24.806  0.511E+00  0.511E+00
 -24.796  0.500E+00  0.500E+00
 -24.786  0.490E+00  0.490E+00
 -24.776  0.479E+00  0.479E+00
 -24.766  0.469E+00  0.469E+00
 -24.756  0.458E+00  0.458E+00
 -24.746  0.446E+00  0.446E+00
 -24.736  0.435E+00  0.435E+00
 -24.726  0.424E+00  0.424E+00
 -24.716  0.413E+00  0.413E+00
 -24.706  0.401E+00  0.401E+00
 -24.696  0.390E+00  0.390E+00
 -24.686  0.378E+00  0.378E+00
 -24.676  0.366E+00  0.366E+00
 -24.666  0.355E+00  0.355E+00
 -24.656  0.343E+00  0.343E+00
 -24.646  0.332E+00  0.332E+00
 -24.636  0.320E+00  0.320E+00
 -24.626  0.309E+00  0.309E+00
 -24.616  0.297E+00  0.297E+00
 -24.606  0.286E+00  0.286E+00
 -24.596  0.275E+00  0.275E+00
 -24.586  0.264E+00  0.264E+00
 -24.576  0.253E+00  0.253E+00
 -24.566  0.242E+00  0.242E+00
 -24.556  0.231E+00  0.231E+00
 -24.546  0.220E+00  0.220E+00
 -24.536  0.210E+00  0.210E+00
 -24.526  0.200E+00  0.200E+00
 -24.516  0.190E+00  0.190E+00
 -24.506  0.180E+00  0.180E+00
 -24.496  0.170E+00  0.170E+00
 -24.486  0.161E+00  0.161E+00
 -24.476  0.152E+00  0.152E+00
 -24.466  0.142E+00  0.142E+00
 -24.456  0.134E+00  0.134E+00
 -24.446  0.125E+00  0.125E+00
 -24.436  0.117E+00  0.117E+00
 -24.426  0.109E+00  0.109E+00
 -24.416  0.101E+00  0.101E+00
 -24.406  0.930E-01  0.930E-01
 -24.396  0.856E-01  0.856E-01
 -24.386  0.784E-01  0.784E-01
 -24.376  0.715E-01  0.715E-01
 -24.366  0.648E-01  0.648E-01
 -24.356  0.583E-01  0.583E-01
 -24.346  0.522E-01  0.522E-01
 -24.336  0.462E-01  0.462E-01
 -24.326  0.405E-01  0.405E-01
 -24.316  0.351E-01  0.351E-01
 -24.306  0.298E-01  0.298E-01
 -24.296  0.249E-01  0.249E-01
 -24.286  0.201E-01  0.201E-01
 -24.276  0.156E-01  0.156E-01
 -24.266  0.113E-01  0.113E-01
 -24.256  0.724E-02  0.724E-02
 -24.246  0.340E-02  0.340E-02
 -24.236 -0.226E-03 -0.226E-03
 -24.226 -0.364E-02 -0.364E-02
 -24.216 -0.685E-02 -0.685E-02
 -24.206 -0.985E-02 -0.985E-02
 -24.196 -0.127E-01 -0.127E-01
 -24.186 -0.153E-01 -0.153E-01
 -24.176 -0.177E-01 -0.177E-01
 -24.166 -0.200E-01 -0.200E-01
 -24.156 -0.220E-01 -0.220E-01
 -24.146 -0.239E-01 -0.239E-01
 -24.136 -0.257E-01 -0.257E-01
 -24.126 -0.273E-01 -0.273E-01
 -24.116 -0.287E-01 -0.287E-01
 -24.106 -0.300E-01 -0.300E-01
 -24.096 -0.311E-01 -0.311E-01
 -24.086 -0.321E-01 -0.321E-01
 -24.076 -0.330E-01 -0.330E-01
 -24.066 -0.338E-01 -0.338E-01
 -24.056 -0.344E-01 -0.344E-01
 -24.046 -0.349E-01 -0.349E-01
 -24.036 -0.354E-01 -0.354E-01
 -24.026 -0.357E-01 -0.357E-01
 -24.016 -0.359E-01 -0.359E-01
 -24.006 -0.360E-01 -0.360E-01
 -23.996 -0.361E-01 -0.361E-01
 -23.986 -0.361E-01 -0.361E-01
 -23.976 -0.360E-01 -0.360E-01
 -23.966 -0.358E-01 -0.358E-01
 -23.956 -0.356E-01 -0.356E-01
 -23.946 -0.353E-01 -0.353E-01
 -23.936 -0.349E-01 -0.349E-01
 -23.926 -0.345E-01 -0.345E-01
 -23.916 -0.341E-01 -0.341E-01
 -23.906 -0.336E-01 -0.336E-01
 -23.896 -0.331E-01 -0.331E-01
 -23.886 -0.325E-01 -0.325E-01
 -23.876 -0.319E-01 -0.319E-01
 -23.866 -0.313E-01 -0.313E-01
 -23.856 -0.307E-01 -0.307E-01
 -23.846 -0.300E-01 -0.300E-01
 -23.836 -0.293E-01 -0.293E-01
 -23.826 -0.286E-01 -0.286E-01
 -23.816 -0.279E-01 -0.279E-01
 -23.806 -0.272E-01 -0.272E-01
 -23.796 -0.265E-01 -0.265E-01
 -23.786 -0.257E-01 -0.257E-01
 -23.776 -0.250E-01 -0.250E-01
 -23.766 -0.243E-01 -0.243E-01
 -23.756 -0.235E-01 -0.235E-01
 -23.746 -0.228E-01 -0.228E-01
 -23.736 -0.221E-01 -0.221E-01
 -23.726 -0.213E-01 -0.213E-01
 -23.716 -0.206E-01 -0.206E-01
 -23.706 -0.199E-01 -0.199E-01
 -23.696 -0.192E-01 -0.192E-01
 -23.686 -0.185E-01 -0.185E-01
 -23.676 -0.178E-01 -0.178E-01
 -23.666 -0.172E-01 -0.172E-01
 -23.656 -0.165E-01 -0.165E-01
 -23.646 -0.159E-01 -0.159E-01
 -23.636 -0.152E-01 -0.152E-01
 -23.626 -0.146E-01 -0.146E-01
 -23.616 -0.140E-01 -0.140E-01
 -23.606 -0.134E-01 -0.134E-01
 -23.596 -0.129E-01 -0.129E-01
 -23.586 -0.123E-01 -0.123E-01
 -23.576 -0.118E-01 -0.118E-01
 -23.566 -0.112E-01 -0.112E-01
 -23.556 -0.107E-01 -0.107E-01
 -23.546 -0.102E-01 -0.102E-01
 -23.536 -0.977E-02 -0.977E-02
 -23.526 -0.931E-02 -0.931E-02
 -23.516 -0.887E-02 -0.887E-02
 -23.506 -0.844E-02 -0.844E-02
 -23.496 -0.803E-02 -0.803E-02
 -23.486 -0.763E-02 -0.763E-02
 -23.476 -0.725E-02 -0.725E-02
 -23.466 -0.688E-02 -0.688E-02
 -23.456 -0.653E-02 -0.653E-02
 -23.446 -0.619E-02 -0.619E-02
 -23.436 -0.587E-02 -0.587E-02
 -23.426 -0.556E-02 -0.556E-02
 -23.416 -0.526E-02 -0.526E-02
 -23.406 -0.498E-02 -0.498E-02
 -23.396 -0.470E-02 -0.470E-02
 -23.386 -0.444E-02 -0.444E-02
 -23.376 -0.420E-02 -0.420E-02
 -23.366 -0.396E-02 -0.396E-02
 -23.356 -0.374E-02 -0.374E-02
 -23.346 -0.352E-02 -0.352E-02
 -23.336 -0.332E-02 -0.332E-02
 -23.326 -0.312E-02 -0.312E-02
 -23.316 -0.294E-02 -0.294E-02
 -23.306 -0.276E-02 -0.276E-02
 -23.296 -0.260E-02 -0.260E-02
 -23.286 -0.244E-02 -0.244E-02
 -23.276 -0.229E-02 -0.229E-02
 -23.266 -0.215E-02 -0.215E-02
 -23.256 -0.202E-02 -0.202E-02
 -23.246 -0.189E-02 -0.189E-02
 -23.236 -0.177E-02 -0.177E-02
 -23.226 -0.166E-02 -0.166E-02
 -23.216 -0.155E-02 -0.155E-02
 -23.206 -0.145E-02 -0.145E-02
 -23.196 -0.136E-02 -0.136E-02
 -23.186 -0.127E-02 -0.127E-02
 -23.176 -0.118E-02 -0.118E-02
 -23.166 -0.111E-02 -0.111E-02
 -23.156 -0.103E-02 -0.103E-02
 -23.146 -0.961E-03 -0.961E-03
 -23.136 -0.896E-03 -0.896E-03
 -23.126 -0.834E-03 -0.834E-03
 -23.116 -0.776E-03 -0.776E-03
 -23.106 -0.722E-03 -0.722E-03
 -23.096 -0.672E-03 -0.672E-03
 -23.086 -0.624E-03 -0.624E-03
 -23.076 -0.580E-03 -0.580E-03
 -23.066 -0.538E-03 -0.538E-03
 -23.056 -0.500E-03 -0.500E-03
 -23.046 -0.463E-03 -0.463E-03
 -23.036 -0.430E-03 -0.430E-03
 -23.026 -0.398E-03 -0.398E-03
 -23.016 -0.369E-03 -0.369E-03
 -23.006 -0.341E-03 -0.341E-03
 -22.996 -0.316E-03 -0.316E-03
 -22.986 -0.292E-03 -0.292E-03
 -22.976 -0.270E-03 -0.270E-03
 -22.966 -0.249E-03 -0.249E-03
 -22.956 -0.230E-03 -0.230E-03
 -22.946 -0.212E-03 -0.212E-03
 -22.936 -0.196E-03 -0.196E-03
 -22.926 -0.180E-03 -0.180E-03
 -22.916 -0.166E-03 -0.166E-03
 -22.906 -0.153E-03 -0.153E-03
 -22.896 -0.141E-03 -0.141E-03
 -22.886 -0.130E-03 -0.130E-03
 -22.876 -0.119E-03 -0.119E-03
 -22.866 -0.110E-03 -0.110E-03
 -22.856 -0.101E-03 -0.101E-03
 -22.846 -0.926E-04 -0.926E-04
 -22.836 -0.851E-04 -0.851E-04
 -22.826 -0.781E-04 -0.781E-04
 -22.816 -0.717E-04 -0.717E-04
 -22.806 -0.657E-04 -0.657E-04
 -22.796 -0.603E-04 -0.603E-04
 -22.786 -0.553E-04 -0.553E-04
 -22.776 -0.507E-04 -0.507E-04
 -22.766 -0.465E-04 -0.465E-04
 -22.756 -0.426E-04 -0.426E-04
 -22.746 -0.390E-04 -0.390E-04
 -22.736 -0.358E-04 -0.358E-04
 -22.726 -0.328E-04 -0.328E-04
 -22.716 -0.301E-04 -0.301E-04
 -22.706 -0.277E-04 -0.277E-04
 -22.696 -0.254E-04 -0.254E-04
 -22.686 -0.234E-04 -0.234E-04
 -22.676 -0.216E-04 -0.216E-04
 -22.666 -0.199E-04 -0.199E-04
 -22.656 -0.184E-04 -0.184E-04
 -22.646 -0.171E-04 -0.171E-04
 -22.636 -0.159E-04 -0.159E-04
 -22.626 -0.149E-04 -0.149E-04
 -22.616 -0.139E-04 -0.139E-04
 -22.606 -0.131E-04 -0.131E-04
 -22.596 -0.124E-04 -0.124E-04
 -22.586 -0.119E-04 -0.119E-04
 -22.576 -0.114E-04 -0.114E-04
 -22.566 -0.110E-04 -0.110E-04
 -22.556 -0.107E-04 -0.107E-04
 -22.546 -0.106E-04 -0.106E-04
 -22.536 -0.105E-04 -0.105E-04
 -22.526 -0.105E-04 -0.105E-04
 -22.516 -0.105E-04 -0.105E-04
 -22.506 -0.107E-04 -0.107E-04
 -22.496 -0.109E-04 -0.109E-04
 -22.486 -0.113E-04 -0.113E-04
 -22.476 -0.117E-04 -0.117E-04
 -22.466 -0.122E-04 -0.122E-04
 -22.456 -0.128E-04 -0.128E-04
 -22.446 -0.135E-04 -0.135E-04
 -22.436 -0.142E-04 -0.142E-04
 -22.426 -0.151E-04 -0.151E-04
 -22.416 -0.161E-04 -0.161E-04
 -22.406 -0.172E-04 -0.172E-04
 -22.396 -0.183E-04 -0.183E-04
 -22.386 -0.196E-04 -0.196E-04
 -22.376 -0.211E-04 -0.211E-04
 -22.366 -0.226E-04 -0.226E-04
 -22.356 -0.243E-04 -0.243E-04
 -22.346 -0.261E-04 -0.261E-04
 -22.336 -0.281E-04 -0.281E-04
 -22.326 -0.302E-04 -0.302E-04
 -22.316 -0.325E-04 -0.325E-04
 -22.306 -0.349E-04 -0.349E-04
 -22.296 -0.376E-04 -0.376E-04
 -22.286 -0.404E-04 -0.404E-04
 -22.276 -0.435E-04 -0.435E-04
 -22.266 -0.467E-04 -0.467E-04
 -22.256 -0.502E-04 -0.502E-04
 -22.246 -0.540E-04 -0.540E-04
 -22.236 -0.579E-04 -0.579E-04
 -22.226 -0.622E-04 -0.622E-04
 -22.216 -0.667E-04 -0.667E-04
 -22.206 -0.716E-04 -0.716E-04
 -22.196 -0.767E-04 -0.767E-04
 -22.186 -0.822E-04 -0.822E-04
 -22.176 -0.881E-04 -0.881E-04
 -22.166 -0.943E-04 -0.943E-04
 -22.156 -0.101E-03 -0.101E-03
 -22.146 -0.108E-03 -0.108E-03
 -22.136 -0.115E-03 -0.115E-03
 -22.126 -0.123E-03 -0.123E-03
 -22.116 -0.132E-03 -0.132E-03
 -22.106 -0.140E-03 -0.140E-03
 -22.096 -0.150E-03 -0.150E-03
 -22.086 -0.160E-03 -0.160E-03
 -22.076 -0.170E-03 -0.170E-03
 -22.066 -0.181E-03 -0.181E-03
 -22.056 -0.193E-03 -0.193E-03
 -22.046 -0.205E-03 -0.205E-03
 -22.036 -0.218E-03 -0.218E-03
 -22.026 -0.232E-03 -0.232E-03
 -22.016 -0.246E-03 -0.246E-03
 -22.006 -0.261E-03 -0.261E-03
 -21.996 -0.277E-03 -0.277E-03
 -21.986 -0.293E-03 -0.293E-03
 -21.976 -0.311E-03 -0.311E-03
 -21.966 -0.329E-03 -0.329E-03
 -21.956 -0.348E-03 -0.348E-03
 -21.946 -0.368E-03 -0.368E-03
 -21.936 -0.389E-03 -0.389E-03
 -21.926 -0.411E-03 -0.411E-03
 -21.916 -0.434E-03 -0.434E-03
 -21.906 -0.458E-03 -0.458E-03
 -21.896 -0.483E-03 -0.483E-03
 -21.886 -0.509E-03 -0.509E-03
 -21.876 -0.536E-03 -0.536E-03
 -21.866 -0.564E-03 -0.564E-03
 -21.856 -0.593E-03 -0.593E-03
 -21.846 -0.623E-03 -0.623E-03
 -21.836 -0.655E-03 -0.655E-03
 -21.826 -0.688E-03 -0.688E-03
 -21.816 -0.721E-03 -0.721E-03
 -21.806 -0.756E-03 -0.756E-03
 -21.796 -0.792E-03 -0.792E-03
 -21.786 -0.830E-03 -0.830E-03
 -21.776 -0.868E-03 -0.868E-03
 -21.766 -0.908E-03 -0.908E-03
 -21.756 -0.948E-03 -0.948E-03
 -21.746 -0.990E-03 -0.990E-03
 -21.736 -0.103E-02 -0.103E-02
 -21.726 -0.108E-02 -0.108E-02
 -21.716 -0.112E-02 -0.112E-02
 -21.706 -0.117E-02 -0.117E-02
 -21.696 -0.122E-02 -0.122E-02
 -21.686 -0.126E-02 -0.126E-02
 -21.676 -0.131E-02 -0.131E-02
 -21.666 -0.136E-02 -0.136E-02
 -21.656 -0.141E-02 -0.141E-02
 -21.646 -0.146E-02 -0.146E-02
 -21.636 -0.152E-02 -0.152E-02
 -21.626 -0.157E-02 -0.157E-02
 -21.616 -0.162E-02 -0.162E-02
 -21.606 -0.168E-02 -0.168E-02
 -21.596 -0.173E-02 -0.173E-02
 -21.586 -0.178E-02 -0.178E-02
 -21.576 -0.184E-02 -0.184E-02
 -21.566 -0.189E-02 -0.189E-02
 -21.556 -0.194E-02 -0.194E-02
 -21.546 -0.200E-02 -0.200E-02
 -21.536 -0.205E-02 -0.205E-02
 -21.526 -0.210E-02 -0.210E-02
 -21.516 -0.215E-02 -0.215E-02
 -21.506 -0.220E-02 -0.220E-02
 -21.496 -0.225E-02 -0.225E-02
 -21.486 -0.230E-02 -0.230E-02
 -21.476 -0.234E-02 -0.234E-02
 -21.466 -0.238E-02 -0.238E-02
 -21.456 -0.242E-02 -0.242E-02
 -21.446 -0.246E-02 -0.246E-02
 -21.436 -0.250E-02 -0.250E-02
 -21.426 -0.253E-02 -0.253E-02
 -21.416 -0.256E-02 -0.256E-02
 -21.406 -0.258E-02 -0.258E-02
 -21.396 -0.260E-02 -0.260E-02
 -21.386 -0.262E-02 -0.262E-02
 -21.376 -0.263E-02 -0.263E-02
 -21.366 -0.263E-02 -0.263E-02
 -21.356 -0.263E-02 -0.263E-02
 -21.346 -0.263E-02 -0.263E-02
 -21.336 -0.262E-02 -0.262E-02
 -21.326 -0.260E-02 -0.260E-02
 -21.316 -0.258E-02 -0.258E-02
 -21.306 -0.254E-02 -0.254E-02
 -21.296 -0.250E-02 -0.250E-02
 -21.286 -0.246E-02 -0.246E-02
 -21.276 -0.240E-02 -0.240E-02
 -21.266 -0.233E-02 -0.233E-02
 -21.256 -0.226E-02 -0.226E-02
 -21.246 -0.217E-02 -0.217E-02
 -21.236 -0.208E-02 -0.208E-02
 -21.226 -0.197E-02 -0.197E-02
 -21.216 -0.186E-02 -0.186E-02
 -21.206 -0.173E-02 -0.173E-02
 -21.196 -0.159E-02 -0.159E-02
 -21.186 -0.144E-02 -0.144E-02
 -21.176 -0.127E-02 -0.127E-02
 -21.166 -0.109E-02 -0.109E-02
 -21.156 -0.900E-03 -0.900E-03
 -21.146 -0.695E-03 -0.695E-03
 -21.136 -0.475E-03 -0.475E-03
 -21.126 -0.241E-03 -0.241E-03
 -21.116  0.810E-05  0.810E-05
 -21.106  0.272E-03  0.272E-03
 -21.096  0.552E-03  0.552E-03
 -21.086  0.848E-03  0.848E-03
 -21.076  0.116E-02  0.116E-02
 -21.066  0.149E-02  0.149E-02
 -21.056  0.183E-02  0.183E-02
 -21.046  0.219E-02  0.219E-02
 -21.036  0.257E-02  0.257E-02
 -21.026  0.297E-02  0.297E-02
 -21.016  0.338E-02  0.338E-02
 -21.006  0.381E-02  0.381E-02
 -20.996  0.425E-02  0.425E-02
 -20.986  0.472E-02  0.472E-02
 -20.976  0.520E-02  0.520E-02
 -20.966  0.570E-02  0.570E-02
 -20.956  0.621E-02  0.621E-02
 -20.946  0.674E-02  0.674E-02
 -20.936  0.729E-02  0.729E-02
 -20.926  0.786E-02  0.786E-02
 -20.916  0.844E-02  0.844E-02
 -20.906  0.904E-02  0.904E-02
 -20.896  0.965E-02  0.965E-02
 -20.886  0.103E-01  0.103E-01
 -20.876  0.109E-01  0.109E-01
 -20.866  0.116E-01  0.116E-01
 -20.856  0.123E-01  0.123E-01
 -20.846  0.129E-01  0.129E-01
 -20.836  0.136E-01  0.136E-01
 -20.826  0.143E-01  0.143E-01
 -20.816  0.151E-01  0.151E-01
 -20.806  0.158E-01  0.158E-01
 -20.796  0.165E-01  0.165E-01
 -20.786  0.173E-01  0.173E-01
 -20.776  0.180E-01  0.180E-01
 -20.766  0.188E-01  0.188E-01
 -20.756  0.196E-01  0.196E-01
 -20.746  0.204E-01  0.204E-01
 -20.736  0.211E-01  0.211E-01
 -20.726  0.219E-01  0.219E-01
 -20.716  0.227E-01  0.227E-01
 -20.706  0.235E-01  0.235E-01
 -20.696  0.243E-01  0.243E-01
 -20.686  0.251E-01  0.251E-01
 -20.676  0.259E-01  0.259E-01
 -20.666  0.266E-01  0.266E-01
 -20.656  0.274E-01  0.274E-01
 -20.646  0.282E-01  0.282E-01
 -20.636  0.290E-01  0.290E-01
 -20.626  0.297E-01  0.297E-01
 -20.616  0.305E-01  0.305E-01
 -20.606  0.312E-01  0.312E-01
 -20.596  0.319E-01  0.319E-01
 -20.586  0.326E-01  0.326E-01
 -20.576  0.333E-01  0.333E-01
 -20.566  0.340E-01  0.340E-01
 -20.556  0.347E-01  0.347E-01
 -20.546  0.353E-01  0.353E-01
 -20.536  0.359E-01  0.359E-01
 -20.526  0.365E-01  0.365E-01
 -20.516  0.371E-01  0.371E-01
 -20.506  0.377E-01  0.377E-01
 -20.496  0.382E-01  0.382E-01
 -20.486  0.387E-01  0.387E-01
 -20.476  0.392E-01  0.392E-01
 -20.466  0.396E-01  0.396E-01
 -20.456  0.400E-01  0.400E-01
 -20.446  0.404E-01  0.404E-01
 -20.436  0.408E-01  0.408E-01
 -20.426  0.411E-01  0.411E-01
 -20.416  0.414E-01  0.414E-01
 -20.406  0.417E-01  0.417E-01
 -20.396  0.419E-01  0.419E-01
 -20.386  0.421E-01  0.421E-01
 -20.376  0.423E-01  0.423E-01
 -20.366  0.424E-01  0.424E-01
 -20.356  0.425E-01  0.425E-01
 -20.346  0.426E-01  0.426E-01
 -20.336  0.426E-01  0.426E-01
 -20.326  0.426E-01  0.426E-01
 -20.316  0.426E-01  0.426E-01
 -20.306  0.425E-01  0.425E-01
 -20.296  0.424E-01  0.424E-01
 -20.286  0.422E-01  0.422E-01
 -20.276  0.420E-01  0.420E-01
 -20.266  0.418E-01  0.418E-01
 -20.256  0.416E-01  0.416E-01
 -20.246  0.413E-01  0.413E-01
 -20.236  0.410E-01  0.410E-01
 -20.226  0.407E-01  0.407E-01
 -20.216  0.403E-01  0.403E-01
 -20.206  0.399E-01  0.399E-01
 -20.196  0.395E-01  0.395E-01
 -20.186  0.390E-01  0.390E-01
 -20.176  0.385E-01  0.385E-01
 -20.166  0.380E-01  0.380E-01
 -20.156  0.375E-01  0.375E-01
 -20.146  0.370E-01  0.370E-01
 -20.136  0.364E-01  0.364E-01
 -20.126  0.358E-01  0.358E-01
 -20.116  0.353E-01  0.353E-01
 -20.106  0.347E-01  0.347E-01
 -20.096  0.340E-01  0.340E-01
 -20.086  0.334E-01  0.334E-01
 -20.076  0.328E-01  0.328E-01
 -20.066  0.322E-01  0.322E-01
 -20.056  0.315E-01  0.315E-01
 -20.046  0.309E-01  0.309E-01
 -20.036  0.303E-01  0.303E-01
 -20.026  0.296E-01  0.296E-01
 -20.016  0.290E-01  0.290E-01
 -20.006  0.284E-01  0.284E-01
 -19.996  0.278E-01  0.278E-01
 -19.986  0.272E-01  0.272E-01
 -19.976  0.267E-01  0.267E-01
 -19.966  0.261E-01  0.261E-01
 -19.956  0.256E-01  0.256E-01
 -19.946  0.251E-01  0.251E-01
 -19.936  0.246E-01  0.246E-01
 -19.926  0.242E-01  0.242E-01
 -19.916  0.238E-01  0.238E-01
 -19.906  0.234E-01  0.234E-01
 -19.896  0.231E-01  0.231E-01
 -19.886  0.228E-01  0.228E-01
 -19.876  0.225E-01  0.225E-01
 -19.866  0.223E-01  0.223E-01
 -19.856  0.221E-01  0.221E-01
 -19.846  0.220E-01  0.220E-01
 -19.836  0.220E-01  0.220E-01
 -19.826  0.219E-01  0.219E-01
 -19.816  0.220E-01  0.220E-01
 -19.806  0.221E-01  0.221E-01
 -19.796  0.223E-01  0.223E-01
 -19.786  0.225E-01  0.225E-01
 -19.776  0.228E-01  0.228E-01
 -19.766  0.231E-01  0.231E-01
 -19.756  0.235E-01  0.235E-01
 -19.746  0.240E-01  0.240E-01
 -19.736  0.245E-01  0.245E-01
 -19.726  0.252E-01  0.252E-01
 -19.716  0.258E-01  0.258E-01
 -19.706  0.266E-01  0.266E-01
 -19.696  0.274E-01  0.274E-01
 -19.686  0.283E-01  0.283E-01
 -19.676  0.293E-01  0.293E-01
 -19.666  0.303E-01  0.303E-01
 -19.656  0.314E-01  0.314E-01
 -19.646  0.326E-01  0.326E-01
 -19.636  0.339E-01  0.339E-01
 -19.626  0.352E-01  0.352E-01
 -19.616  0.366E-01  0.366E-01
 -19.606  0.380E-01  0.380E-01
 -19.596  0.396E-01  0.396E-01
 -19.586  0.412E-01  0.412E-01
 -19.576  0.428E-01  0.428E-01
 -19.566  0.445E-01  0.445E-01
 -19.556  0.463E-01  0.463E-01
 -19.546  0.482E-01  0.482E-01
 -19.536  0.501E-01  0.501E-01
 -19.526  0.520E-01  0.520E-01
 -19.516  0.541E-01  0.541E-01
 -19.506  0.561E-01  0.561E-01
 -19.496  0.582E-01  0.582E-01
 -19.486  0.604E-01  0.604E-01
 -19.476  0.626E-01  0.626E-01
 -19.466  0.648E-01  0.648E-01
 -19.456  0.671E-01  0.671E-01
 -19.446  0.694E-01  0.694E-01
 -19.436  0.718E-01  0.718E-01
 -19.426  0.742E-01  0.742E-01
 -19.416  0.766E-01  0.766E-01
 -19.406  0.790E-01  0.790E-01
 -19.396  0.814E-01  0.814E-01
 -19.386  0.839E-01  0.839E-01
 -19.376  0.863E-01  0.863E-01
 -19.366  0.888E-01  0.888E-01
 -19.356  0.912E-01  0.912E-01
 -19.346  0.937E-01  0.937E-01
 -19.336  0.961E-01  0.961E-01
 -19.326  0.986E-01  0.986E-01
 -19.316  0.101E+00  0.101E+00
 -19.306  0.103E+00  0.103E+00
 -19.296  0.106E+00  0.106E+00
 -19.286  0.108E+00  0.108E+00
 -19.276  0.110E+00  0.110E+00
 -19.266  0.113E+00  0.113E+00
 -19.256  0.115E+00  0.115E+00
 -19.246  0.117E+00  0.117E+00
 -19.236  0.119E+00  0.119E+00
 -19.226  0.121E+00  0.121E+00
 -19.216  0.123E+00  0.123E+00
 -19.206  0.125E+00  0.125E+00
 -19.196  0.127E+00  0.127E+00
 -19.186  0.129E+00  0.129E+00
 -19.176  0.131E+00  0.131E+00
 -19.166  0.132E+00  0.132E+00
 -19.156  0.134E+00  0.134E+00
 -19.146  0.136E+00  0.136E+00
 -19.136  0.137E+00  0.137E+00
 -19.126  0.138E+00  0.138E+00
 -19.116  0.140E+00  0.140E+00
 -19.106  0.141E+00  0.141E+00
 -19.096  0.142E+00  0.142E+00
 -19.086  0.143E+00  0.143E+00
 -19.076  0.144E+00  0.144E+00
 -19.066  0.144E+00  0.144E+00
 -19.056  0.145E+00  0.145E+00
 -19.046  0.146E+00  0.146E+00
 -19.036  0.146E+00  0.146E+00
 -19.026  0.147E+00  0.147E+00
 -19.016  0.147E+00  0.147E+00
 -19.006  0.147E+00  0.147E+00
 -18.996  0.147E+00  0.147E+00
 -18.986  0.147E+00  0.147E+00
 -18.976  0.147E+00  0.147E+00
 -18.966  0.146E+00  0.146E+00
 -18.956  0.146E+00  0.146E+00
 -18.946  0.146E+00  0.146E+00
 -18.936  0.145E+00  0.145E+00
 -18.926  0.144E+00  0.144E+00
 -18.916  0.143E+00  0.143E+00
 -18.906  0.142E+00  0.142E+00
 -18.896  0.141E+00  0.141E+00
 -18.886  0.140E+00  0.140E+00
 -18.876  0.139E+00  0.139E+00
 -18.866  0.138E+00  0.138E+00
 -18.856  0.136E+00  0.136E+00
 -18.846  0.135E+00  0.135E+00
 -18.836  0.133E+00  0.133E+00
 -18.826  0.132E+00  0.132E+00
 -18.816  0.130E+00  0.130E+00
 -18.806  0.128E+00  0.128E+00
 -18.796  0.126E+00  0.126E+00
 -18.786  0.124E+00  0.124E+00
 -18.776  0.122E+00  0.122E+00
 -18.766  0.120E+00  0.120E+00
 -18.756  0.118E+00  0.118E+00
 -18.746  0.116E+00  0.116E+00
 -18.736  0.113E+00  0.113E+00
 -18.726  0.111E+00  0.111E+00
 -18.716  0.109E+00  0.109E+00
 -18.706  0.106E+00  0.106E+00
 -18.696  0.104E+00  0.104E+00
 -18.686  0.101E+00  0.101E+00
 -18.676  0.988E-01  0.988E-01
 -18.666  0.962E-01  0.962E-01
 -18.656  0.936E-01  0.936E-01
 -18.646  0.910E-01  0.910E-01
 -18.636  0.883E-01  0.883E-01
 -18.626  0.857E-01  0.857E-01
 -18.616  0.830E-01  0.830E-01
 -18.606  0.803E-01  0.803E-01
 -18.596  0.776E-01  0.776E-01
 -18.586  0.749E-01  0.749E-01
 -18.576  0.722E-01  0.722E-01
 -18.566  0.695E-01  0.695E-01
 -18.556  0.669E-01  0.669E-01
 -18.546  0.642E-01  0.642E-01
 -18.536  0.615E-01  0.615E-01
 -18.526  0.589E-01  0.589E-01
 -18.516  0.562E-01  0.562E-01
 -18.506  0.536E-01  0.536E-01
 -18.496  0.511E-01  0.511E-01
 -18.486  0.485E-01  0.485E-01
 -18.476  0.460E-01  0.460E-01
 -18.466  0.435E-01  0.435E-01
 -18.456  0.410E-01  0.410E-01
 -18.446  0.385E-01  0.385E-01
 -18.436  0.361E-01  0.361E-01
 -18.426  0.338E-01  0.338E-01
 -18.416  0.315E-01  0.315E-01
 -18.406  0.292E-01  0.292E-01
 -18.396  0.269E-01  0.269E-01
 -18.386  0.247E-01  0.247E-01
 -18.376  0.226E-01  0.226E-01
 -18.366  0.204E-01  0.204E-01
 -18.356  0.184E-01  0.184E-01
 -18.346  0.163E-01  0.163E-01
 -18.336  0.144E-01  0.144E-01
 -18.326  0.124E-01  0.124E-01
 -18.316  0.106E-01  0.106E-01
 -18.306  0.872E-02  0.872E-02
 -18.296  0.693E-02  0.693E-02
 -18.286  0.520E-02  0.520E-02
 -18.276  0.351E-02  0.351E-02
 -18.266  0.187E-02  0.187E-02
 -18.256  0.281E-03  0.281E-03
 -18.246 -0.126E-02 -0.126E-02
 -18.236 -0.275E-02 -0.275E-02
 -18.226 -0.419E-02 -0.419E-02
 -18.216 -0.559E-02 -0.559E-02
 -18.206 -0.693E-02 -0.693E-02
 -18.196 -0.823E-02 -0.823E-02
 -18.186 -0.947E-02 -0.947E-02
 -18.176 -0.107E-01 -0.107E-01
 -18.166 -0.118E-01 -0.118E-01
 -18.156 -0.129E-01 -0.129E-01
 -18.146 -0.140E-01 -0.140E-01
 -18.136 -0.150E-01 -0.150E-01
 -18.126 -0.159E-01 -0.159E-01
 -18.116 -0.169E-01 -0.169E-01
 -18.106 -0.177E-01 -0.177E-01
 -18.096 -0.185E-01 -0.185E-01
 -18.086 -0.193E-01 -0.193E-01
 -18.076 -0.200E-01 -0.200E-01
 -18.066 -0.207E-01 -0.207E-01
 -18.056 -0.213E-01 -0.213E-01
 -18.046 -0.219E-01 -0.219E-01
 -18.036 -0.224E-01 -0.224E-01
 -18.026 -0.229E-01 -0.229E-01
 -18.016 -0.233E-01 -0.233E-01
 -18.006 -0.237E-01 -0.237E-01
 -17.996 -0.240E-01 -0.240E-01
 -17.986 -0.243E-01 -0.243E-01
 -17.976 -0.245E-01 -0.245E-01
 -17.966 -0.247E-01 -0.247E-01
 -17.956 -0.248E-01 -0.248E-01
 -17.946 -0.249E-01 -0.249E-01
 -17.936 -0.249E-01 -0.249E-01
 -17.926 -0.248E-01 -0.248E-01
 -17.916 -0.247E-01 -0.247E-01
 -17.906 -0.245E-01 -0.245E-01
 -17.896 -0.243E-01 -0.243E-01
 -17.886 -0.240E-01 -0.240E-01
 -17.876 -0.237E-01 -0.237E-01
 -17.866 -0.232E-01 -0.232E-01
 -17.856 -0.227E-01 -0.227E-01
 -17.846 -0.222E-01 -0.222E-01
 -17.836 -0.215E-01 -0.215E-01
 -17.826 -0.208E-01 -0.208E-01
 -17.816 -0.200E-01 -0.200E-01
 -17.806 -0.192E-01 -0.192E-01
 -17.796 -0.182E-01 -0.182E-01
 -17.786 -0.172E-01 -0.172E-01
 -17.776 -0.161E-01 -0.161E-01
 -17.766 -0.149E-01 -0.149E-01
 -17.756 -0.136E-01 -0.136E-01
 -17.746 -0.122E-01 -0.122E-01
 -17.736 -0.108E-01 -0.108E-01
 -17.726 -0.922E-02 -0.922E-02
 -17.716 -0.757E-02 -0.757E-02
 -17.706 -0.583E-02 -0.583E-02
 -17.696 -0.399E-02 -0.399E-02
 -17.686 -0.204E-02 -0.204E-02
 -17.676  0.348E-05  0.348E-05
 -17.666  0.215E-02  0.215E-02
 -17.656  0.440E-02  0.440E-02
 -17.646  0.676E-02  0.676E-02
 -17.636  0.923E-02  0.923E-02
 -17.626  0.118E-01  0.118E-01
 -17.616  0.145E-01  0.145E-01
 -17.606  0.173E-01  0.173E-01
 -17.596  0.202E-01  0.202E-01
 -17.586  0.232E-01  0.232E-01
 -17.576  0.263E-01  0.263E-01
 -17.566  0.296E-01  0.296E-01
 -17.556  0.329E-01  0.329E-01
 -17.546  0.364E-01  0.364E-01
 -17.536  0.399E-01  0.399E-01
 -17.526  0.436E-01  0.436E-01
 -17.516  0.474E-01  0.474E-01
 -17.506  0.513E-01  0.513E-01
 -17.496  0.553E-01  0.553E-01
 -17.486  0.594E-01  0.594E-01
 -17.476  0.636E-01  0.636E-01
 -17.466  0.679E-01  0.679E-01
 -17.456  0.722E-01  0.722E-01
 -17.446  0.767E-01  0.767E-01
 -17.436  0.813E-01  0.813E-01
 -17.426  0.860E-01  0.860E-01
 -17.416  0.907E-01  0.907E-01
 -17.406  0.956E-01  0.956E-01
 -17.396  0.100E+00  0.100E+00
 -17.386  0.105E+00  0.105E+00
 -17.376  0.111E+00  0.111E+00
 -17.366  0.116E+00  0.116E+00
 -17.356  0.121E+00  0.121E+00
 -17.346  0.126E+00  0.126E+00
 -17.336  0.131E+00  0.131E+00
 -17.326  0.137E+00  0.137E+00
 -17.316  0.142E+00  0.142E+00
 -17.306  0.147E+00  0.147E+00
 -17.296  0.153E+00  0.153E+00
 -17.286  0.158E+00  0.158E+00
 -17.276  0.164E+00  0.164E+00
 -17.266  0.169E+00  0.169E+00
 -17.256  0.174E+00  0.174E+00
 -17.246  0.180E+00  0.180E+00
 -17.236  0.185E+00  0.185E+00
 -17.226  0.191E+00  0.191E+00
 -17.216  0.196E+00  0.196E+00
 -17.206  0.201E+00  0.201E+00
 -17.196  0.206E+00  0.206E+00
 -17.186  0.212E+00  0.212E+00
 -17.176  0.217E+00  0.217E+00
 -17.166  0.222E+00  0.222E+00
 -17.156  0.227E+00  0.227E+00
 -17.146  0.232E+00  0.232E+00
 -17.136  0.236E+00  0.236E+00
 -17.126  0.241E+00  0.241E+00
 -17.116  0.246E+00  0.246E+00
 -17.106  0.250E+00  0.250E+00
 -17.096  0.254E+00  0.254E+00
 -17.086  0.259E+00  0.259E+00
 -17.076  0.263E+00  0.263E+00
 -17.066  0.267E+00  0.267E+00
 -17.056  0.270E+00  0.270E+00
 -17.046  0.274E+00  0.274E+00
 -17.036  0.277E+00  0.277E+00
 -17.026  0.281E+00  0.281E+00
 -17.016  0.284E+00  0.284E+00
 -17.006  0.287E+00  0.287E+00
 -16.996  0.289E+00  0.289E+00
 -16.986  0.292E+00  0.292E+00
 -16.976  0.294E+00  0.294E+00
 -16.966  0.296E+00  0.296E+00
 -16.956  0.298E+00  0.298E+00
 -16.946  0.300E+00  0.300E+00
 -16.936  0.302E+00  0.302E+00
 -16.926  0.303E+00  0.303E+00
 -16.916  0.304E+00  0.304E+00
 -16.906  0.305E+00  0.305E+00
 -16.896  0.306E+00  0.306E+00
 -16.886  0.306E+00  0.306E+00
 -16.876  0.306E+00  0.306E+00
 -16.866  0.306E+00  0.306E+00
 -16.856  0.306E+00  0.306E+00
 -16.846  0.306E+00  0.306E+00
 -16.836  0.305E+00  0.305E+00
 -16.826  0.304E+00  0.304E+00
 -16.816  0.303E+00  0.303E+00
 -16.806  0.302E+00  0.302E+00
 -16.796  0.300E+00  0.300E+00
 -16.786  0.299E+00  0.299E+00
 -16.776  0.297E+00  0.297E+00
 -16.766  0.295E+00  0.295E+00
 -16.756  0.292E+00  0.292E+00
 -16.746  0.290E+00  0.290E+00
 -16.736  0.287E+00  0.287E+00
 -16.726  0.284E+00  0.284E+00
 -16.716  0.281E+00  0.281E+00
 -16.706  0.278E+00  0.278E+00
 -16.696  0.275E+00  0.275E+00
 -16.686  0.271E+00  0.271E+00
 -16.676  0.267E+00  0.267E+00
 -16.666  0.263E+00  0.263E+00
 -16.656  0.259E+00  0.259E+00
 -16.646  0.255E+00  0.255E+00
 -16.636  0.251E+00  0.251E+00
 -16.626  0.247E+00  0.247E+00
 -16.616  0.242E+00  0.242E+00
 -16.606  0.237E+00  0.237E+00
 -16.596  0.233E+00  0.233E+00
 -16.586  0.228E+00  0.228E+00
 -16.576  0.223E+00  0.223E+00
 -16.566  0.218E+00  0.218E+00
 -16.556  0.213E+00  0.213E+00
 -16.546  0.208E+00  0.208E+00
 -16.536  0.203E+00  0.203E+00
 -16.526  0.198E+00  0.198E+00
 -16.516  0.192E+00  0.192E+00
 -16.506  0.187E+00  0.187E+00
 -16.496  0.182E+00  0.182E+00
 -16.486  0.176E+00  0.176E+00
 -16.476  0.171E+00  0.171E+00
 -16.466  0.166E+00  0.166E+00
 -16.456  0.161E+00  0.161E+00
 -16.446  0.155E+00  0.155E+00
 -16.436  0.150E+00  0.150E+00
 -16.426  0.145E+00  0.145E+00
 -16.416  0.139E+00  0.139E+00
 -16.406  0.134E+00  0.134E+00
 -16.396  0.129E+00  0.129E+00
 -16.386  0.124E+00  0.124E+00
 -16.376  0.119E+00  0.119E+00
 -16.366  0.114E+00  0.114E+00
 -16.356  0.109E+00  0.109E+00
 -16.346  0.104E+00  0.104E+00
 -16.336  0.995E-01  0.995E-01
 -16.326  0.948E-01  0.948E-01
 -16.316  0.902E-01  0.902E-01
 -16.306  0.857E-01  0.857E-01
 -16.296  0.812E-01  0.812E-01
 -16.286  0.769E-01  0.769E-01
 -16.276  0.727E-01  0.727E-01
 -16.266  0.685E-01  0.685E-01
 -16.256  0.645E-01  0.645E-01
 -16.246  0.605E-01  0.605E-01
 -16.236  0.567E-01  0.567E-01
 -16.226  0.530E-01  0.530E-01
 -16.216  0.494E-01  0.494E-01
 -16.206  0.459E-01  0.459E-01
 -16.196  0.425E-01  0.425E-01
 -16.186  0.392E-01  0.392E-01
 -16.176  0.360E-01  0.360E-01
 -16.166  0.329E-01  0.329E-01
 -16.156  0.300E-01  0.300E-01
 -16.146  0.271E-01  0.271E-01
 -16.136  0.244E-01  0.244E-01
 -16.126  0.218E-01  0.218E-01
 -16.116  0.193E-01  0.193E-01
 -16.106  0.169E-01  0.169E-01
 -16.096  0.146E-01  0.146E-01
 -16.086  0.124E-01  0.124E-01
 -16.076  0.103E-01  0.103E-01
 -16.066  0.834E-02  0.834E-02
 -16.056  0.646E-02  0.646E-02
 -16.046  0.468E-02  0.468E-02
 -16.036  0.300E-02  0.300E-02
 -16.026  0.142E-02  0.142E-02
 -16.016 -0.776E-04 -0.776E-04
 -16.006 -0.148E-02 -0.148E-02
 -15.996 -0.279E-02 -0.279E-02
 -15.986 -0.402E-02 -0.402E-02
 -15.976 -0.517E-02 -0.517E-02
 -15.966 -0.623E-02 -0.623E-02
 -15.956 -0.721E-02 -0.721E-02
 -15.946 -0.812E-02 -0.812E-02
 -15.936 -0.896E-02 -0.896E-02
 -15.926 -0.972E-02 -0.972E-02
 -15.916 -0.104E-01 -0.104E-01
 -15.906 -0.111E-01 -0.111E-01
 -15.896 -0.116E-01 -0.116E-01
 -15.886 -0.121E-01 -0.121E-01
 -15.876 -0.126E-01 -0.126E-01
 -15.866 -0.130E-01 -0.130E-01
 -15.856 -0.133E-01 -0.133E-01
 -15.846 -0.136E-01 -0.136E-01
 -15.836 -0.139E-01 -0.139E-01
 -15.826 -0.141E-01 -0.141E-01
 -15.816 -0.142E-01 -0.142E-01
 -15.806 -0.144E-01 -0.144E-01
 -15.796 -0.144E-01 -0.144E-01
 -15.786 -0.145E-01 -0.145E-01
 -15.776 -0.145E-01 -0.145E-01
 -15.766 -0.145E-01 -0.145E-01
 -15.756 -0.145E-01 -0.145E-01
 -15.746 -0.144E-01 -0.144E-01
 -15.736 -0.143E-01 -0.143E-01
 -15.726 -0.142E-01 -0.142E-01
 -15.716 -0.141E-01 -0.141E-01
 -15.706 -0.139E-01 -0.139E-01
 -15.696 -0.138E-01 -0.138E-01
 -15.686 -0.136E-01 -0.136E-01
 -15.676 -0.134E-01 -0.134E-01
 -15.666 -0.132E-01 -0.132E-01
 -15.656 -0.130E-01 -0.130E-01
 -15.646 -0.128E-01 -0.128E-01
 -15.636 -0.126E-01 -0.126E-01
 -15.626 -0.123E-01 -0.123E-01
 -15.616 -0.121E-01 -0.121E-01
 -15.606 -0.118E-01 -0.118E-01
 -15.596 -0.116E-01 -0.116E-01
 -15.586 -0.114E-01 -0.114E-01
 -15.576 -0.111E-01 -0.111E-01
 -15.566 -0.109E-01 -0.109E-01
 -15.556 -0.106E-01 -0.106E-01
 -15.546 -0.104E-01 -0.104E-01
 -15.536 -0.102E-01 -0.102E-01
 -15.526 -0.995E-02 -0.995E-02
 -15.516 -0.973E-02 -0.973E-02
 -15.506 -0.951E-02 -0.951E-02
 -15.496 -0.930E-02 -0.930E-02
 -15.486 -0.910E-02 -0.910E-02
 -15.476 -0.891E-02 -0.891E-02
 -15.466 -0.872E-02 -0.872E-02
 -15.456 -0.854E-02 -0.854E-02
 -15.446 -0.837E-02 -0.837E-02
 -15.436 -0.821E-02 -0.821E-02
 -15.426 -0.806E-02 -0.806E-02
 -15.416 -0.792E-02 -0.792E-02
 -15.406 -0.778E-02 -0.778E-02
 -15.396 -0.766E-02 -0.766E-02
 -15.386 -0.755E-02 -0.755E-02
 -15.376 -0.745E-02 -0.745E-02
 -15.366 -0.736E-02 -0.736E-02
 -15.356 -0.728E-02 -0.728E-02
 -15.346 -0.722E-02 -0.722E-02
 -15.336 -0.716E-02 -0.716E-02
 -15.326 -0.711E-02 -0.711E-02
 -15.316 -0.708E-02 -0.708E-02
 -15.306 -0.705E-02 -0.705E-02
 -15.296 -0.704E-02 -0.704E-02
 -15.286 -0.704E-02 -0.704E-02
 -15.276 -0.705E-02 -0.705E-02
 -15.266 -0.706E-02 -0.706E-02
 -15.256 -0.709E-02 -0.709E-02
 -15.246 -0.713E-02 -0.713E-02
 -15.236 -0.718E-02 -0.718E-02
 -15.226 -0.724E-02 -0.724E-02
 -15.216 -0.731E-02 -0.731E-02
 -15.206 -0.739E-02 -0.739E-02
 -15.196 -0.748E-02 -0.748E-02
 -15.186 -0.757E-02 -0.757E-02
 -15.176 -0.768E-02 -0.768E-02
 -15.166 -0.779E-02 -0.779E-02
 -15.156 -0.791E-02 -0.791E-02
 -15.146 -0.804E-02 -0.804E-02
 -15.136 -0.817E-02 -0.817E-02
 -15.126 -0.831E-02 -0.831E-02
 -15.116 -0.845E-02 -0.845E-02
 -15.106 -0.860E-02 -0.860E-02
 -15.096 -0.876E-02 -0.876E-02
 -15.086 -0.892E-02 -0.892E-02
 -15.076 -0.908E-02 -0.908E-02
 -15.066 -0.924E-02 -0.924E-02
 -15.056 -0.940E-02 -0.940E-02
 -15.046 -0.957E-02 -0.957E-02
 -15.036 -0.973E-02 -0.973E-02
 -15.026 -0.990E-02 -0.990E-02
 -15.016 -0.101E-01 -0.101E-01
 -15.006 -0.102E-01 -0.102E-01
 -14.996 -0.104E-01 -0.104E-01
 -14.986 -0.105E-01 -0.105E-01
 -14.976 -0.107E-01 -0.107E-01
 -14.966 -0.108E-01 -0.108E-01
 -14.956 -0.109E-01 -0.109E-01
 -14.946 -0.110E-01 -0.110E-01
 -14.936 -0.112E-01 -0.112E-01
 -14.926 -0.113E-01 -0.113E-01
 -14.916 -0.113E-01 -0.113E-01
 -14.906 -0.114E-01 -0.114E-01
 -14.896 -0.115E-01 -0.115E-01
 -14.886 -0.115E-01 -0.115E-01
 -14.876 -0.115E-01 -0.115E-01
 -14.866 -0.115E-01 -0.115E-01
 -14.856 -0.115E-01 -0.115E-01
 -14.846 -0.114E-01 -0.114E-01
 -14.836 -0.113E-01 -0.113E-01
 -14.826 -0.112E-01 -0.112E-01
 -14.816 -0.111E-01 -0.111E-01
 -14.806 -0.109E-01 -0.109E-01
 -14.796 -0.107E-01 -0.107E-01
 -14.786 -0.105E-01 -0.105E-01
 -14.776 -0.102E-01 -0.102E-01
 -14.766 -0.988E-02 -0.988E-02
 -14.756 -0.953E-02 -0.953E-02
 -14.746 -0.914E-02 -0.914E-02
 -14.736 -0.870E-02 -0.870E-02
 -14.726 -0.822E-02 -0.822E-02
 -14.716 -0.769E-02 -0.769E-02
 -14.706 -0.711E-02 -0.711E-02
 -14.696 -0.648E-02 -0.648E-02
 -14.686 -0.580E-02 -0.580E-02
 -14.676 -0.506E-02 -0.506E-02
 -14.666 -0.427E-02 -0.427E-02
 -14.656 -0.342E-02 -0.342E-02
 -14.646 -0.251E-02 -0.251E-02
 -14.636 -0.154E-02 -0.154E-02
 -14.626 -0.503E-03 -0.503E-03
 -14.616  0.596E-03  0.596E-03
 -14.606  0.176E-02  0.176E-02
 -14.596  0.299E-02  0.299E-02
 -14.586  0.429E-02  0.429E-02
 -14.576  0.566E-02  0.566E-02
 -14.566  0.710E-02  0.710E-02
 -14.556  0.861E-02  0.861E-02
 -14.546  0.102E-01  0.102E-01
 -14.536  0.119E-01  0.119E-01
 -14.526  0.136E-01  0.136E-01
 -14.516  0.154E-01  0.154E-01
 -14.506  0.173E-01  0.173E-01
 -14.496  0.192E-01  0.192E-01
 -14.486  0.212E-01  0.212E-01
 -14.476  0.234E-01  0.234E-01
 -14.466  0.255E-01  0.255E-01
 -14.456  0.278E-01  0.278E-01
 -14.446  0.301E-01  0.301E-01
 -14.436  0.325E-01  0.325E-01
 -14.426  0.350E-01  0.350E-01
 -14.416  0.375E-01  0.375E-01
 -14.406  0.402E-01  0.402E-01
 -14.396  0.428E-01  0.428E-01
 -14.386  0.456E-01  0.456E-01
 -14.376  0.484E-01  0.484E-01
 -14.366  0.513E-01  0.513E-01
 -14.356  0.543E-01  0.543E-01
 -14.346  0.573E-01  0.573E-01
 -14.336  0.603E-01  0.603E-01
 -14.326  0.635E-01  0.635E-01
 -14.316  0.666E-01  0.666E-01
 -14.306  0.699E-01  0.699E-01
 -14.296  0.732E-01  0.732E-01
 -14.286  0.765E-01  0.765E-01
 -14.276  0.798E-01  0.798E-01
 -14.266  0.832E-01  0.832E-01
 -14.256  0.867E-01  0.867E-01
 -14.246  0.901E-01  0.901E-01
 -14.236  0.936E-01  0.936E-01
 -14.226  0.971E-01  0.971E-01
 -14.216  0.101E+00  0.101E+00
 -14.206  0.104E+00  0.104E+00
 -14.196  0.108E+00  0.108E+00
 -14.186  0.111E+00  0.111E+00
 -14.176  0.115E+00  0.115E+00
 -14.166  0.118E+00  0.118E+00
 -14.156  0.122E+00  0.122E+00
 -14.146  0.125E+00  0.125E+00
 -14.136  0.129E+00  0.129E+00
 -14.126  0.132E+00  0.132E+00
 -14.116  0.136E+00  0.136E+00
 -14.106  0.139E+00  0.139E+00
 -14.096  0.143E+00  0.143E+00
 -14.086  0.146E+00  0.146E+00
 -14.076  0.149E+00  0.149E+00
 -14.066  0.153E+00  0.153E+00
 -14.056  0.156E+00  0.156E+00
 -14.046  0.159E+00  0.159E+00
 -14.036  0.162E+00  0.162E+00
 -14.026  0.165E+00  0.165E+00
 -14.016  0.168E+00  0.168E+00
 -14.006  0.170E+00  0.170E+00
 -13.996  0.173E+00  0.173E+00
 -13.986  0.176E+00  0.176E+00
 -13.976  0.178E+00  0.178E+00
 -13.966  0.181E+00  0.181E+00
 -13.956  0.183E+00  0.183E+00
 -13.946  0.185E+00  0.185E+00
 -13.936  0.187E+00  0.187E+00
 -13.926  0.189E+00  0.189E+00
 -13.916  0.191E+00  0.191E+00
 -13.906  0.193E+00  0.193E+00
 -13.896  0.194E+00  0.194E+00
 -13.886  0.196E+00  0.196E+00
 -13.876  0.197E+00  0.197E+00
 -13.866  0.198E+00  0.198E+00
 -13.856  0.199E+00  0.199E+00
 -13.846  0.200E+00  0.200E+00
 -13.836  0.201E+00  0.201E+00
 -13.826  0.201E+00  0.201E+00
 -13.816  0.202E+00  0.202E+00
 -13.806  0.202E+00  0.202E+00
 -13.796  0.202E+00  0.202E+00
 -13.786  0.202E+00  0.202E+00
 -13.776  0.202E+00  0.202E+00
 -13.766  0.202E+00  0.202E+00
 -13.756  0.202E+00  0.202E+00
 -13.746  0.201E+00  0.201E+00
 -13.736  0.201E+00  0.201E+00
 -13.726  0.200E+00  0.200E+00
 -13.716  0.199E+00  0.199E+00
 -13.706  0.198E+00  0.198E+00
 -13.696  0.196E+00  0.196E+00
 -13.686  0.195E+00  0.195E+00
 -13.676  0.194E+00  0.194E+00
 -13.666  0.192E+00  0.192E+00
 -13.656  0.190E+00  0.190E+00
 -13.646  0.188E+00  0.188E+00
 -13.636  0.186E+00  0.186E+00
 -13.626  0.184E+00  0.184E+00
 -13.616  0.182E+00  0.182E+00
 -13.606  0.180E+00  0.180E+00
 -13.596  0.177E+00  0.177E+00
 -13.586  0.175E+00  0.175E+00
 -13.576  0.172E+00  0.172E+00
 -13.566  0.169E+00  0.169E+00
 -13.556  0.167E+00  0.167E+00
 -13.546  0.164E+00  0.164E+00
 -13.536  0.161E+00  0.161E+00
 -13.526  0.158E+00  0.158E+00
 -13.516  0.155E+00  0.155E+00
 -13.506  0.152E+00  0.152E+00
 -13.496  0.148E+00  0.148E+00
 -13.486  0.145E+00  0.145E+00
 -13.476  0.142E+00  0.142E+00
 -13.466  0.138E+00  0.138E+00
 -13.456  0.135E+00  0.135E+00
 -13.446  0.132E+00  0.132E+00
 -13.436  0.128E+00  0.128E+00
 -13.426  0.125E+00  0.125E+00
 -13.416  0.121E+00  0.121E+00
 -13.406  0.118E+00  0.118E+00
 -13.396  0.114E+00  0.114E+00
 -13.386  0.111E+00  0.111E+00
 -13.376  0.107E+00  0.107E+00
 -13.366  0.104E+00  0.104E+00
 -13.356  0.100E+00  0.100E+00
 -13.346  0.968E-01  0.968E-01
 -13.336  0.934E-01  0.934E-01
 -13.326  0.900E-01  0.900E-01
 -13.316  0.866E-01  0.866E-01
 -13.306  0.832E-01  0.832E-01
 -13.296  0.799E-01  0.799E-01
 -13.286  0.766E-01  0.766E-01
 -13.276  0.734E-01  0.734E-01
 -13.266  0.702E-01  0.702E-01
 -13.256  0.670E-01  0.670E-01
 -13.246  0.640E-01  0.640E-01
 -13.236  0.609E-01  0.609E-01
 -13.226  0.579E-01  0.579E-01
 -13.216  0.550E-01  0.550E-01
 -13.206  0.522E-01  0.522E-01
 -13.196  0.494E-01  0.494E-01
 -13.186  0.466E-01  0.466E-01
 -13.176  0.440E-01  0.440E-01
 -13.166  0.414E-01  0.414E-01
 -13.156  0.389E-01  0.389E-01
 -13.146  0.364E-01  0.364E-01
 -13.136  0.340E-01  0.340E-01
 -13.126  0.317E-01  0.317E-01
 -13.116  0.295E-01  0.295E-01
 -13.106  0.273E-01  0.273E-01
 -13.096  0.252E-01  0.252E-01
 -13.086  0.232E-01  0.232E-01
 -13.076  0.212E-01  0.212E-01
 -13.066  0.193E-01  0.193E-01
 -13.056  0.175E-01  0.175E-01
 -13.046  0.158E-01  0.158E-01
 -13.036  0.142E-01  0.142E-01
 -13.026  0.126E-01  0.126E-01
 -13.016  0.111E-01  0.111E-01
 -13.006  0.961E-02  0.961E-02
 -12.996  0.824E-02  0.824E-02
 -12.986  0.693E-02  0.693E-02
 -12.976  0.568E-02  0.568E-02
 -12.966  0.451E-02  0.451E-02
 -12.956  0.339E-02  0.339E-02
 -12.946  0.234E-02  0.234E-02
 -12.936  0.135E-02  0.135E-02
 -12.926  0.422E-03  0.422E-03
 -12.916 -0.450E-03 -0.450E-03
 -12.906 -0.127E-02 -0.127E-02
 -12.896 -0.203E-02 -0.203E-02
 -12.886 -0.274E-02 -0.274E-02
 -12.876 -0.339E-02 -0.339E-02
 -12.866 -0.400E-02 -0.400E-02
 -12.856 -0.456E-02 -0.456E-02
 -12.846 -0.507E-02 -0.507E-02
 -12.836 -0.554E-02 -0.554E-02
 -12.826 -0.597E-02 -0.597E-02
 -12.816 -0.635E-02 -0.635E-02
 -12.806 -0.670E-02 -0.670E-02
 -12.796 -0.701E-02 -0.701E-02
 -12.786 -0.728E-02 -0.728E-02
 -12.776 -0.752E-02 -0.752E-02
 -12.766 -0.772E-02 -0.772E-02
 -12.756 -0.790E-02 -0.790E-02
 -12.746 -0.805E-02 -0.805E-02
 -12.736 -0.817E-02 -0.817E-02
 -12.726 -0.826E-02 -0.826E-02
 -12.716 -0.833E-02 -0.833E-02
 -12.706 -0.838E-02 -0.838E-02
 -12.696 -0.841E-02 -0.841E-02
 -12.686 -0.841E-02 -0.841E-02
 -12.676 -0.840E-02 -0.840E-02
 -12.666 -0.837E-02 -0.837E-02
 -12.656 -0.833E-02 -0.833E-02
 -12.646 -0.827E-02 -0.827E-02
 -12.636 -0.820E-02 -0.820E-02
 -12.626 -0.811E-02 -0.811E-02
 -12.616 -0.802E-02 -0.802E-02
 -12.606 -0.791E-02 -0.791E-02
 -12.596 -0.780E-02 -0.780E-02
 -12.586 -0.768E-02 -0.768E-02
 -12.576 -0.755E-02 -0.755E-02
 -12.566 -0.741E-02 -0.741E-02
 -12.556 -0.727E-02 -0.727E-02
 -12.546 -0.713E-02 -0.713E-02
 -12.536 -0.698E-02 -0.698E-02
 -12.526 -0.683E-02 -0.683E-02
 -12.516 -0.668E-02 -0.668E-02
 -12.506 -0.652E-02 -0.652E-02
 -12.496 -0.636E-02 -0.636E-02
 -12.486 -0.621E-02 -0.621E-02
 -12.476 -0.605E-02 -0.605E-02
 -12.466 -0.589E-02 -0.589E-02
 -12.456 -0.574E-02 -0.574E-02
 -12.446 -0.558E-02 -0.558E-02
 -12.436 -0.543E-02 -0.543E-02
 -12.426 -0.527E-02 -0.527E-02
 -12.416 -0.512E-02 -0.512E-02
 -12.406 -0.497E-02 -0.497E-02
 -12.396 -0.483E-02 -0.483E-02
 -12.386 -0.468E-02 -0.468E-02
 -12.376 -0.454E-02 -0.454E-02
 -12.366 -0.441E-02 -0.441E-02
 -12.356 -0.427E-02 -0.427E-02
 -12.346 -0.414E-02 -0.414E-02
 -12.336 -0.401E-02 -0.401E-02
 -12.326 -0.388E-02 -0.388E-02
 -12.316 -0.376E-02 -0.376E-02
 -12.306 -0.364E-02 -0.364E-02
 -12.296 -0.352E-02 -0.352E-02
 -12.286 -0.341E-02 -0.341E-02
 -12.276 -0.330E-02 -0.330E-02
 -12.266 -0.319E-02 -0.319E-02
 -12.256 -0.309E-02 -0.309E-02
 -12.246 -0.299E-02 -0.299E-02
 -12.236 -0.289E-02 -0.289E-02
 -12.226 -0.279E-02 -0.279E-02
 -12.216 -0.270E-02 -0.270E-02
 -12.206 -0.260E-02 -0.260E-02
 -12.196 -0.251E-02 -0.251E-02
 -12.186 -0.243E-02 -0.243E-02
 -12.176 -0.234E-02 -0.234E-02
 -12.166 -0.226E-02 -0.226E-02
 -12.156 -0.218E-02 -0.218E-02
 -12.146 -0.209E-02 -0.209E-02
 -12.136 -0.202E-02 -0.202E-02
 -12.126 -0.194E-02 -0.194E-02
 -12.116 -0.186E-02 -0.186E-02
 -12.106 -0.178E-02 -0.178E-02
 -12.096 -0.171E-02 -0.171E-02
 -12.086 -0.163E-02 -0.163E-02
 -12.076 -0.156E-02 -0.156E-02
 -12.066 -0.148E-02 -0.148E-02
 -12.056 -0.141E-02 -0.141E-02
 -12.046 -0.133E-02 -0.133E-02
 -12.036 -0.126E-02 -0.126E-02
 -12.026 -0.118E-02 -0.118E-02
 -12.016 -0.110E-02 -0.110E-02
 -12.006 -0.103E-02 -0.103E-02
 -11.996 -0.950E-03 -0.950E-03
 -11.986 -0.871E-03 -0.871E-03
 -11.976 -0.791E-03 -0.791E-03
 -11.966 -0.709E-03 -0.709E-03
 -11.956 -0.626E-03 -0.626E-03
 -11.946 -0.542E-03 -0.542E-03
 -11.936 -0.456E-03 -0.456E-03
 -11.926 -0.368E-03 -0.368E-03
 -11.916 -0.279E-03 -0.279E-03
 -11.906 -0.188E-03 -0.188E-03
 -11.896 -0.941E-04 -0.941E-04
 -11.886  0.129E-05  0.129E-05
 -11.876  0.989E-04  0.989E-04
 -11.866  0.199E-03  0.199E-03
 -11.856  0.301E-03  0.301E-03
 -11.846  0.405E-03  0.405E-03
 -11.836  0.512E-03  0.512E-03
 -11.826  0.621E-03  0.621E-03
 -11.816  0.732E-03  0.732E-03
 -11.806  0.846E-03  0.846E-03
 -11.796  0.962E-03  0.962E-03
 -11.786  0.108E-02  0.108E-02
 -11.776  0.120E-02  0.120E-02
 -11.766  0.132E-02  0.132E-02
 -11.756  0.145E-02  0.145E-02
 -11.746  0.158E-02  0.158E-02
 -11.736  0.171E-02  0.171E-02
 -11.726  0.184E-02  0.184E-02
 -11.716  0.198E-02  0.198E-02
 -11.706  0.211E-02  0.211E-02
 -11.696  0.225E-02  0.225E-02
 -11.686  0.239E-02  0.239E-02
 -11.676  0.254E-02  0.254E-02
 -11.666  0.268E-02  0.268E-02
 -11.656  0.283E-02  0.283E-02
 -11.646  0.297E-02  0.297E-02
 -11.636  0.312E-02  0.312E-02
 -11.626  0.328E-02  0.328E-02
 -11.616  0.343E-02  0.343E-02
 -11.606  0.358E-02  0.358E-02
 -11.596  0.373E-02  0.373E-02
 -11.586  0.389E-02  0.389E-02
 -11.576  0.405E-02  0.405E-02
 -11.566  0.420E-02  0.420E-02
 -11.556  0.436E-02  0.436E-02
 -11.546  0.452E-02  0.452E-02
 -11.536  0.467E-02  0.467E-02
 -11.526  0.483E-02  0.483E-02
 -11.516  0.499E-02  0.499E-02
 -11.506  0.514E-02  0.514E-02
 -11.496  0.530E-02  0.530E-02
 -11.486  0.545E-02  0.545E-02
 -11.476  0.561E-02  0.561E-02
 -11.466  0.576E-02  0.576E-02
 -11.456  0.591E-02  0.591E-02
 -11.446  0.606E-02  0.606E-02
 -11.436  0.621E-02  0.621E-02
 -11.426  0.636E-02  0.636E-02
 -11.416  0.651E-02  0.651E-02
 -11.406  0.665E-02  0.665E-02
 -11.396  0.679E-02  0.679E-02
 -11.386  0.693E-02  0.693E-02
 -11.376  0.707E-02  0.707E-02
 -11.366  0.720E-02  0.720E-02
 -11.356  0.733E-02  0.733E-02
 -11.346  0.746E-02  0.746E-02
 -11.336  0.759E-02  0.759E-02
 -11.326  0.771E-02  0.771E-02
 -11.316  0.783E-02  0.783E-02
 -11.306  0.795E-02  0.795E-02
 -11.296  0.806E-02  0.806E-02
 -11.286  0.817E-02  0.817E-02
 -11.276  0.827E-02  0.827E-02
 -11.266  0.837E-02  0.837E-02
 -11.256  0.847E-02  0.847E-02
 -11.246  0.857E-02  0.857E-02
 -11.236  0.866E-02  0.866E-02
 -11.226  0.874E-02  0.874E-02
 -11.216  0.882E-02  0.882E-02
 -11.206  0.890E-02  0.890E-02
 -11.196  0.897E-02  0.897E-02
 -11.186  0.904E-02  0.904E-02
 -11.176  0.911E-02  0.911E-02
 -11.166  0.917E-02  0.917E-02
 -11.156  0.922E-02  0.922E-02
 -11.146  0.928E-02  0.928E-02
 -11.136  0.932E-02  0.932E-02
 -11.126  0.937E-02  0.937E-02
 -11.116  0.940E-02  0.940E-02
 -11.106  0.944E-02  0.944E-02
 -11.096  0.947E-02  0.947E-02
 -11.086  0.949E-02  0.949E-02
 -11.076  0.952E-02  0.952E-02
 -11.066  0.953E-02  0.953E-02
 -11.056  0.955E-02  0.955E-02
 -11.046  0.956E-02  0.956E-02
 -11.036  0.956E-02  0.956E-02
 -11.026  0.956E-02  0.956E-02
 -11.016  0.956E-02  0.956E-02
 -11.006  0.955E-02  0.955E-02
 -10.996  0.954E-02  0.954E-02
 -10.986  0.952E-02  0.952E-02
 -10.976  0.951E-02  0.951E-02
 -10.966  0.948E-02  0.948E-02
 -10.956  0.946E-02  0.946E-02
 -10.946  0.943E-02  0.943E-02
 -10.936  0.939E-02  0.939E-02
 -10.926  0.935E-02  0.935E-02
 -10.916  0.931E-02  0.931E-02
 -10.906  0.927E-02  0.927E-02
 -10.896  0.922E-02  0.922E-02
 -10.886  0.917E-02  0.917E-02
 -10.876  0.911E-02  0.911E-02
 -10.866  0.905E-02  0.905E-02
 -10.856  0.899E-02  0.899E-02
 -10.846  0.893E-02  0.893E-02
 -10.836  0.886E-02  0.886E-02
 -10.826  0.879E-02  0.879E-02
 -10.816  0.871E-02  0.871E-02
 -10.806  0.863E-02  0.863E-02
 -10.796  0.855E-02  0.855E-02
 -10.786  0.847E-02  0.847E-02
 -10.776  0.838E-02  0.838E-02
 -10.766  0.829E-02  0.829E-02
 -10.756  0.819E-02  0.819E-02
 -10.746  0.810E-02  0.810E-02
 -10.736  0.800E-02  0.800E-02
 -10.726  0.789E-02  0.789E-02
 -10.716  0.779E-02  0.779E-02
 -10.706  0.768E-02  0.768E-02
 -10.696  0.756E-02  0.756E-02
 -10.686  0.745E-02  0.745E-02
 -10.676  0.733E-02  0.733E-02
 -10.666  0.721E-02  0.721E-02
 -10.656  0.709E-02  0.709E-02
 -10.646  0.696E-02  0.696E-02
 -10.636  0.683E-02  0.683E-02
 -10.626  0.670E-02  0.670E-02
 -10.616  0.657E-02  0.657E-02
 -10.606  0.643E-02  0.643E-02
 -10.596  0.629E-02  0.629E-02
 -10.586  0.615E-02  0.615E-02
 -10.576  0.601E-02  0.601E-02
 -10.566  0.587E-02  0.587E-02
 -10.556  0.572E-02  0.572E-02
 -10.546  0.557E-02  0.557E-02
 -10.536  0.542E-02  0.542E-02
 -10.526  0.527E-02  0.527E-02
 -10.516  0.512E-02  0.512E-02
 -10.506  0.497E-02  0.497E-02
 -10.496  0.482E-02  0.482E-02
 -10.486  0.466E-02  0.466E-02
 -10.476  0.451E-02  0.451E-02
 -10.466  0.436E-02  0.436E-02
 -10.456  0.421E-02  0.421E-02
 -10.446  0.406E-02  0.406E-02
 -10.436  0.391E-02  0.391E-02
 -10.426  0.376E-02  0.376E-02
 -10.416  0.362E-02  0.362E-02
 -10.406  0.347E-02  0.347E-02
 -10.396  0.334E-02  0.334E-02
 -10.386  0.320E-02  0.320E-02
 -10.376  0.307E-02  0.307E-02
 -10.366  0.295E-02  0.295E-02
 -10.356  0.283E-02  0.283E-02
 -10.346  0.271E-02  0.271E-02
 -10.336  0.260E-02  0.260E-02
 -10.326  0.250E-02  0.250E-02
 -10.316  0.241E-02  0.241E-02
 -10.306  0.233E-02  0.233E-02
 -10.296  0.225E-02  0.225E-02
 -10.286  0.219E-02  0.219E-02
 -10.276  0.213E-02  0.213E-02
 -10.266  0.209E-02  0.209E-02
 -10.256  0.206E-02  0.206E-02
 -10.246  0.204E-02  0.204E-02
 -10.236  0.204E-02  0.204E-02
 -10.226  0.205E-02  0.205E-02
 -10.216  0.208E-02  0.208E-02
 -10.206  0.212E-02  0.212E-02
 -10.196  0.218E-02  0.218E-02
 -10.186  0.226E-02  0.226E-02
 -10.176  0.236E-02  0.236E-02
 -10.166  0.248E-02  0.248E-02
 -10.156  0.261E-02  0.261E-02
 -10.146  0.277E-02  0.277E-02
 -10.136  0.295E-02  0.295E-02
 -10.126  0.315E-02  0.315E-02
 -10.116  0.338E-02  0.338E-02
 -10.106  0.363E-02  0.363E-02
 -10.096  0.391E-02  0.391E-02
 -10.086  0.421E-02  0.421E-02
 -10.076  0.454E-02  0.454E-02
 -10.066  0.490E-02  0.490E-02
 -10.056  0.529E-02  0.529E-02
 -10.046  0.570E-02  0.570E-02
 -10.036  0.614E-02  0.614E-02
 -10.026  0.661E-02  0.661E-02
 -10.016  0.712E-02  0.712E-02
 -10.006  0.765E-02  0.765E-02
  -9.996  0.822E-02  0.822E-02
  -9.986  0.882E-02  0.882E-02
  -9.976  0.944E-02  0.944E-02
  -9.966  0.101E-01  0.101E-01
  -9.956  0.108E-01  0.108E-01
  -9.946  0.115E-01  0.115E-01
  -9.936  0.123E-01  0.123E-01
  -9.926  0.131E-01  0.131E-01
  -9.916  0.139E-01  0.139E-01
  -9.906  0.148E-01  0.148E-01
  -9.896  0.157E-01  0.157E-01
  -9.886  0.166E-01  0.166E-01
  -9.876  0.175E-01  0.175E-01
  -9.866  0.185E-01  0.185E-01
  -9.856  0.195E-01  0.195E-01
  -9.846  0.206E-01  0.206E-01
  -9.836  0.217E-01  0.217E-01
  -9.826  0.228E-01  0.228E-01
  -9.816  0.239E-01  0.239E-01
  -9.806  0.251E-01  0.251E-01
  -9.796  0.263E-01  0.263E-01
  -9.786  0.275E-01  0.275E-01
  -9.776  0.287E-01  0.287E-01
  -9.766  0.300E-01  0.300E-01
  -9.756  0.313E-01  0.313E-01
  -9.746  0.326E-01  0.326E-01
  -9.736  0.340E-01  0.340E-01
  -9.726  0.353E-01  0.353E-01
  -9.716  0.367E-01  0.367E-01
  -9.706  0.381E-01  0.381E-01
  -9.696  0.395E-01  0.395E-01
  -9.686  0.409E-01  0.409E-01
  -9.676  0.423E-01  0.423E-01
  -9.666  0.437E-01  0.437E-01
  -9.656  0.452E-01  0.452E-01
  -9.646  0.466E-01  0.466E-01
  -9.636  0.481E-01  0.481E-01
  -9.626  0.495E-01  0.495E-01
  -9.616  0.510E-01  0.510E-01
  -9.606  0.524E-01  0.524E-01
  -9.596  0.538E-01  0.538E-01
  -9.586  0.553E-01  0.553E-01
  -9.576  0.567E-01  0.567E-01
  -9.566  0.581E-01  0.581E-01
  -9.556  0.595E-01  0.595E-01
  -9.546  0.609E-01  0.609E-01
  -9.536  0.623E-01  0.623E-01
  -9.526  0.636E-01  0.636E-01
  -9.516  0.650E-01  0.650E-01
  -9.506  0.663E-01  0.663E-01
  -9.496  0.675E-01  0.675E-01
  -9.486  0.688E-01  0.688E-01
  -9.476  0.700E-01  0.700E-01
  -9.466  0.712E-01  0.712E-01
  -9.456  0.723E-01  0.723E-01
  -9.446  0.735E-01  0.735E-01
  -9.436  0.745E-01  0.745E-01
  -9.426  0.756E-01  0.756E-01
  -9.416  0.766E-01  0.766E-01
  -9.406  0.775E-01  0.775E-01
  -9.396  0.784E-01  0.784E-01
  -9.386  0.793E-01  0.793E-01
  -9.376  0.801E-01  0.801E-01
  -9.366  0.809E-01  0.809E-01
  -9.356  0.816E-01  0.816E-01
  -9.346  0.823E-01  0.823E-01
  -9.336  0.829E-01  0.829E-01
  -9.326  0.834E-01  0.834E-01
  -9.316  0.839E-01  0.839E-01
  -9.306  0.844E-01  0.844E-01
  -9.296  0.848E-01  0.848E-01
  -9.286  0.851E-01  0.851E-01
  -9.276  0.854E-01  0.854E-01
  -9.266  0.856E-01  0.856E-01
  -9.256  0.857E-01  0.857E-01
  -9.246  0.858E-01  0.858E-01
  -9.236  0.858E-01  0.858E-01
  -9.226  0.858E-01  0.858E-01
  -9.216  0.857E-01  0.857E-01
  -9.206  0.856E-01  0.856E-01
  -9.196  0.854E-01  0.854E-01
  -9.186  0.851E-01  0.851E-01
  -9.176  0.848E-01  0.848E-01
  -9.166  0.844E-01  0.844E-01
  -9.156  0.840E-01  0.840E-01
  -9.146  0.835E-01  0.835E-01
  -9.136  0.830E-01  0.830E-01
  -9.126  0.824E-01  0.824E-01
  -9.116  0.817E-01  0.817E-01
  -9.106  0.810E-01  0.810E-01
  -9.096  0.802E-01  0.802E-01
  -9.086  0.794E-01  0.794E-01
  -9.076  0.786E-01  0.786E-01
  -9.066  0.777E-01  0.777E-01
  -9.056  0.767E-01  0.767E-01
  -9.046  0.758E-01  0.758E-01
  -9.036  0.747E-01  0.747E-01
  -9.026  0.737E-01  0.737E-01
  -9.016  0.726E-01  0.726E-01
  -9.006  0.714E-01  0.714E-01
  -8.996  0.702E-01  0.702E-01
  -8.986  0.690E-01  0.690E-01
  -8.976  0.678E-01  0.678E-01
  -8.966  0.665E-01  0.665E-01
  -8.956  0.652E-01  0.652E-01
  -8.946  0.639E-01  0.639E-01
  -8.936  0.626E-01  0.626E-01
  -8.926  0.612E-01  0.612E-01
  -8.916  0.599E-01  0.599E-01
  -8.906  0.585E-01  0.585E-01
  -8.896  0.571E-01  0.571E-01
  -8.886  0.557E-01  0.557E-01
  -8.876  0.543E-01  0.543E-01
  -8.866  0.528E-01  0.528E-01
  -8.856  0.514E-01  0.514E-01
  -8.846  0.500E-01  0.500E-01
  -8.836  0.485E-01  0.485E-01
  -8.826  0.471E-01  0.471E-01
  -8.816  0.457E-01  0.457E-01
  -8.806  0.442E-01  0.442E-01
  -8.796  0.428E-01  0.428E-01
  -8.786  0.414E-01  0.414E-01
  -8.776  0.400E-01  0.400E-01
  -8.766  0.386E-01  0.386E-01
  -8.756  0.373E-01  0.373E-01
  -8.746  0.359E-01  0.359E-01
  -8.736  0.346E-01  0.346E-01
  -8.726  0.332E-01  0.332E-01
  -8.716  0.319E-01  0.319E-01
  -8.706  0.307E-01  0.307E-01
  -8.696  0.294E-01  0.294E-01
  -8.686  0.282E-01  0.282E-01
  -8.676  0.270E-01  0.270E-01
  -8.666  0.258E-01  0.258E-01
  -8.656  0.247E-01  0.247E-01
  -8.646  0.235E-01  0.235E-01
  -8.636  0.224E-01  0.224E-01
  -8.626  0.214E-01  0.214E-01
  -8.616  0.204E-01  0.204E-01
  -8.606  0.194E-01  0.194E-01
  -8.596  0.184E-01  0.184E-01
  -8.586  0.175E-01  0.175E-01
  -8.576  0.166E-01  0.166E-01
  -8.566  0.157E-01  0.157E-01
  -8.556  0.149E-01  0.149E-01
  -8.546  0.141E-01  0.141E-01
  -8.536  0.133E-01  0.133E-01
  -8.526  0.126E-01  0.126E-01
  -8.516  0.119E-01  0.119E-01
  -8.506  0.112E-01  0.112E-01
  -8.496  0.106E-01  0.106E-01
  -8.486  0.100E-01  0.100E-01
  -8.476  0.946E-02  0.946E-02
  -8.466  0.894E-02  0.894E-02
  -8.456  0.845E-02  0.845E-02
  -8.446  0.800E-02  0.800E-02
  -8.436  0.759E-02  0.759E-02
  -8.426  0.720E-02  0.720E-02
  -8.416  0.685E-02  0.685E-02
  -8.406  0.653E-02  0.653E-02
  -8.396  0.624E-02  0.624E-02
  -8.386  0.599E-02  0.599E-02
  -8.376  0.576E-02  0.576E-02
  -8.366  0.556E-02  0.556E-02
  -8.356  0.539E-02  0.539E-02
  -8.346  0.525E-02  0.525E-02
  -8.336  0.514E-02  0.514E-02
  -8.326  0.506E-02  0.506E-02
  -8.316  0.500E-02  0.500E-02
  -8.306  0.496E-02  0.496E-02
  -8.296  0.496E-02  0.496E-02
  -8.286  0.497E-02  0.497E-02
  -8.276  0.501E-02  0.501E-02
  -8.266  0.507E-02  0.507E-02
  -8.256  0.515E-02  0.515E-02
  -8.246  0.525E-02  0.525E-02
  -8.236  0.537E-02  0.537E-02
  -8.226  0.550E-02  0.550E-02
  -8.216  0.566E-02  0.566E-02
  -8.206  0.583E-02  0.583E-02
  -8.196  0.602E-02  0.602E-02
  -8.186  0.622E-02  0.622E-02
  -8.176  0.644E-02  0.644E-02
  -8.166  0.667E-02  0.667E-02
  -8.156  0.691E-02  0.691E-02
  -8.146  0.716E-02  0.716E-02
  -8.136  0.743E-02  0.743E-02
  -8.126  0.770E-02  0.770E-02
  -8.116  0.798E-02  0.798E-02
  -8.106  0.827E-02  0.827E-02
  -8.096  0.857E-02  0.857E-02
  -8.086  0.888E-02  0.888E-02
  -8.076  0.919E-02  0.919E-02
  -8.066  0.950E-02  0.950E-02
  -8.056  0.982E-02  0.982E-02
  -8.046  0.101E-01  0.101E-01
  -8.036  0.105E-01  0.105E-01
  -8.026  0.108E-01  0.108E-01
  -8.016  0.111E-01  0.111E-01
  -8.006  0.115E-01  0.115E-01
  -7.996  0.118E-01  0.118E-01
  -7.986  0.121E-01  0.121E-01
  -7.976  0.124E-01  0.124E-01
  -7.966  0.128E-01  0.128E-01
  -7.956  0.131E-01  0.131E-01
  -7.946  0.134E-01  0.134E-01
  -7.936  0.138E-01  0.138E-01
  -7.926  0.141E-01  0.141E-01
  -7.916  0.144E-01  0.144E-01
  -7.906  0.147E-01  0.147E-01
  -7.896  0.150E-01  0.150E-01
  -7.886  0.153E-01  0.153E-01
  -7.876  0.156E-01  0.156E-01
  -7.866  0.159E-01  0.159E-01
  -7.856  0.162E-01  0.162E-01
  -7.846  0.165E-01  0.165E-01
  -7.836  0.168E-01  0.168E-01
  -7.826  0.170E-01  0.170E-01
  -7.816  0.173E-01  0.173E-01
  -7.806  0.176E-01  0.176E-01
  -7.796  0.178E-01  0.178E-01
  -7.786  0.181E-01  0.181E-01
  -7.776  0.183E-01  0.183E-01
  -7.766  0.186E-01  0.186E-01
  -7.756  0.188E-01  0.188E-01
  -7.746  0.190E-01  0.190E-01
  -7.736  0.192E-01  0.192E-01
  -7.726  0.194E-01  0.194E-01
  -7.716  0.197E-01  0.197E-01
  -7.706  0.199E-01  0.199E-01
  -7.696  0.201E-01  0.201E-01
  -7.686  0.203E-01  0.203E-01
  -7.676  0.204E-01  0.204E-01
  -7.666  0.206E-01  0.206E-01
  -7.656  0.208E-01  0.208E-01
  -7.646  0.210E-01  0.210E-01
  -7.636  0.211E-01  0.211E-01
  -7.626  0.213E-01  0.213E-01
  -7.616  0.215E-01  0.215E-01
  -7.606  0.216E-01  0.216E-01
  -7.596  0.218E-01  0.218E-01
  -7.586  0.219E-01  0.219E-01
  -7.576  0.221E-01  0.221E-01
  -7.566  0.222E-01  0.222E-01
  -7.556  0.223E-01  0.223E-01
  -7.546  0.225E-01  0.225E-01
  -7.536  0.226E-01  0.226E-01
  -7.526  0.227E-01  0.227E-01
  -7.516  0.228E-01  0.228E-01
  -7.506  0.230E-01  0.230E-01
  -7.496  0.231E-01  0.231E-01
  -7.486  0.232E-01  0.232E-01
  -7.476  0.233E-01  0.233E-01
  -7.466  0.234E-01  0.234E-01
  -7.456  0.235E-01  0.235E-01
  -7.446  0.237E-01  0.237E-01
  -7.436  0.238E-01  0.238E-01
  -7.426  0.239E-01  0.239E-01
  -7.416  0.240E-01  0.240E-01
  -7.406  0.241E-01  0.241E-01
  -7.396  0.242E-01  0.242E-01
  -7.386  0.243E-01  0.243E-01
  -7.376  0.244E-01  0.244E-01
  -7.366  0.245E-01  0.245E-01
  -7.356  0.246E-01  0.246E-01
  -7.346  0.247E-01  0.247E-01
  -7.336  0.247E-01  0.247E-01
  -7.326  0.248E-01  0.248E-01
  -7.316  0.249E-01  0.249E-01
  -7.306  0.250E-01  0.250E-01
  -7.296  0.251E-01  0.251E-01
  -7.286  0.252E-01  0.252E-01
  -7.276  0.252E-01  0.252E-01
  -7.266  0.253E-01  0.253E-01
  -7.256  0.254E-01  0.254E-01
  -7.246  0.254E-01  0.254E-01
  -7.236  0.255E-01  0.255E-01
  -7.226  0.255E-01  0.255E-01
  -7.216  0.256E-01  0.256E-01
  -7.206  0.256E-01  0.256E-01
  -7.196  0.257E-01  0.257E-01
  -7.186  0.257E-01  0.257E-01
  -7.176  0.258E-01  0.258E-01
  -7.166  0.258E-01  0.258E-01
  -7.156  0.258E-01  0.258E-01
  -7.146  0.258E-01  0.258E-01
  -7.136  0.258E-01  0.258E-01
  -7.126  0.258E-01  0.258E-01
  -7.116  0.258E-01  0.258E-01
  -7.106  0.258E-01  0.258E-01
  -7.096  0.258E-01  0.258E-01
  -7.086  0.258E-01  0.258E-01
  -7.076  0.257E-01  0.257E-01
  -7.066  0.257E-01  0.257E-01
  -7.056  0.257E-01  0.257E-01
  -7.046  0.256E-01  0.256E-01
  -7.036  0.255E-01  0.255E-01
  -7.026  0.255E-01  0.255E-01
  -7.016  0.254E-01  0.254E-01
  -7.006  0.253E-01  0.253E-01
  -6.996  0.252E-01  0.252E-01
  -6.986  0.251E-01  0.251E-01
  -6.976  0.249E-01  0.249E-01
  -6.966  0.248E-01  0.248E-01
  -6.956  0.247E-01  0.247E-01
  -6.946  0.245E-01  0.245E-01
  -6.936  0.243E-01  0.243E-01
  -6.926  0.242E-01  0.242E-01
  -6.916  0.240E-01  0.240E-01
  -6.906  0.238E-01  0.238E-01
  -6.896  0.236E-01  0.236E-01
  -6.886  0.234E-01  0.234E-01
  -6.876  0.232E-01  0.232E-01
  -6.866  0.229E-01  0.229E-01
  -6.856  0.227E-01  0.227E-01
  -6.846  0.224E-01  0.224E-01
  -6.836  0.222E-01  0.222E-01
  -6.826  0.219E-01  0.219E-01
  -6.816  0.216E-01  0.216E-01
  -6.806  0.213E-01  0.213E-01
  -6.796  0.210E-01  0.210E-01
  -6.786  0.207E-01  0.207E-01
  -6.776  0.204E-01  0.204E-01
  -6.766  0.201E-01  0.201E-01
  -6.756  0.198E-01  0.198E-01
  -6.746  0.195E-01  0.195E-01
  -6.736  0.191E-01  0.191E-01
  -6.726  0.188E-01  0.188E-01
  -6.716  0.184E-01  0.184E-01
  -6.706  0.181E-01  0.181E-01
  -6.696  0.177E-01  0.177E-01
  -6.686  0.173E-01  0.173E-01
  -6.676  0.169E-01  0.169E-01
  -6.666  0.166E-01  0.166E-01
  -6.656  0.162E-01  0.162E-01
  -6.646  0.158E-01  0.158E-01
  -6.636  0.154E-01  0.154E-01
  -6.626  0.150E-01  0.150E-01
  -6.616  0.146E-01  0.146E-01
  -6.606  0.142E-01  0.142E-01
  -6.596  0.138E-01  0.138E-01
  -6.586  0.134E-01  0.134E-01
  -6.576  0.130E-01  0.130E-01
  -6.566  0.126E-01  0.126E-01
  -6.556  0.122E-01  0.122E-01
  -6.546  0.118E-01  0.118E-01
  -6.536  0.115E-01  0.115E-01
  -6.526  0.111E-01  0.111E-01
  -6.516  0.107E-01  0.107E-01
  -6.506  0.103E-01  0.103E-01
  -6.496  0.990E-02  0.990E-02
  -6.486  0.952E-02  0.952E-02
  -6.476  0.914E-02  0.914E-02
  -6.466  0.877E-02  0.877E-02
  -6.456  0.840E-02  0.840E-02
  -6.446  0.803E-02  0.803E-02
  -6.436  0.767E-02  0.767E-02
  -6.426  0.732E-02  0.732E-02
  -6.416  0.697E-02  0.697E-02
  -6.406  0.663E-02  0.663E-02
  -6.396  0.630E-02  0.630E-02
  -6.386  0.597E-02  0.597E-02
  -6.376  0.565E-02  0.565E-02
  -6.366  0.534E-02  0.534E-02
  -6.356  0.503E-02  0.503E-02
  -6.346  0.474E-02  0.474E-02
  -6.336  0.445E-02  0.445E-02
  -6.326  0.417E-02  0.417E-02
  -6.316  0.390E-02  0.390E-02
  -6.306  0.363E-02  0.363E-02
  -6.296  0.338E-02  0.338E-02
  -6.286  0.314E-02  0.314E-02
  -6.276  0.290E-02  0.290E-02
  -6.266  0.267E-02  0.267E-02
  -6.256  0.246E-02  0.246E-02
  -6.246  0.225E-02  0.225E-02
  -6.236  0.205E-02  0.205E-02
  -6.226  0.187E-02  0.187E-02
  -6.216  0.169E-02  0.169E-02
  -6.206  0.152E-02  0.152E-02
  -6.196  0.136E-02  0.136E-02
  -6.186  0.122E-02  0.122E-02
  -6.176  0.108E-02  0.108E-02
  -6.166  0.953E-03  0.953E-03
  -6.156  0.836E-03  0.836E-03
  -6.146  0.730E-03  0.730E-03
  -6.136  0.633E-03  0.633E-03
  -6.126  0.546E-03  0.546E-03
  -6.116  0.470E-03  0.470E-03
  -6.106  0.403E-03  0.403E-03
  -6.096  0.346E-03  0.346E-03
  -6.086  0.299E-03  0.299E-03
  -6.076  0.262E-03  0.262E-03
  -6.066  0.234E-03  0.234E-03
  -6.056  0.216E-03  0.216E-03
  -6.046  0.207E-03  0.207E-03
  -6.036  0.208E-03  0.208E-03
  -6.026  0.217E-03  0.217E-03
  -6.016  0.236E-03  0.236E-03
  -6.006  0.264E-03  0.264E-03
  -5.996  0.300E-03  0.300E-03
  -5.986  0.345E-03  0.345E-03
  -5.976  0.399E-03  0.399E-03
  -5.966  0.461E-03  0.461E-03
  -5.956  0.530E-03  0.530E-03
  -5.946  0.608E-03  0.608E-03
  -5.936  0.693E-03  0.693E-03
  -5.926  0.786E-03  0.786E-03
  -5.916  0.886E-03  0.886E-03
  -5.906  0.994E-03  0.994E-03
  -5.896  0.111E-02  0.111E-02
  -5.886  0.123E-02  0.123E-02
  -5.876  0.136E-02  0.136E-02
  -5.866  0.149E-02  0.149E-02
  -5.856  0.163E-02  0.163E-02
  -5.846  0.177E-02  0.177E-02
  -5.836  0.192E-02  0.192E-02
  -5.826  0.208E-02  0.208E-02
  -5.816  0.224E-02  0.224E-02
  -5.806  0.241E-02  0.241E-02
  -5.796  0.258E-02  0.258E-02
  -5.786  0.275E-02  0.275E-02
  -5.776  0.293E-02  0.293E-02
  -5.766  0.312E-02  0.312E-02
  -5.756  0.330E-02  0.330E-02
  -5.746  0.349E-02  0.349E-02
  -5.736  0.368E-02  0.368E-02
  -5.726  0.388E-02  0.388E-02
  -5.716  0.408E-02  0.408E-02
  -5.706  0.428E-02  0.428E-02
  -5.696  0.448E-02  0.448E-02
  -5.686  0.469E-02  0.469E-02
  -5.676  0.490E-02  0.490E-02
  -5.666  0.511E-02  0.511E-02
  -5.656  0.532E-02  0.532E-02
  -5.646  0.553E-02  0.553E-02
  -5.636  0.574E-02  0.574E-02
  -5.626  0.596E-02  0.596E-02
  -5.616  0.617E-02  0.617E-02
  -5.606  0.639E-02  0.639E-02
  -5.596  0.661E-02  0.661E-02
  -5.586  0.682E-02  0.682E-02
  -5.576  0.704E-02  0.704E-02
  -5.566  0.726E-02  0.726E-02
  -5.556  0.748E-02  0.748E-02
  -5.546  0.769E-02  0.769E-02
  -5.536  0.791E-02  0.791E-02
  -5.526  0.813E-02  0.813E-02
  -5.516  0.835E-02  0.835E-02
  -5.506  0.857E-02  0.857E-02
  -5.496  0.879E-02  0.879E-02
  -5.486  0.900E-02  0.900E-02
  -5.476  0.922E-02  0.922E-02
  -5.466  0.944E-02  0.944E-02
  -5.456  0.966E-02  0.966E-02
  -5.446  0.988E-02  0.988E-02
  -5.436  0.101E-01  0.101E-01
  -5.426  0.103E-01  0.103E-01
  -5.416  0.105E-01  0.105E-01
  -5.406  0.108E-01  0.108E-01
  -5.396  0.110E-01  0.110E-01
  -5.386  0.112E-01  0.112E-01
  -5.376  0.115E-01  0.115E-01
  -5.366  0.117E-01  0.117E-01
  -5.356  0.119E-01  0.119E-01
  -5.346  0.122E-01  0.122E-01
  -5.336  0.124E-01  0.124E-01
  -5.326  0.126E-01  0.126E-01
  -5.316  0.129E-01  0.129E-01
  -5.306  0.131E-01  0.131E-01
  -5.296  0.134E-01  0.134E-01
  -5.286  0.137E-01  0.137E-01
  -5.276  0.139E-01  0.139E-01
  -5.266  0.142E-01  0.142E-01
  -5.256  0.145E-01  0.145E-01
  -5.246  0.148E-01  0.148E-01
  -5.236  0.151E-01  0.151E-01
  -5.226  0.154E-01  0.154E-01
  -5.216  0.157E-01  0.157E-01
  -5.206  0.160E-01  0.160E-01
  -5.196  0.163E-01  0.163E-01
  -5.186  0.166E-01  0.166E-01
  -5.176  0.170E-01  0.170E-01
  -5.166  0.173E-01  0.173E-01
  -5.156  0.177E-01  0.177E-01
  -5.146  0.181E-01  0.181E-01
  -5.136  0.184E-01  0.184E-01
  -5.126  0.188E-01  0.188E-01
  -5.116  0.192E-01  0.192E-01
  -5.106  0.197E-01  0.197E-01
  -5.096  0.201E-01  0.201E-01
  -5.086  0.205E-01  0.205E-01
  -5.076  0.210E-01  0.210E-01
  -5.066  0.215E-01  0.215E-01
  -5.056  0.220E-01  0.220E-01
  -5.046  0.225E-01  0.225E-01
  -5.036  0.230E-01  0.230E-01
  -5.026  0.235E-01  0.235E-01
  -5.016  0.240E-01  0.240E-01
  -5.006  0.246E-01  0.246E-01
  -4.996  0.251E-01  0.251E-01
  -4.986  0.257E-01  0.257E-01
  -4.976  0.263E-01  0.263E-01
  -4.966  0.269E-01  0.269E-01
  -4.956  0.275E-01  0.275E-01
  -4.946  0.282E-01  0.282E-01
  -4.936  0.288E-01  0.288E-01
  -4.926  0.295E-01  0.295E-01
  -4.916  0.301E-01  0.301E-01
  -4.906  0.308E-01  0.308E-01
  -4.896  0.315E-01  0.315E-01
  -4.886  0.322E-01  0.322E-01
  -4.876  0.329E-01  0.329E-01
  -4.866  0.336E-01  0.336E-01
  -4.856  0.344E-01  0.344E-01
  -4.846  0.351E-01  0.351E-01
  -4.836  0.359E-01  0.359E-01
  -4.826  0.366E-01  0.366E-01
  -4.816  0.374E-01  0.374E-01
  -4.806  0.381E-01  0.381E-01
  -4.796  0.389E-01  0.389E-01
  -4.786  0.397E-01  0.397E-01
  -4.776  0.404E-01  0.404E-01
  -4.766  0.412E-01  0.412E-01
  -4.756  0.420E-01  0.420E-01
  -4.746  0.428E-01  0.428E-01
  -4.736  0.435E-01  0.435E-01
  -4.726  0.443E-01  0.443E-01
  -4.716  0.451E-01  0.451E-01
  -4.706  0.458E-01  0.458E-01
  -4.696  0.466E-01  0.466E-01
  -4.686  0.473E-01  0.473E-01
  -4.676  0.481E-01  0.481E-01
  -4.666  0.488E-01  0.488E-01
  -4.656  0.495E-01  0.495E-01
  -4.646  0.502E-01  0.502E-01
  -4.636  0.509E-01  0.509E-01
  -4.626  0.516E-01  0.516E-01
  -4.616  0.522E-01  0.522E-01
  -4.606  0.529E-01  0.529E-01
  -4.596  0.535E-01  0.535E-01
  -4.586  0.541E-01  0.541E-01
  -4.576  0.547E-01  0.547E-01
  -4.566  0.552E-01  0.552E-01
  -4.556  0.558E-01  0.558E-01
  -4.546  0.563E-01  0.563E-01
  -4.536  0.568E-01  0.568E-01
  -4.526  0.572E-01  0.572E-01
  -4.516  0.576E-01  0.576E-01
  -4.506  0.581E-01  0.581E-01
  -4.496  0.584E-01  0.584E-01
  -4.486  0.588E-01  0.588E-01
  -4.476  0.591E-01  0.591E-01
  -4.466  0.594E-01  0.594E-01
  -4.456  0.597E-01  0.597E-01
  -4.446  0.599E-01  0.599E-01
  -4.436  0.601E-01  0.601E-01
  -4.426  0.602E-01  0.602E-01
  -4.416  0.604E-01  0.604E-01
  -4.406  0.605E-01  0.605E-01
  -4.396  0.605E-01  0.605E-01
  -4.386  0.606E-01  0.606E-01
  -4.376  0.606E-01  0.606E-01
  -4.366  0.605E-01  0.605E-01
  -4.356  0.604E-01  0.604E-01
  -4.346  0.603E-01  0.603E-01
  -4.336  0.602E-01  0.602E-01
  -4.326  0.600E-01  0.600E-01
  -4.316  0.598E-01  0.598E-01
  -4.306  0.596E-01  0.596E-01
  -4.296  0.593E-01  0.593E-01
  -4.286  0.590E-01  0.590E-01
  -4.276  0.587E-01  0.587E-01
  -4.266  0.583E-01  0.583E-01
  -4.256  0.579E-01  0.579E-01
  -4.246  0.575E-01  0.575E-01
  -4.236  0.570E-01  0.570E-01
  -4.226  0.565E-01  0.565E-01
  -4.216  0.560E-01  0.560E-01
  -4.206  0.555E-01  0.555E-01
  -4.196  0.549E-01  0.549E-01
  -4.186  0.544E-01  0.544E-01
  -4.176  0.538E-01  0.538E-01
  -4.166  0.531E-01  0.531E-01
  -4.156  0.525E-01  0.525E-01
  -4.146  0.518E-01  0.518E-01
  -4.136  0.511E-01  0.511E-01
  -4.126  0.504E-01  0.504E-01
  -4.116  0.497E-01  0.497E-01
  -4.106  0.490E-01  0.490E-01
  -4.096  0.482E-01  0.482E-01
  -4.086  0.474E-01  0.474E-01
  -4.076  0.467E-01  0.467E-01
  -4.066  0.459E-01  0.459E-01
  -4.056  0.451E-01  0.451E-01
  -4.046  0.443E-01  0.443E-01
  -4.036  0.435E-01  0.435E-01
  -4.026  0.427E-01  0.427E-01
  -4.016  0.418E-01  0.418E-01
  -4.006  0.410E-01  0.410E-01
  -3.996  0.402E-01  0.402E-01
  -3.986  0.394E-01  0.394E-01
  -3.976  0.385E-01  0.385E-01
  -3.966  0.377E-01  0.377E-01
  -3.956  0.369E-01  0.369E-01
  -3.946  0.361E-01  0.361E-01
  -3.936  0.353E-01  0.353E-01
  -3.926  0.345E-01  0.345E-01
  -3.916  0.337E-01  0.337E-01
  -3.906  0.329E-01  0.329E-01
  -3.896  0.321E-01  0.321E-01
  -3.886  0.314E-01  0.314E-01
  -3.876  0.306E-01  0.306E-01
  -3.866  0.299E-01  0.299E-01
  -3.856  0.291E-01  0.291E-01
  -3.846  0.284E-01  0.284E-01
  -3.836  0.277E-01  0.277E-01
  -3.826  0.270E-01  0.270E-01
  -3.816  0.263E-01  0.263E-01
  -3.806  0.257E-01  0.257E-01
  -3.796  0.250E-01  0.250E-01
  -3.786  0.244E-01  0.244E-01
  -3.776  0.238E-01  0.238E-01
  -3.766  0.232E-01  0.232E-01
  -3.756  0.226E-01  0.226E-01
  -3.746  0.220E-01  0.220E-01
  -3.736  0.215E-01  0.215E-01
  -3.726  0.209E-01  0.209E-01
  -3.716  0.204E-01  0.204E-01
  -3.706  0.199E-01  0.199E-01
  -3.696  0.194E-01  0.194E-01
  -3.686  0.190E-01  0.190E-01
  -3.676  0.185E-01  0.185E-01
  -3.666  0.181E-01  0.181E-01
  -3.656  0.177E-01  0.177E-01
  -3.646  0.173E-01  0.173E-01
  -3.636  0.169E-01  0.169E-01
  -3.626  0.166E-01  0.166E-01
  -3.616  0.162E-01  0.162E-01
  -3.606  0.159E-01  0.159E-01
  -3.596  0.156E-01  0.156E-01
  -3.586  0.153E-01  0.153E-01
  -3.576  0.150E-01  0.150E-01
  -3.566  0.147E-01  0.147E-01
  -3.556  0.145E-01  0.145E-01
  -3.546  0.142E-01  0.142E-01
  -3.536  0.140E-01  0.140E-01
  -3.526  0.138E-01  0.138E-01
  -3.516  0.136E-01  0.136E-01
  -3.506  0.134E-01  0.134E-01
  -3.496  0.132E-01  0.132E-01
  -3.486  0.130E-01  0.130E-01
  -3.476  0.129E-01  0.129E-01
  -3.466  0.127E-01  0.127E-01
  -3.456  0.126E-01  0.126E-01
  -3.446  0.125E-01  0.125E-01
  -3.436  0.123E-01  0.123E-01
  -3.426  0.122E-01  0.122E-01
  -3.416  0.121E-01  0.121E-01
  -3.406  0.120E-01  0.120E-01
  -3.396  0.119E-01  0.119E-01
  -3.386  0.118E-01  0.118E-01
  -3.376  0.117E-01  0.117E-01
  -3.366  0.116E-01  0.116E-01
  -3.356  0.115E-01  0.115E-01
  -3.346  0.115E-01  0.115E-01
  -3.336  0.114E-01  0.114E-01
  -3.326  0.113E-01  0.113E-01
  -3.316  0.112E-01  0.112E-01
  -3.306  0.112E-01  0.112E-01
  -3.296  0.111E-01  0.111E-01
  -3.286  0.110E-01  0.110E-01
  -3.276  0.110E-01  0.110E-01
  -3.266  0.109E-01  0.109E-01
  -3.256  0.108E-01  0.108E-01
  -3.246  0.108E-01  0.108E-01
  -3.236  0.107E-01  0.107E-01
  -3.226  0.106E-01  0.106E-01
  -3.216  0.106E-01  0.106E-01
  -3.206  0.105E-01  0.105E-01
  -3.196  0.104E-01  0.104E-01
  -3.186  0.103E-01  0.103E-01
  -3.176  0.103E-01  0.103E-01
  -3.166  0.102E-01  0.102E-01
  -3.156  0.101E-01  0.101E-01
  -3.146  0.100E-01  0.100E-01
  -3.136  0.992E-02  0.992E-02
  -3.126  0.983E-02  0.983E-02
  -3.116  0.973E-02  0.973E-02
  -3.106  0.963E-02  0.963E-02
  -3.096  0.953E-02  0.953E-02
  -3.086  0.943E-02  0.943E-02
  -3.076  0.932E-02  0.932E-02
  -3.066  0.921E-02  0.921E-02
  -3.056  0.909E-02  0.909E-02
  -3.046  0.897E-02  0.897E-02
  -3.036  0.885E-02  0.885E-02
  -3.026  0.873E-02  0.873E-02
  -3.016  0.860E-02  0.860E-02
  -3.006  0.847E-02  0.847E-02
  -2.996  0.834E-02  0.834E-02
  -2.986  0.820E-02  0.820E-02
  -2.976  0.807E-02  0.807E-02
  -2.966  0.792E-02  0.792E-02
  -2.956  0.778E-02  0.778E-02
  -2.946  0.764E-02  0.764E-02
  -2.936  0.749E-02  0.749E-02
  -2.926  0.734E-02  0.734E-02
  -2.916  0.719E-02  0.719E-02
  -2.906  0.703E-02  0.703E-02
  -2.896  0.688E-02  0.688E-02
  -2.886  0.672E-02  0.672E-02
  -2.876  0.657E-02  0.657E-02
  -2.866  0.641E-02  0.641E-02
  -2.856  0.625E-02  0.625E-02
  -2.846  0.609E-02  0.609E-02
  -2.836  0.594E-02  0.594E-02
  -2.826  0.578E-02  0.578E-02
  -2.816  0.562E-02  0.562E-02
  -2.806  0.547E-02  0.547E-02
  -2.796  0.531E-02  0.531E-02
  -2.786  0.516E-02  0.516E-02
  -2.776  0.500E-02  0.500E-02
  -2.766  0.485E-02  0.485E-02
  -2.756  0.470E-02  0.470E-02
  -2.746  0.456E-02  0.456E-02
  -2.736  0.441E-02  0.441E-02
  -2.726  0.427E-02  0.427E-02
  -2.716  0.413E-02  0.413E-02
  -2.706  0.400E-02  0.400E-02
  -2.696  0.387E-02  0.387E-02
  -2.686  0.374E-02  0.374E-02
  -2.676  0.362E-02  0.362E-02
  -2.666  0.350E-02  0.350E-02
  -2.656  0.339E-02  0.339E-02
  -2.646  0.328E-02  0.328E-02
  -2.636  0.318E-02  0.318E-02
  -2.626  0.309E-02  0.309E-02
  -2.616  0.300E-02  0.300E-02
  -2.606  0.292E-02  0.292E-02
  -2.596  0.284E-02  0.284E-02
  -2.586  0.277E-02  0.277E-02
  -2.576  0.271E-02  0.271E-02
  -2.566  0.266E-02  0.266E-02
  -2.556  0.261E-02  0.261E-02
  -2.546  0.257E-02  0.257E-02
  -2.536  0.254E-02  0.254E-02
  -2.526  0.252E-02  0.252E-02
  -2.516  0.251E-02  0.251E-02
  -2.506  0.251E-02  0.251E-02
  -2.496  0.251E-02  0.251E-02
  -2.486  0.253E-02  0.253E-02
  -2.476  0.255E-02  0.255E-02
  -2.466  0.259E-02  0.259E-02
  -2.456  0.263E-02  0.263E-02
  -2.446  0.269E-02  0.269E-02
  -2.436  0.276E-02  0.276E-02
  -2.426  0.283E-02  0.283E-02
  -2.416  0.292E-02  0.292E-02
  -2.406  0.302E-02  0.302E-02
  -2.396  0.313E-02  0.313E-02
  -2.386  0.325E-02  0.325E-02
  -2.376  0.339E-02  0.339E-02
  -2.366  0.353E-02  0.353E-02
  -2.356  0.369E-02  0.369E-02
  -2.346  0.385E-02  0.385E-02
  -2.336  0.403E-02  0.403E-02
  -2.326  0.422E-02  0.422E-02
  -2.316  0.443E-02  0.443E-02
  -2.306  0.464E-02  0.464E-02
  -2.296  0.486E-02  0.486E-02
  -2.286  0.510E-02  0.510E-02
  -2.276  0.535E-02  0.535E-02
  -2.266  0.561E-02  0.561E-02
  -2.256  0.588E-02  0.588E-02
  -2.246  0.616E-02  0.616E-02
  -2.236  0.646E-02  0.646E-02
  -2.226  0.676E-02  0.676E-02
  -2.216  0.708E-02  0.708E-02
  -2.206  0.741E-02  0.741E-02
  -2.196  0.774E-02  0.774E-02
  -2.186  0.809E-02  0.809E-02
  -2.176  0.845E-02  0.845E-02
  -2.166  0.881E-02  0.881E-02
  -2.156  0.919E-02  0.919E-02
  -2.146  0.957E-02  0.957E-02
  -2.136  0.997E-02  0.997E-02
  -2.126  0.104E-01  0.104E-01
  -2.116  0.108E-01  0.108E-01
  -2.106  0.112E-01  0.112E-01
  -2.096  0.116E-01  0.116E-01
  -2.086  0.121E-01  0.121E-01
  -2.076  0.125E-01  0.125E-01
  -2.066  0.129E-01  0.129E-01
  -2.056  0.134E-01  0.134E-01
  -2.046  0.138E-01  0.138E-01
  -2.036  0.143E-01  0.143E-01
  -2.026  0.148E-01  0.148E-01
  -2.016  0.152E-01  0.152E-01
  -2.006  0.157E-01  0.157E-01
  -1.996  0.162E-01  0.162E-01
  -1.986  0.166E-01  0.166E-01
  -1.976  0.171E-01  0.171E-01
  -1.966  0.176E-01  0.176E-01
  -1.956  0.181E-01  0.181E-01
  -1.946  0.185E-01  0.185E-01
  -1.936  0.190E-01  0.190E-01
  -1.926  0.195E-01  0.195E-01
  -1.916  0.200E-01  0.200E-01
  -1.906  0.204E-01  0.204E-01
  -1.896  0.209E-01  0.209E-01
  -1.886  0.214E-01  0.214E-01
  -1.876  0.218E-01  0.218E-01
  -1.866  0.223E-01  0.223E-01
  -1.856  0.227E-01  0.227E-01
  -1.846  0.231E-01  0.231E-01
  -1.836  0.236E-01  0.236E-01
  -1.826  0.240E-01  0.240E-01
  -1.816  0.244E-01  0.244E-01
  -1.806  0.248E-01  0.248E-01
  -1.796  0.252E-01  0.252E-01
  -1.786  0.256E-01  0.256E-01
  -1.776  0.260E-01  0.260E-01
  -1.766  0.263E-01  0.263E-01
  -1.756  0.267E-01  0.267E-01
  -1.746  0.270E-01  0.270E-01
  -1.736  0.273E-01  0.273E-01
  -1.726  0.277E-01  0.277E-01
  -1.716  0.280E-01  0.280E-01
  -1.706  0.282E-01  0.282E-01
  -1.696  0.285E-01  0.285E-01
  -1.686  0.288E-01  0.288E-01
  -1.676  0.290E-01  0.290E-01
  -1.666  0.292E-01  0.292E-01
  -1.656  0.295E-01  0.295E-01
  -1.646  0.296E-01  0.296E-01
  -1.636  0.298E-01  0.298E-01
  -1.626  0.300E-01  0.300E-01
  -1.616  0.301E-01  0.301E-01
  -1.606  0.303E-01  0.303E-01
  -1.596  0.304E-01  0.304E-01
  -1.586  0.305E-01  0.305E-01
  -1.576  0.305E-01  0.305E-01
  -1.566  0.306E-01  0.306E-01
  -1.556  0.306E-01  0.306E-01
  -1.546  0.306E-01  0.306E-01
  -1.536  0.306E-01  0.306E-01
  -1.526  0.306E-01  0.306E-01
  -1.516  0.306E-01  0.306E-01
  -1.506  0.305E-01  0.305E-01
  -1.496  0.305E-01  0.305E-01
  -1.486  0.304E-01  0.304E-01
  -1.476  0.303E-01  0.303E-01
  -1.466  0.302E-01  0.302E-01
  -1.456  0.300E-01  0.300E-01
  -1.446  0.299E-01  0.299E-01
  -1.436  0.297E-01  0.297E-01
  -1.426  0.295E-01  0.295E-01
  -1.416  0.293E-01  0.293E-01
  -1.406  0.291E-01  0.291E-01
  -1.396  0.289E-01  0.289E-01
  -1.386  0.286E-01  0.286E-01
  -1.376  0.284E-01  0.284E-01
  -1.366  0.281E-01  0.281E-01
  -1.356  0.278E-01  0.278E-01
  -1.346  0.275E-01  0.275E-01
  -1.336  0.272E-01  0.272E-01
  -1.326  0.269E-01  0.269E-01
  -1.316  0.266E-01  0.266E-01
  -1.306  0.262E-01  0.262E-01
  -1.296  0.259E-01  0.259E-01
  -1.286  0.255E-01  0.255E-01
  -1.276  0.251E-01  0.251E-01
  -1.266  0.247E-01  0.247E-01
  -1.256  0.243E-01  0.243E-01
  -1.246  0.239E-01  0.239E-01
  -1.236  0.235E-01  0.235E-01
  -1.226  0.231E-01  0.231E-01
  -1.216  0.227E-01  0.227E-01
  -1.206  0.223E-01  0.223E-01
  -1.196  0.218E-01  0.218E-01
  -1.186  0.214E-01  0.214E-01
  -1.176  0.210E-01  0.210E-01
  -1.166  0.205E-01  0.205E-01
  -1.156  0.201E-01  0.201E-01
  -1.146  0.196E-01  0.196E-01
  -1.136  0.192E-01  0.192E-01
  -1.126  0.187E-01  0.187E-01
  -1.116  0.183E-01  0.183E-01
  -1.106  0.178E-01  0.178E-01
  -1.096  0.174E-01  0.174E-01
  -1.086  0.169E-01  0.169E-01
  -1.076  0.165E-01  0.165E-01
  -1.066  0.161E-01  0.161E-01
  -1.056  0.156E-01  0.156E-01
  -1.046  0.152E-01  0.152E-01
  -1.036  0.147E-01  0.147E-01
  -1.026  0.143E-01  0.143E-01
  -1.016  0.139E-01  0.139E-01
  -1.006  0.134E-01  0.134E-01
  -0.996  0.130E-01  0.130E-01
  -0.986  0.126E-01  0.126E-01
  -0.976  0.122E-01  0.122E-01
  -0.966  0.118E-01  0.118E-01
  -0.956  0.114E-01  0.114E-01
  -0.946  0.110E-01  0.110E-01
  -0.936  0.106E-01  0.106E-01
  -0.926  0.102E-01  0.102E-01
  -0.916  0.984E-02  0.984E-02
  -0.906  0.947E-02  0.947E-02
  -0.896  0.911E-02  0.911E-02
  -0.886  0.876E-02  0.876E-02
  -0.876  0.841E-02  0.841E-02
  -0.866  0.807E-02  0.807E-02
  -0.856  0.773E-02  0.773E-02
  -0.846  0.741E-02  0.741E-02
  -0.836  0.709E-02  0.709E-02
  -0.826  0.678E-02  0.678E-02
  -0.816  0.648E-02  0.648E-02
  -0.806  0.618E-02  0.618E-02
  -0.796  0.589E-02  0.589E-02
  -0.786  0.561E-02  0.561E-02
  -0.776  0.534E-02  0.534E-02
  -0.766  0.508E-02  0.508E-02
  -0.756  0.482E-02  0.482E-02
  -0.746  0.457E-02  0.457E-02
  -0.736  0.433E-02  0.433E-02
  -0.726  0.409E-02  0.409E-02
  -0.716  0.386E-02  0.386E-02
  -0.706  0.364E-02  0.364E-02
  -0.696  0.343E-02  0.343E-02
  -0.686  0.322E-02  0.322E-02
  -0.676  0.302E-02  0.302E-02
  -0.666  0.283E-02  0.283E-02
  -0.656  0.264E-02  0.264E-02
  -0.646  0.246E-02  0.246E-02
  -0.636  0.229E-02  0.229E-02
  -0.626  0.212E-02  0.212E-02
  -0.616  0.196E-02  0.196E-02
  -0.606  0.180E-02  0.180E-02
  -0.596  0.165E-02  0.165E-02
  -0.586  0.151E-02  0.151E-02
  -0.576  0.137E-02  0.137E-02
  -0.566  0.123E-02  0.123E-02
  -0.556  0.110E-02  0.110E-02
  -0.546  0.979E-03  0.979E-03
  -0.536  0.860E-03  0.860E-03
  -0.526  0.745E-03  0.745E-03
  -0.516  0.635E-03  0.635E-03
  -0.506  0.529E-03  0.529E-03
  -0.496  0.428E-03  0.428E-03
  -0.486  0.330E-03  0.330E-03
  -0.476  0.236E-03  0.236E-03
  -0.466  0.146E-03  0.146E-03
  -0.456  0.600E-04  0.600E-04
  -0.446 -0.227E-04 -0.227E-04
  -0.436 -0.102E-03 -0.102E-03
  -0.426 -0.178E-03 -0.178E-03
  -0.416 -0.251E-03 -0.251E-03
  -0.406 -0.320E-03 -0.320E-03
  -0.396 -0.387E-03 -0.387E-03
  -0.386 -0.451E-03 -0.451E-03
  -0.376 -0.512E-03 -0.512E-03
  -0.366 -0.570E-03 -0.570E-03
  -0.356 -0.626E-03 -0.626E-03
  -0.346 -0.678E-03 -0.678E-03
  -0.336 -0.729E-03 -0.729E-03
  -0.326 -0.777E-03 -0.777E-03
  -0.316 -0.822E-03 -0.822E-03
  -0.306 -0.865E-03 -0.865E-03
  -0.296 -0.905E-03 -0.905E-03
  -0.286 -0.943E-03 -0.943E-03
  -0.276 -0.979E-03 -0.979E-03
  -0.266 -0.101E-02 -0.101E-02
  -0.256 -0.104E-02 -0.104E-02
  -0.246 -0.107E-02 -0.107E-02
  -0.236 -0.110E-02 -0.110E-02
  -0.226 -0.112E-02 -0.112E-02
  -0.216 -0.114E-02 -0.114E-02
  -0.206 -0.116E-02 -0.116E-02
  -0.196 -0.118E-02 -0.118E-02
  -0.186 -0.119E-02 -0.119E-02
  -0.176 -0.120E-02 -0.120E-02
  -0.166 -0.121E-02 -0.121E-02
  -0.156 -0.121E-02 -0.121E-02
  -0.146 -0.122E-02 -0.122E-02
  -0.136 -0.122E-02 -0.122E-02
  -0.126 -0.121E-02 -0.121E-02
  -0.116 -0.120E-02 -0.120E-02
  -0.106 -0.119E-02 -0.119E-02
  -0.096 -0.118E-02 -0.118E-02
  -0.086 -0.116E-02 -0.116E-02
  -0.076 -0.114E-02 -0.114E-02
  -0.066 -0.111E-02 -0.111E-02
  -0.056 -0.108E-02 -0.108E-02
  -0.046 -0.105E-02 -0.105E-02
  -0.036 -0.101E-02 -0.101E-02
  -0.026 -0.963E-03 -0.963E-03
  -0.016 -0.915E-03 -0.915E-03
  -0.006 -0.861E-03 -0.861E-03
   0.004 -0.802E-03 -0.802E-03
   0.014 -0.737E-03 -0.737E-03
   0.024 -0.667E-03 -0.667E-03
   0.034 -0.591E-03 -0.591E-03
   0.044 -0.509E-03 -0.509E-03
   0.054 -0.420E-03 -0.420E-03
   0.064 -0.326E-03 -0.326E-03
   0.074 -0.224E-03 -0.224E-03
   0.084 -0.115E-03 -0.115E-03
   0.094  0.269E-06  0.269E-06
   0.104  0.123E-03  0.123E-03
   0.114  0.254E-03  0.254E-03
   0.124  0.393E-03  0.393E-03
   0.134  0.539E-03  0.539E-03
   0.144  0.694E-03  0.694E-03
   0.154  0.857E-03  0.857E-03
   0.164  0.103E-02  0.103E-02
   0.174  0.121E-02  0.121E-02
   0.184  0.140E-02  0.140E-02
   0.194  0.160E-02  0.160E-02
   0.204  0.181E-02  0.181E-02
   0.214  0.203E-02  0.203E-02
   0.224  0.226E-02  0.226E-02
   0.234  0.250E-02  0.250E-02
   0.244  0.275E-02  0.275E-02
   0.254  0.300E-02  0.300E-02
   0.264  0.328E-02  0.328E-02
   0.274  0.356E-02  0.356E-02
   0.284  0.385E-02  0.385E-02
   0.294  0.415E-02  0.415E-02
   0.304  0.447E-02  0.447E-02
   0.314  0.479E-02  0.479E-02
   0.324  0.513E-02  0.513E-02
   0.334  0.548E-02  0.548E-02
   0.344  0.584E-02  0.584E-02
   0.354  0.621E-02  0.621E-02
   0.364  0.659E-02  0.659E-02
   0.374  0.699E-02  0.699E-02
   0.384  0.740E-02  0.740E-02
   0.394  0.782E-02  0.782E-02
   0.404  0.825E-02  0.825E-02
   0.414  0.869E-02  0.869E-02
   0.424  0.915E-02  0.915E-02
   0.434  0.961E-02  0.961E-02
   0.444  0.101E-01  0.101E-01
   0.454  0.106E-01  0.106E-01
   0.464  0.111E-01  0.111E-01
   0.474  0.116E-01  0.116E-01
   0.484  0.121E-01  0.121E-01
   0.494  0.127E-01  0.127E-01
   0.504  0.132E-01  0.132E-01
   0.514  0.138E-01  0.138E-01
   0.524  0.143E-01  0.143E-01
   0.534  0.149E-01  0.149E-01
   0.544  0.155E-01  0.155E-01
   0.554  0.161E-01  0.161E-01
   0.564  0.167E-01  0.167E-01
   0.574  0.173E-01  0.173E-01
   0.584  0.179E-01  0.179E-01
   0.594  0.186E-01  0.186E-01
   0.604  0.192E-01  0.192E-01
   0.614  0.198E-01  0.198E-01
   0.624  0.205E-01  0.205E-01
   0.634  0.212E-01  0.212E-01
   0.644  0.218E-01  0.218E-01
   0.654  0.225E-01  0.225E-01
   0.664  0.232E-01  0.232E-01
   0.674  0.239E-01  0.239E-01
   0.684  0.246E-01  0.246E-01
   0.694  0.253E-01  0.253E-01
   0.704  0.260E-01  0.260E-01
   0.714  0.267E-01  0.267E-01
   0.724  0.274E-01  0.274E-01
   0.734  0.281E-01  0.281E-01
   0.744  0.288E-01  0.288E-01
   0.754  0.295E-01  0.295E-01
   0.764  0.302E-01  0.302E-01
   0.774  0.309E-01  0.309E-01
   0.784  0.316E-01  0.316E-01
   0.794  0.324E-01  0.324E-01
   0.804  0.331E-01  0.331E-01
   0.814  0.338E-01  0.338E-01
   0.824  0.345E-01  0.345E-01
   0.834  0.352E-01  0.352E-01
   0.844  0.359E-01  0.359E-01
   0.854  0.366E-01  0.366E-01
   0.864  0.372E-01  0.372E-01
   0.874  0.379E-01  0.379E-01
   0.884  0.386E-01  0.386E-01
   0.894  0.393E-01  0.393E-01
   0.904  0.399E-01  0.399E-01
   0.914  0.406E-01  0.406E-01
   0.924  0.412E-01  0.412E-01
   0.934  0.419E-01  0.419E-01
   0.944  0.425E-01  0.425E-01
   0.954  0.431E-01  0.431E-01
   0.964  0.437E-01  0.437E-01
   0.974  0.443E-01  0.443E-01
   0.984  0.448E-01  0.448E-01
   0.994  0.454E-01  0.454E-01
   1.004  0.460E-01  0.460E-01
   1.014  0.465E-01  0.465E-01
   1.024  0.470E-01  0.470E-01
   1.034  0.475E-01  0.475E-01
   1.044  0.480E-01  0.480E-01
   1.054  0.485E-01  0.485E-01
   1.064  0.489E-01  0.489E-01
   1.074  0.494E-01  0.494E-01
   1.084  0.498E-01  0.498E-01
   1.094  0.502E-01  0.502E-01
   1.104  0.506E-01  0.506E-01
   1.114  0.510E-01  0.510E-01
   1.124  0.513E-01  0.513E-01
   1.134  0.516E-01  0.516E-01
   1.144  0.519E-01  0.519E-01
   1.154  0.522E-01  0.522E-01
   1.164  0.525E-01  0.525E-01
   1.174  0.528E-01  0.528E-01
   1.184  0.530E-01  0.530E-01
   1.194  0.532E-01  0.532E-01
   1.204  0.534E-01  0.534E-01
   1.214  0.535E-01  0.535E-01
   1.224  0.537E-01  0.537E-01
   1.234  0.538E-01  0.538E-01
   1.244  0.539E-01  0.539E-01
   1.254  0.540E-01  0.540E-01
   1.264  0.540E-01  0.540E-01
   1.274  0.541E-01  0.541E-01
   1.284  0.541E-01  0.541E-01
   1.294  0.541E-01  0.541E-01
   1.304  0.540E-01  0.540E-01
   1.314  0.540E-01  0.540E-01
   1.324  0.539E-01  0.539E-01
   1.334  0.538E-01  0.538E-01
   1.344  0.537E-01  0.537E-01
   1.354  0.535E-01  0.535E-01
   1.364  0.534E-01  0.534E-01
   1.374  0.532E-01  0.532E-01
   1.384  0.530E-01  0.530E-01
   1.394  0.528E-01  0.528E-01
   1.404  0.525E-01  0.525E-01
   1.414  0.522E-01  0.522E-01
   1.424  0.520E-01  0.520E-01
   1.434  0.517E-01  0.517E-01
   1.444  0.513E-01  0.513E-01
   1.454  0.510E-01  0.510E-01
   1.464  0.506E-01  0.506E-01
   1.474  0.502E-01  0.502E-01
   1.484  0.498E-01  0.498E-01
   1.494  0.494E-01  0.494E-01
   1.504  0.490E-01  0.490E-01
   1.514  0.485E-01  0.485E-01
   1.524  0.481E-01  0.481E-01
   1.534  0.476E-01  0.476E-01
   1.544  0.471E-01  0.471E-01
   1.554  0.466E-01  0.466E-01
   1.564  0.461E-01  0.461E-01
   1.574  0.455E-01  0.455E-01
   1.584  0.450E-01  0.450E-01
   1.594  0.444E-01  0.444E-01
   1.604  0.439E-01  0.439E-01
   1.614  0.433E-01  0.433E-01
   1.624  0.427E-01  0.427E-01
   1.634  0.421E-01  0.421E-01
   1.644  0.415E-01  0.415E-01
   1.654  0.409E-01  0.409E-01
   1.664  0.403E-01  0.403E-01
   1.674  0.396E-01  0.396E-01
   1.684  0.390E-01  0.390E-01
   1.694  0.384E-01  0.384E-01
   1.704  0.377E-01  0.377E-01
   1.714  0.371E-01  0.371E-01
   1.724  0.364E-01  0.364E-01
   1.734  0.358E-01  0.358E-01
   1.744  0.351E-01  0.351E-01
   1.754  0.344E-01  0.344E-01
   1.764  0.338E-01  0.338E-01
   1.774  0.331E-01  0.331E-01
   1.784  0.325E-01  0.325E-01
   1.794  0.318E-01  0.318E-01
   1.804  0.312E-01  0.312E-01
   1.814  0.305E-01  0.305E-01
   1.824  0.299E-01  0.299E-01
   1.834  0.292E-01  0.292E-01
   1.844  0.286E-01  0.286E-01
   1.854  0.279E-01  0.279E-01
   1.864  0.273E-01  0.273E-01
   1.874  0.267E-01  0.267E-01
   1.884  0.261E-01  0.261E-01
   1.894  0.255E-01  0.255E-01
   1.904  0.249E-01  0.249E-01
   1.914  0.243E-01  0.243E-01
   1.924  0.237E-01  0.237E-01
   1.934  0.231E-01  0.231E-01
   1.944  0.225E-01  0.225E-01
   1.954  0.220E-01  0.220E-01
   1.964  0.214E-01  0.214E-01
   1.974  0.209E-01  0.209E-01
   1.984  0.204E-01  0.204E-01
   1.994  0.198E-01  0.198E-01
   2.004  0.193E-01  0.193E-01
   2.014  0.189E-01  0.189E-01
   2.024  0.184E-01  0.184E-01
   2.034  0.179E-01  0.179E-01
   2.044  0.175E-01  0.175E-01
   2.054  0.170E-01  0.170E-01
   2.064  0.166E-01  0.166E-01
   2.074  0.162E-01  0.162E-01
   2.084  0.158E-01  0.158E-01
   2.094  0.154E-01  0.154E-01
   2.104  0.151E-01  0.151E-01
   2.114  0.147E-01  0.147E-01
   2.124  0.144E-01  0.144E-01
   2.134  0.141E-01  0.141E-01
   2.144  0.138E-01  0.138E-01
   2.154  0.135E-01  0.135E-01
   2.164  0.132E-01  0.132E-01
   2.174  0.130E-01  0.130E-01
   2.184  0.127E-01  0.127E-01
   2.194  0.125E-01  0.125E-01
   2.204  0.123E-01  0.123E-01
   2.214  0.121E-01  0.121E-01
   2.224  0.119E-01  0.119E-01
   2.234  0.118E-01  0.118E-01
   2.244  0.116E-01  0.116E-01
   2.254  0.115E-01  0.115E-01
   2.264  0.114E-01  0.114E-01
   2.274  0.113E-01  0.113E-01
   2.284  0.112E-01  0.112E-01
   2.294  0.112E-01  0.112E-01
   2.304  0.111E-01  0.111E-01
   2.314  0.111E-01  0.111E-01
   2.324  0.111E-01  0.111E-01
   2.334  0.111E-01  0.111E-01
   2.344  0.111E-01  0.111E-01
   2.354  0.111E-01  0.111E-01
   2.364  0.112E-01  0.112E-01
   2.374  0.113E-01  0.113E-01
   2.384  0.113E-01  0.113E-01
   2.394  0.114E-01  0.114E-01
   2.404  0.115E-01  0.115E-01
   2.414  0.117E-01  0.117E-01
   2.424  0.118E-01  0.118E-01
   2.434  0.119E-01  0.119E-01
   2.444  0.121E-01  0.121E-01
   2.454  0.123E-01  0.123E-01
   2.464  0.125E-01  0.125E-01
   2.474  0.127E-01  0.127E-01
   2.484  0.129E-01  0.129E-01
   2.494  0.131E-01  0.131E-01
   2.504  0.133E-01  0.133E-01
   2.514  0.136E-01  0.136E-01
   2.524  0.138E-01  0.138E-01
   2.534  0.141E-01  0.141E-01
   2.544  0.144E-01  0.144E-01
   2.554  0.147E-01  0.147E-01
   2.564  0.150E-01  0.150E-01
   2.574  0.153E-01  0.153E-01
   2.584  0.156E-01  0.156E-01
   2.594  0.159E-01  0.159E-01
   2.604  0.162E-01  0.162E-01
   2.614  0.165E-01  0.165E-01
   2.624  0.169E-01  0.169E-01
   2.634  0.172E-01  0.172E-01
   2.644  0.176E-01  0.176E-01
   2.654  0.179E-01  0.179E-01
   2.664  0.183E-01  0.183E-01
   2.674  0.186E-01  0.186E-01
   2.684  0.190E-01  0.190E-01
   2.694  0.193E-01  0.193E-01
   2.704  0.197E-01  0.197E-01
   2.714  0.201E-01  0.201E-01
   2.724  0.204E-01  0.204E-01
   2.734  0.208E-01  0.208E-01
   2.744  0.211E-01  0.211E-01
   2.754  0.215E-01  0.215E-01
   2.764  0.218E-01  0.218E-01
   2.774  0.222E-01  0.222E-01
   2.784  0.225E-01  0.225E-01
   2.794  0.229E-01  0.229E-01
   2.804  0.232E-01  0.232E-01
   2.814  0.235E-01  0.235E-01
   2.824  0.239E-01  0.239E-01
   2.834  0.242E-01  0.242E-01
   2.844  0.245E-01  0.245E-01
   2.854  0.248E-01  0.248E-01
   2.864  0.251E-01  0.251E-01
   2.874  0.254E-01  0.254E-01
   2.884  0.256E-01  0.256E-01
   2.894  0.259E-01  0.259E-01
   2.904  0.262E-01  0.262E-01
   2.914  0.264E-01  0.264E-01
   2.924  0.266E-01  0.266E-01
   2.934  0.269E-01  0.269E-01
   2.944  0.271E-01  0.271E-01
   2.954  0.272E-01  0.272E-01
   2.964  0.274E-01  0.274E-01
   2.974  0.276E-01  0.276E-01
   2.984  0.277E-01  0.277E-01
   2.994  0.279E-01  0.279E-01
   3.004  0.280E-01  0.280E-01
   3.014  0.281E-01  0.281E-01
   3.024  0.282E-01  0.282E-01
   3.034  0.283E-01  0.283E-01
   3.044  0.283E-01  0.283E-01
   3.054  0.284E-01  0.284E-01
   3.064  0.284E-01  0.284E-01
   3.074  0.284E-01  0.284E-01
   3.084  0.284E-01  0.284E-01
   3.094  0.284E-01  0.284E-01
   3.104  0.283E-01  0.283E-01
   3.114  0.283E-01  0.283E-01
   3.124  0.282E-01  0.282E-01
   3.134  0.281E-01  0.281E-01
   3.144  0.280E-01  0.280E-01
   3.154  0.279E-01  0.279E-01
   3.164  0.277E-01  0.277E-01
   3.174  0.276E-01  0.276E-01
   3.184  0.274E-01  0.274E-01
   3.194  0.272E-01  0.272E-01
   3.204  0.270E-01  0.270E-01
   3.214  0.268E-01  0.268E-01
   3.224  0.265E-01  0.265E-01
   3.234  0.263E-01  0.263E-01
   3.244  0.260E-01  0.260E-01
   3.254  0.257E-01  0.257E-01
   3.264  0.254E-01  0.254E-01
   3.274  0.251E-01  0.251E-01
   3.284  0.248E-01  0.248E-01
   3.294  0.245E-01  0.245E-01
   3.304  0.241E-01  0.241E-01
   3.314  0.238E-01  0.238E-01
   3.324  0.234E-01  0.234E-01
   3.334  0.231E-01  0.231E-01
   3.344  0.227E-01  0.227E-01
   3.354  0.223E-01  0.223E-01
   3.364  0.219E-01  0.219E-01
   3.374  0.215E-01  0.215E-01
   3.384  0.210E-01  0.210E-01
   3.394  0.206E-01  0.206E-01
   3.404  0.202E-01  0.202E-01
   3.414  0.197E-01  0.197E-01
   3.424  0.193E-01  0.193E-01
   3.434  0.188E-01  0.188E-01
   3.444  0.184E-01  0.184E-01
   3.454  0.179E-01  0.179E-01
   3.464  0.175E-01  0.175E-01
   3.474  0.170E-01  0.170E-01
   3.484  0.165E-01  0.165E-01
   3.494  0.161E-01  0.161E-01
   3.504  0.156E-01  0.156E-01
   3.514  0.151E-01  0.151E-01
   3.524  0.147E-01  0.147E-01
   3.534  0.142E-01  0.142E-01
   3.544  0.137E-01  0.137E-01
   3.554  0.133E-01  0.133E-01
   3.564  0.128E-01  0.128E-01
   3.574  0.124E-01  0.124E-01
   3.584  0.119E-01  0.119E-01
   3.594  0.114E-01  0.114E-01
   3.604  0.110E-01  0.110E-01
   3.614  0.106E-01  0.106E-01
   3.624  0.101E-01  0.101E-01
   3.634  0.970E-02  0.970E-02
   3.644  0.927E-02  0.927E-02
   3.654  0.885E-02  0.885E-02
   3.664  0.844E-02  0.844E-02
   3.674  0.804E-02  0.804E-02
   3.684  0.764E-02  0.764E-02
   3.694  0.725E-02  0.725E-02
   3.704  0.687E-02  0.687E-02
   3.714  0.650E-02  0.650E-02
   3.724  0.613E-02  0.613E-02
   3.734  0.577E-02  0.577E-02
   3.744  0.543E-02  0.543E-02
   3.754  0.509E-02  0.509E-02
   3.764  0.476E-02  0.476E-02
   3.774  0.444E-02  0.444E-02
   3.784  0.412E-02  0.412E-02
   3.794  0.382E-02  0.382E-02
   3.804  0.353E-02  0.353E-02
   3.814  0.324E-02  0.324E-02
   3.824  0.297E-02  0.297E-02
   3.834  0.270E-02  0.270E-02
   3.844  0.245E-02  0.245E-02
   3.854  0.220E-02  0.220E-02
   3.864  0.197E-02  0.197E-02
   3.874  0.174E-02  0.174E-02
   3.884  0.152E-02  0.152E-02
   3.894  0.131E-02  0.131E-02
   3.904  0.111E-02  0.111E-02
   3.914  0.924E-03  0.924E-03
   3.924  0.743E-03  0.743E-03
   3.934  0.570E-03  0.570E-03
   3.944  0.406E-03  0.406E-03
   3.954  0.250E-03  0.250E-03
   3.964  0.103E-03  0.103E-03
   3.974 -0.357E-04 -0.357E-04
   3.984 -0.167E-03 -0.167E-03
   3.994 -0.290E-03 -0.290E-03
   4.004 -0.405E-03 -0.405E-03
   4.014 -0.513E-03 -0.513E-03
   4.024 -0.614E-03 -0.614E-03
   4.034 -0.708E-03 -0.708E-03
   4.044 -0.794E-03 -0.794E-03
   4.054 -0.874E-03 -0.874E-03
   4.064 -0.948E-03 -0.948E-03
   4.074 -0.102E-02 -0.102E-02
   4.084 -0.108E-02 -0.108E-02
   4.094 -0.113E-02 -0.113E-02
   4.104 -0.118E-02 -0.118E-02
   4.114 -0.123E-02 -0.123E-02
   4.124 -0.127E-02 -0.127E-02
   4.134 -0.130E-02 -0.130E-02
   4.144 -0.133E-02 -0.133E-02
   4.154 -0.136E-02 -0.136E-02
   4.164 -0.138E-02 -0.138E-02
   4.174 -0.140E-02 -0.140E-02
   4.184 -0.141E-02 -0.141E-02
   4.194 -0.142E-02 -0.142E-02
   4.204 -0.143E-02 -0.143E-02
   4.214 -0.143E-02 -0.143E-02
   4.224 -0.143E-02 -0.143E-02
   4.234 -0.143E-02 -0.143E-02
   4.244 -0.142E-02 -0.142E-02
   4.254 -0.141E-02 -0.141E-02
   4.264 -0.140E-02 -0.140E-02
   4.274 -0.139E-02 -0.139E-02
   4.284 -0.138E-02 -0.138E-02
   4.294 -0.136E-02 -0.136E-02
   4.304 -0.134E-02 -0.134E-02
   4.314 -0.132E-02 -0.132E-02
   4.324 -0.130E-02 -0.130E-02
   4.334 -0.128E-02 -0.128E-02
   4.344 -0.126E-02 -0.126E-02
   4.354 -0.123E-02 -0.123E-02
   4.364 -0.121E-02 -0.121E-02
   4.374 -0.118E-02 -0.118E-02
   4.384 -0.116E-02 -0.116E-02
   4.394 -0.113E-02 -0.113E-02
   4.404 -0.110E-02 -0.110E-02
   4.414 -0.107E-02 -0.107E-02
   4.424 -0.104E-02 -0.104E-02
   4.434 -0.102E-02 -0.102E-02
   4.444 -0.987E-03 -0.987E-03
   4.454 -0.959E-03 -0.959E-03
   4.464 -0.930E-03 -0.930E-03
   4.474 -0.902E-03 -0.902E-03
   4.484 -0.873E-03 -0.873E-03
   4.494 -0.845E-03 -0.845E-03
   4.504 -0.817E-03 -0.817E-03
   4.514 -0.790E-03 -0.790E-03
   4.524 -0.762E-03 -0.762E-03
   4.534 -0.735E-03 -0.735E-03
   4.544 -0.709E-03 -0.709E-03
   4.554 -0.683E-03 -0.683E-03
   4.564 -0.657E-03 -0.657E-03
   4.574 -0.632E-03 -0.632E-03
   4.584 -0.608E-03 -0.608E-03
   4.594 -0.584E-03 -0.584E-03
   4.604 -0.560E-03 -0.560E-03
   4.614 -0.538E-03 -0.538E-03
   4.624 -0.515E-03 -0.515E-03
   4.634 -0.494E-03 -0.494E-03
   4.644 -0.473E-03 -0.473E-03
   4.654 -0.452E-03 -0.452E-03
   4.664 -0.432E-03 -0.432E-03
   4.674 -0.413E-03 -0.413E-03
   4.684 -0.394E-03 -0.394E-03
   4.694 -0.376E-03 -0.376E-03
   4.704 -0.359E-03 -0.359E-03
   4.714 -0.342E-03 -0.342E-03
   4.724 -0.326E-03 -0.326E-03
   4.734 -0.310E-03 -0.310E-03
   4.744 -0.295E-03 -0.295E-03
   4.754 -0.280E-03 -0.280E-03
   4.764 -0.266E-03 -0.266E-03
   4.774 -0.253E-03 -0.253E-03
   4.784 -0.240E-03 -0.240E-03
   4.794 -0.228E-03 -0.228E-03
   4.804 -0.216E-03 -0.216E-03
   4.814 -0.205E-03 -0.205E-03
   4.824 -0.194E-03 -0.194E-03
   4.834 -0.183E-03 -0.183E-03
   4.844 -0.173E-03 -0.173E-03
   4.854 -0.164E-03 -0.164E-03
   4.864 -0.155E-03 -0.155E-03
   4.874 -0.146E-03 -0.146E-03
   4.884 -0.138E-03 -0.138E-03
   4.894 -0.130E-03 -0.130E-03
   4.904 -0.123E-03 -0.123E-03
   4.914 -0.116E-03 -0.116E-03
   4.924 -0.109E-03 -0.109E-03
   4.934 -0.102E-03 -0.102E-03
   4.944 -0.963E-04 -0.963E-04
   4.954 -0.905E-04 -0.905E-04
   4.964 -0.850E-04 -0.850E-04
   4.974 -0.798E-04 -0.798E-04
   4.984 -0.749E-04 -0.749E-04
   4.994 -0.703E-04 -0.703E-04
   5.004 -0.659E-04 -0.659E-04
   5.014 -0.618E-04 -0.618E-04
   5.024 -0.578E-04 -0.578E-04
   5.034 -0.541E-04 -0.541E-04
   5.044 -0.506E-04 -0.506E-04
   5.054 -0.474E-04 -0.474E-04
   5.064 -0.443E-04 -0.443E-04
   5.074 -0.413E-04 -0.413E-04
   5.084 -0.386E-04 -0.386E-04
   5.094 -0.360E-04 -0.360E-04
   5.104 -0.336E-04 -0.336E-04
   5.114 -0.313E-04 -0.313E-04
   5.124 -0.292E-04 -0.292E-04
   5.134 -0.272E-04 -0.272E-04
   5.144 -0.253E-04 -0.253E-04
   5.154 -0.235E-04 -0.235E-04
   5.164 -0.219E-04 -0.219E-04
   5.174 -0.203E-04 -0.203E-04
   5.184 -0.189E-04 -0.189E-04
   5.194 -0.175E-04 -0.175E-04
   5.204 -0.163E-04 -0.163E-04
   5.214 -0.151E-04 -0.151E-04
   5.224 -0.140E-04 -0.140E-04
   5.234 -0.130E-04 -0.130E-04
   5.244 -0.120E-04 -0.120E-04
   5.254 -0.111E-04 -0.111E-04
   5.264 -0.103E-04 -0.103E-04
   5.274 -0.951E-05 -0.951E-05
   5.284 -0.879E-05 -0.879E-05
   5.294 -0.812E-05 -0.812E-05
