# E (eV)   ldos(E)   pdos(E)   
 -27.116 -0.366E-09 -0.366E-09
 -27.106 -0.395E-09 -0.395E-09
 -27.096 -0.426E-09 -0.426E-09
 -27.086 -0.460E-09 -0.460E-09
 -27.076 -0.495E-09 -0.495E-09
 -27.066 -0.533E-09 -0.533E-09
 -27.056 -0.574E-09 -0.574E-09
 -27.046 -0.617E-09 -0.617E-09
 -27.036 -0.664E-09 -0.664E-09
 -27.026 -0.714E-09 -0.714E-09
 -27.016 -0.766E-09 -0.766E-09
 -27.006 -0.823E-09 -0.823E-09
 -26.996 -0.883E-09 -0.883E-09
 -26.986 -0.947E-09 -0.947E-09
 -26.976 -0.101E-08 -0.101E-08
 -26.966 -0.109E-08 -0.109E-08
 -26.956 -0.116E-08 -0.116E-08
 -26.946 -0.125E-08 -0.125E-08
 -26.936 -0.133E-08 -0.133E-08
 -26.926 -0.142E-08 -0.142E-08
 -26.916 -0.152E-08 -0.152E-08
 -26.906 -0.162E-08 -0.162E-08
 -26.896 -0.173E-08 -0.173E-08
 -26.886 -0.185E-08 -0.185E-08
 -26.876 -0.197E-08 -0.197E-08
 -26.866 -0.210E-08 -0.210E-08
 -26.856 -0.224E-08 -0.224E-08
 -26.846 -0.238E-08 -0.238E-08
 -26.836 -0.253E-08 -0.253E-08
 -26.826 -0.269E-08 -0.269E-08
 -26.816 -0.286E-08 -0.286E-08
 -26.806 -0.304E-08 -0.304E-08
 -26.796 -0.322E-08 -0.322E-08
 -26.786 -0.342E-08 -0.342E-08
 -26.776 -0.363E-08 -0.363E-08
 -26.766 -0.384E-08 -0.384E-08
 -26.756 -0.407E-08 -0.407E-08
 -26.746 -0.430E-08 -0.430E-08
 -26.736 -0.455E-08 -0.455E-08
 -26.726 -0.481E-08 -0.481E-08
 -26.716 -0.508E-08 -0.508E-08
 -26.706 -0.536E-08 -0.536E-08
 -26.696 -0.566E-08 -0.566E-08
 -26.686 -0.597E-08 -0.597E-08
 -26.676 -0.629E-08 -0.629E-08
 -26.666 -0.662E-08 -0.662E-08
 -26.656 -0.697E-08 -0.697E-08
 -26.646 -0.733E-08 -0.733E-08
 -26.636 -0.771E-08 -0.771E-08
 -26.626 -0.810E-08 -0.810E-08
 -26.616 -0.850E-08 -0.850E-08
 -26.606 -0.892E-08 -0.892E-08
 -26.596 -0.935E-08 -0.935E-08
 -26.586 -0.979E-08 -0.979E-08
 -26.576 -0.103E-07 -0.103E-07
 -26.566 -0.107E-07 -0.107E-07
 -26.556 -0.112E-07 -0.112E-07
 -26.546 -0.117E-07 -0.117E-07
 -26.536 -0.122E-07 -0.122E-07
 -26.526 -0.128E-07 -0.128E-07
 -26.516 -0.133E-07 -0.133E-07
 -26.506 -0.139E-07 -0.139E-07
 -26.496 -0.144E-07 -0.144E-07
 -26.486 -0.150E-07 -0.150E-07
 -26.476 -0.156E-07 -0.156E-07
 -26.466 -0.162E-07 -0.162E-07
 -26.456 -0.168E-07 -0.168E-07
 -26.446 -0.175E-07 -0.175E-07
 -26.436 -0.181E-07 -0.181E-07
 -26.426 -0.187E-07 -0.187E-07
 -26.416 -0.194E-07 -0.194E-07
 -26.406 -0.201E-07 -0.201E-07
 -26.396 -0.207E-07 -0.207E-07
 -26.386 -0.214E-07 -0.214E-07
 -26.376 -0.220E-07 -0.220E-07
 -26.366 -0.227E-07 -0.227E-07
 -26.356 -0.234E-07 -0.234E-07
 -26.346 -0.240E-07 -0.240E-07
 -26.336 -0.247E-07 -0.247E-07
 -26.326 -0.253E-07 -0.253E-07
 -26.316 -0.260E-07 -0.260E-07
 -26.306 -0.266E-07 -0.266E-07
 -26.296 -0.272E-07 -0.272E-07
 -26.286 -0.278E-07 -0.278E-07
 -26.276 -0.284E-07 -0.284E-07
 -26.266 -0.289E-07 -0.289E-07
 -26.256 -0.294E-07 -0.294E-07
 -26.246 -0.299E-07 -0.299E-07
 -26.236 -0.304E-07 -0.304E-07
 -26.226 -0.308E-07 -0.308E-07
 -26.216 -0.312E-07 -0.312E-07
 -26.206 -0.316E-07 -0.316E-07
 -26.196 -0.319E-07 -0.319E-07
 -26.186 -0.321E-07 -0.321E-07
 -26.176 -0.323E-07 -0.323E-07
 -26.166 -0.324E-07 -0.324E-07
 -26.156 -0.325E-07 -0.325E-07
 -26.146 -0.325E-07 -0.325E-07
 -26.136 -0.324E-07 -0.324E-07
 -26.126 -0.323E-07 -0.323E-07
 -26.116 -0.321E-07 -0.321E-07
 -26.106 -0.317E-07 -0.317E-07
 -26.096 -0.313E-07 -0.313E-07
 -26.086 -0.308E-07 -0.308E-07
 -26.076 -0.302E-07 -0.302E-07
 -26.066 -0.295E-07 -0.295E-07
 -26.056 -0.287E-07 -0.287E-07
 -26.046 -0.277E-07 -0.277E-07
 -26.036 -0.267E-07 -0.267E-07
 -26.026 -0.255E-07 -0.255E-07
 -26.016 -0.242E-07 -0.242E-07
 -26.006 -0.227E-07 -0.227E-07
 -25.996 -0.211E-07 -0.211E-07
 -25.986 -0.193E-07 -0.193E-07
 -25.976 -0.174E-07 -0.174E-07
 -25.966 -0.153E-07 -0.153E-07
 -25.956 -0.131E-07 -0.131E-07
 -25.946 -0.107E-07 -0.107E-07
 -25.936 -0.812E-08 -0.812E-08
 -25.926 -0.536E-08 -0.536E-08
 -25.916 -0.242E-08 -0.242E-08
 -25.906  0.706E-09  0.706E-09
 -25.896  0.403E-08  0.403E-08
 -25.886  0.754E-08  0.754E-08
 -25.876  0.113E-07  0.113E-07
 -25.866  0.152E-07  0.152E-07
 -25.856  0.193E-07  0.193E-07
 -25.846  0.236E-07  0.236E-07
 -25.836  0.282E-07  0.282E-07
 -25.826  0.329E-07  0.329E-07
 -25.816  0.379E-07  0.379E-07
 -25.806  0.431E-07  0.431E-07
 -25.796  0.485E-07  0.485E-07
 -25.786  0.542E-07  0.542E-07
 -25.776  0.600E-07  0.600E-07
 -25.766  0.661E-07  0.661E-07
 -25.756  0.724E-07  0.724E-07
 -25.746  0.789E-07  0.789E-07
 -25.736  0.857E-07  0.857E-07
 -25.726  0.926E-07  0.926E-07
 -25.716  0.998E-07  0.998E-07
 -25.706  0.107E-06  0.107E-06
 -25.696  0.115E-06  0.115E-06
 -25.686  0.123E-06  0.123E-06
 -25.676  0.131E-06  0.131E-06
 -25.666  0.139E-06  0.139E-06
 -25.656  0.147E-06  0.147E-06
 -25.646  0.156E-06  0.156E-06
 -25.636  0.165E-06  0.165E-06
 -25.626  0.173E-06  0.173E-06
 -25.616  0.183E-06  0.183E-06
 -25.606  0.192E-06  0.192E-06
 -25.596  0.201E-06  0.201E-06
 -25.586  0.211E-06  0.211E-06
 -25.576  0.220E-06  0.220E-06
 -25.566  0.230E-06  0.230E-06
 -25.556  0.240E-06  0.240E-06
 -25.546  0.250E-06  0.250E-06
 -25.536  0.260E-06  0.260E-06
 -25.526  0.271E-06  0.271E-06
 -25.516  0.281E-06  0.281E-06
 -25.506  0.291E-06  0.291E-06
 -25.496  0.302E-06  0.302E-06
 -25.486  0.312E-06  0.312E-06
 -25.476  0.322E-06  0.322E-06
 -25.466  0.333E-06  0.333E-06
 -25.456  0.343E-06  0.343E-06
 -25.446  0.354E-06  0.354E-06
 -25.436  0.364E-06  0.364E-06
 -25.426  0.374E-06  0.374E-06
 -25.416  0.385E-06  0.385E-06
 -25.406  0.395E-06  0.395E-06
 -25.396  0.405E-06  0.405E-06
 -25.386  0.415E-06  0.415E-06
 -25.376  0.425E-06  0.425E-06
 -25.366  0.434E-06  0.434E-06
 -25.356  0.444E-06  0.444E-06
 -25.346  0.453E-06  0.453E-06
 -25.336  0.462E-06  0.462E-06
 -25.326  0.471E-06  0.471E-06
 -25.316  0.480E-06  0.480E-06
 -25.306  0.489E-06  0.489E-06
 -25.296  0.497E-06  0.497E-06
 -25.286  0.505E-06  0.505E-06
 -25.276  0.513E-06  0.513E-06
 -25.266  0.520E-06  0.520E-06
 -25.256  0.527E-06  0.527E-06
 -25.246  0.534E-06  0.534E-06
 -25.236  0.541E-06  0.541E-06
 -25.226  0.547E-06  0.547E-06
 -25.216  0.553E-06  0.553E-06
 -25.206  0.558E-06  0.558E-06
 -25.196  0.563E-06  0.563E-06
 -25.186  0.568E-06  0.568E-06
 -25.176  0.573E-06  0.573E-06
 -25.166  0.577E-06  0.577E-06
 -25.156  0.580E-06  0.580E-06
 -25.146  0.583E-06  0.583E-06
 -25.136  0.586E-06  0.586E-06
 -25.126  0.588E-06  0.588E-06
 -25.116  0.590E-06  0.590E-06
 -25.106  0.592E-06  0.592E-06
 -25.096  0.593E-06  0.593E-06
 -25.086  0.594E-06  0.594E-06
 -25.076  0.594E-06  0.594E-06
 -25.066  0.594E-06  0.594E-06
 -25.056  0.593E-06  0.593E-06
 -25.046  0.592E-06  0.592E-06
 -25.036  0.591E-06  0.591E-06
 -25.026  0.589E-06  0.589E-06
 -25.016  0.587E-06  0.587E-06
 -25.006  0.584E-06  0.584E-06
 -24.996  0.581E-06  0.581E-06
 -24.986  0.577E-06  0.577E-06
 -24.976  0.573E-06  0.573E-06
 -24.966  0.569E-06  0.569E-06
 -24.956  0.564E-06  0.564E-06
 -24.946  0.559E-06  0.559E-06
 -24.936  0.554E-06  0.554E-06
 -24.926  0.548E-06  0.548E-06
 -24.916  0.542E-06  0.542E-06
 -24.906  0.535E-06  0.535E-06
 -24.896  0.529E-06  0.529E-06
 -24.886  0.522E-06  0.522E-06
 -24.876  0.514E-06  0.514E-06
 -24.866  0.506E-06  0.506E-06
 -24.856  0.498E-06  0.498E-06
 -24.846  0.490E-06  0.490E-06
 -24.836  0.482E-06  0.482E-06
 -24.826  0.473E-06  0.473E-06
 -24.816  0.464E-06  0.464E-06
 -24.806  0.455E-06  0.455E-06
 -24.796  0.446E-06  0.446E-06
 -24.786  0.436E-06  0.436E-06
 -24.776  0.427E-06  0.427E-06
 -24.766  0.417E-06  0.417E-06
 -24.756  0.407E-06  0.407E-06
 -24.746  0.397E-06  0.397E-06
 -24.736  0.387E-06  0.387E-06
 -24.726  0.376E-06  0.376E-06
 -24.716  0.366E-06  0.366E-06
 -24.706  0.356E-06  0.356E-06
 -24.696  0.345E-06  0.345E-06
 -24.686  0.335E-06  0.335E-06
 -24.676  0.324E-06  0.324E-06
 -24.666  0.314E-06  0.314E-06
 -24.656  0.304E-06  0.304E-06
 -24.646  0.293E-06  0.293E-06
 -24.636  0.283E-06  0.283E-06
 -24.626  0.273E-06  0.273E-06
 -24.616  0.262E-06  0.262E-06
 -24.606  0.252E-06  0.252E-06
 -24.596  0.242E-06  0.242E-06
 -24.586  0.232E-06  0.232E-06
 -24.576  0.222E-06  0.222E-06
 -24.566  0.213E-06  0.213E-06
 -24.556  0.203E-06  0.203E-06
 -24.546  0.194E-06  0.194E-06
 -24.536  0.184E-06  0.184E-06
 -24.526  0.175E-06  0.175E-06
 -24.516  0.166E-06  0.166E-06
 -24.506  0.157E-06  0.157E-06
 -24.496  0.149E-06  0.149E-06
 -24.486  0.140E-06  0.140E-06
 -24.476  0.132E-06  0.132E-06
 -24.466  0.124E-06  0.124E-06
 -24.456  0.116E-06  0.116E-06
 -24.446  0.109E-06  0.109E-06
 -24.436  0.101E-06  0.101E-06
 -24.426  0.940E-07  0.940E-07
 -24.416  0.870E-07  0.870E-07
 -24.406  0.802E-07  0.802E-07
 -24.396  0.736E-07  0.736E-07
 -24.386  0.673E-07  0.673E-07
 -24.376  0.612E-07  0.612E-07
 -24.366  0.553E-07  0.553E-07
 -24.356  0.496E-07  0.496E-07
 -24.346  0.442E-07  0.442E-07
 -24.336  0.389E-07  0.389E-07
 -24.326  0.339E-07  0.339E-07
 -24.316  0.291E-07  0.291E-07
 -24.306  0.245E-07  0.245E-07
 -24.296  0.201E-07  0.201E-07
 -24.286  0.160E-07  0.160E-07
 -24.276  0.120E-07  0.120E-07
 -24.266  0.825E-08  0.825E-08
 -24.256  0.469E-08  0.469E-08
 -24.246  0.134E-08  0.134E-08
 -24.236 -0.183E-08 -0.183E-08
 -24.226 -0.481E-08 -0.481E-08
 -24.216 -0.760E-08 -0.760E-08
 -24.206 -0.102E-07 -0.102E-07
 -24.196 -0.126E-07 -0.126E-07
 -24.186 -0.149E-07 -0.149E-07
 -24.176 -0.170E-07 -0.170E-07
 -24.166 -0.190E-07 -0.190E-07
 -24.156 -0.207E-07 -0.207E-07
 -24.146 -0.224E-07 -0.224E-07
 -24.136 -0.239E-07 -0.239E-07
 -24.126 -0.252E-07 -0.252E-07
 -24.116 -0.265E-07 -0.265E-07
 -24.106 -0.275E-07 -0.275E-07
 -24.096 -0.285E-07 -0.285E-07
 -24.086 -0.294E-07 -0.294E-07
 -24.076 -0.301E-07 -0.301E-07
 -24.066 -0.307E-07 -0.307E-07
 -24.056 -0.312E-07 -0.312E-07
 -24.046 -0.317E-07 -0.317E-07
 -24.036 -0.320E-07 -0.320E-07
 -24.026 -0.322E-07 -0.322E-07
 -24.016 -0.324E-07 -0.324E-07
 -24.006 -0.325E-07 -0.325E-07
 -23.996 -0.325E-07 -0.325E-07
 -23.986 -0.324E-07 -0.324E-07
 -23.976 -0.323E-07 -0.323E-07
 -23.966 -0.321E-07 -0.321E-07
 -23.956 -0.319E-07 -0.319E-07
 -23.946 -0.316E-07 -0.316E-07
 -23.936 -0.313E-07 -0.313E-07
 -23.926 -0.309E-07 -0.309E-07
 -23.916 -0.305E-07 -0.305E-07
 -23.906 -0.300E-07 -0.300E-07
 -23.896 -0.295E-07 -0.295E-07
 -23.886 -0.290E-07 -0.290E-07
 -23.876 -0.285E-07 -0.285E-07
 -23.866 -0.279E-07 -0.279E-07
 -23.856 -0.273E-07 -0.273E-07
 -23.846 -0.267E-07 -0.267E-07
 -23.836 -0.261E-07 -0.261E-07
 -23.826 -0.255E-07 -0.255E-07
 -23.816 -0.248E-07 -0.248E-07
 -23.806 -0.242E-07 -0.242E-07
 -23.796 -0.235E-07 -0.235E-07
 -23.786 -0.228E-07 -0.228E-07
 -23.776 -0.222E-07 -0.222E-07
 -23.766 -0.215E-07 -0.215E-07
 -23.756 -0.208E-07 -0.208E-07
 -23.746 -0.202E-07 -0.202E-07
 -23.736 -0.195E-07 -0.195E-07
 -23.726 -0.189E-07 -0.189E-07
 -23.716 -0.182E-07 -0.182E-07
 -23.706 -0.176E-07 -0.176E-07
 -23.696 -0.170E-07 -0.170E-07
 -23.686 -0.163E-07 -0.163E-07
 -23.676 -0.157E-07 -0.157E-07
 -23.666 -0.151E-07 -0.151E-07
 -23.656 -0.146E-07 -0.146E-07
 -23.646 -0.140E-07 -0.140E-07
 -23.636 -0.134E-07 -0.134E-07
 -23.626 -0.129E-07 -0.129E-07
 -23.616 -0.123E-07 -0.123E-07
 -23.606 -0.118E-07 -0.118E-07
 -23.596 -0.113E-07 -0.113E-07
 -23.586 -0.108E-07 -0.108E-07
 -23.576 -0.103E-07 -0.103E-07
 -23.566 -0.988E-08 -0.988E-08
 -23.556 -0.943E-08 -0.943E-08
 -23.546 -0.900E-08 -0.900E-08
 -23.536 -0.858E-08 -0.858E-08
 -23.526 -0.817E-08 -0.817E-08
 -23.516 -0.778E-08 -0.778E-08
 -23.506 -0.740E-08 -0.740E-08
 -23.496 -0.704E-08 -0.704E-08
 -23.486 -0.669E-08 -0.669E-08
 -23.476 -0.635E-08 -0.635E-08
 -23.466 -0.603E-08 -0.603E-08
 -23.456 -0.572E-08 -0.572E-08
 -23.446 -0.542E-08 -0.542E-08
 -23.436 -0.514E-08 -0.514E-08
 -23.426 -0.486E-08 -0.486E-08
 -23.416 -0.460E-08 -0.460E-08
 -23.406 -0.435E-08 -0.435E-08
 -23.396 -0.411E-08 -0.411E-08
 -23.386 -0.388E-08 -0.388E-08
 -23.376 -0.367E-08 -0.367E-08
 -23.366 -0.346E-08 -0.346E-08
 -23.356 -0.326E-08 -0.326E-08
 -23.346 -0.307E-08 -0.307E-08
 -23.336 -0.290E-08 -0.290E-08
 -23.326 -0.273E-08 -0.273E-08
 -23.316 -0.256E-08 -0.256E-08
 -23.306 -0.241E-08 -0.241E-08
 -23.296 -0.226E-08 -0.226E-08
 -23.286 -0.213E-08 -0.213E-08
 -23.276 -0.200E-08 -0.200E-08
 -23.266 -0.187E-08 -0.187E-08
 -23.256 -0.176E-08 -0.176E-08
 -23.246 -0.165E-08 -0.165E-08
 -23.236 -0.154E-08 -0.154E-08
 -23.226 -0.144E-08 -0.144E-08
 -23.216 -0.135E-08 -0.135E-08
 -23.206 -0.126E-08 -0.126E-08
 -23.196 -0.118E-08 -0.118E-08
 -23.186 -0.110E-08 -0.110E-08
 -23.176 -0.103E-08 -0.103E-08
 -23.166 -0.960E-09 -0.960E-09
 -23.156 -0.895E-09 -0.895E-09
 -23.146 -0.834E-09 -0.834E-09
 -23.136 -0.777E-09 -0.777E-09
 -23.126 -0.724E-09 -0.724E-09
 -23.116 -0.674E-09 -0.674E-09
 -23.106 -0.627E-09 -0.627E-09
 -23.096 -0.582E-09 -0.582E-09
 -23.086 -0.541E-09 -0.541E-09
 -23.076 -0.503E-09 -0.503E-09
 -23.066 -0.467E-09 -0.467E-09
 -23.056 -0.433E-09 -0.433E-09
 -23.046 -0.402E-09 -0.402E-09
 -23.036 -0.372E-09 -0.372E-09
 -23.026 -0.345E-09 -0.345E-09
 -23.016 -0.319E-09 -0.319E-09
 -23.006 -0.296E-09 -0.296E-09
 -22.996 -0.274E-09 -0.274E-09
 -22.986 -0.253E-09 -0.253E-09
 -22.976 -0.234E-09 -0.234E-09
 -22.966 -0.216E-09 -0.216E-09
 -22.956 -0.200E-09 -0.200E-09
 -22.946 -0.185E-09 -0.185E-09
 -22.936 -0.170E-09 -0.170E-09
 -22.926 -0.157E-09 -0.157E-09
 -22.916 -0.145E-09 -0.145E-09
 -22.906 -0.134E-09 -0.134E-09
 -22.896 -0.124E-09 -0.124E-09
 -22.886 -0.114E-09 -0.114E-09
 -22.876 -0.106E-09 -0.106E-09
 -22.866 -0.977E-10 -0.977E-10
 -22.856 -0.903E-10 -0.903E-10
 -22.846 -0.836E-10 -0.836E-10
 -22.836 -0.775E-10 -0.775E-10
 -22.826 -0.719E-10 -0.719E-10
 -22.816 -0.668E-10 -0.668E-10
 -22.806 -0.623E-10 -0.623E-10
 -22.796 -0.582E-10 -0.582E-10
 -22.786 -0.545E-10 -0.545E-10
 -22.776 -0.513E-10 -0.513E-10
 -22.766 -0.484E-10 -0.484E-10
 -22.756 -0.460E-10 -0.460E-10
 -22.746 -0.439E-10 -0.439E-10
 -22.736 -0.421E-10 -0.421E-10
 -22.726 -0.407E-10 -0.407E-10
 -22.716 -0.396E-10 -0.396E-10
 -22.706 -0.389E-10 -0.389E-10
 -22.696 -0.385E-10 -0.385E-10
 -22.686 -0.384E-10 -0.384E-10
 -22.676 -0.386E-10 -0.386E-10
 -22.666 -0.392E-10 -0.392E-10
 -22.656 -0.400E-10 -0.400E-10
 -22.646 -0.413E-10 -0.413E-10
 -22.636 -0.428E-10 -0.428E-10
 -22.626 -0.447E-10 -0.447E-10
 -22.616 -0.469E-10 -0.469E-10
 -22.606 -0.496E-10 -0.496E-10
 -22.596 -0.526E-10 -0.526E-10
 -22.586 -0.560E-10 -0.560E-10
 -22.576 -0.599E-10 -0.599E-10
 -22.566 -0.642E-10 -0.642E-10
 -22.556 -0.690E-10 -0.690E-10
 -22.546 -0.743E-10 -0.743E-10
 -22.536 -0.802E-10 -0.802E-10
 -22.526 -0.866E-10 -0.866E-10
 -22.516 -0.937E-10 -0.937E-10
 -22.506 -0.101E-09 -0.101E-09
 -22.496 -0.110E-09 -0.110E-09
 -22.486 -0.119E-09 -0.119E-09
 -22.476 -0.129E-09 -0.129E-09
 -22.466 -0.140E-09 -0.140E-09
 -22.456 -0.151E-09 -0.151E-09
 -22.446 -0.164E-09 -0.164E-09
 -22.436 -0.178E-09 -0.178E-09
 -22.426 -0.193E-09 -0.193E-09
 -22.416 -0.209E-09 -0.209E-09
 -22.406 -0.226E-09 -0.226E-09
 -22.396 -0.245E-09 -0.245E-09
 -22.386 -0.265E-09 -0.265E-09
 -22.376 -0.286E-09 -0.286E-09
 -22.366 -0.309E-09 -0.309E-09
 -22.356 -0.334E-09 -0.334E-09
 -22.346 -0.361E-09 -0.361E-09
 -22.336 -0.390E-09 -0.390E-09
 -22.326 -0.421E-09 -0.421E-09
 -22.316 -0.454E-09 -0.454E-09
 -22.306 -0.490E-09 -0.490E-09
 -22.296 -0.528E-09 -0.528E-09
 -22.286 -0.569E-09 -0.569E-09
 -22.276 -0.612E-09 -0.612E-09
 -22.266 -0.659E-09 -0.659E-09
 -22.256 -0.709E-09 -0.709E-09
 -22.246 -0.762E-09 -0.762E-09
 -22.236 -0.819E-09 -0.819E-09
 -22.226 -0.879E-09 -0.879E-09
 -22.216 -0.944E-09 -0.944E-09
 -22.206 -0.101E-08 -0.101E-08
 -22.196 -0.109E-08 -0.109E-08
 -22.186 -0.116E-08 -0.116E-08
 -22.176 -0.125E-08 -0.125E-08
 -22.166 -0.133E-08 -0.133E-08
 -22.156 -0.143E-08 -0.143E-08
 -22.146 -0.153E-08 -0.153E-08
 -22.136 -0.163E-08 -0.163E-08
 -22.126 -0.174E-08 -0.174E-08
 -22.116 -0.186E-08 -0.186E-08
 -22.106 -0.198E-08 -0.198E-08
 -22.096 -0.212E-08 -0.212E-08
 -22.086 -0.226E-08 -0.226E-08
 -22.076 -0.240E-08 -0.240E-08
 -22.066 -0.256E-08 -0.256E-08
 -22.056 -0.272E-08 -0.272E-08
 -22.046 -0.290E-08 -0.290E-08
 -22.036 -0.308E-08 -0.308E-08
 -22.026 -0.327E-08 -0.327E-08
 -22.016 -0.347E-08 -0.347E-08
 -22.006 -0.368E-08 -0.368E-08
 -21.996 -0.391E-08 -0.391E-08
 -21.986 -0.414E-08 -0.414E-08
 -21.976 -0.439E-08 -0.439E-08
 -21.966 -0.464E-08 -0.464E-08
 -21.956 -0.491E-08 -0.491E-08
 -21.946 -0.520E-08 -0.520E-08
 -21.936 -0.549E-08 -0.549E-08
 -21.926 -0.580E-08 -0.580E-08
 -21.916 -0.612E-08 -0.612E-08
 -21.906 -0.646E-08 -0.646E-08
 -21.896 -0.681E-08 -0.681E-08
 -21.886 -0.717E-08 -0.717E-08
 -21.876 -0.755E-08 -0.755E-08
 -21.866 -0.794E-08 -0.794E-08
 -21.856 -0.835E-08 -0.835E-08
 -21.846 -0.878E-08 -0.878E-08
 -21.836 -0.922E-08 -0.922E-08
 -21.826 -0.968E-08 -0.968E-08
 -21.816 -0.102E-07 -0.102E-07
 -21.806 -0.106E-07 -0.106E-07
 -21.796 -0.111E-07 -0.111E-07
 -21.786 -0.117E-07 -0.117E-07
 -21.776 -0.122E-07 -0.122E-07
 -21.766 -0.128E-07 -0.128E-07
 -21.756 -0.133E-07 -0.133E-07
 -21.746 -0.139E-07 -0.139E-07
 -21.736 -0.145E-07 -0.145E-07
 -21.726 -0.151E-07 -0.151E-07
 -21.716 -0.158E-07 -0.158E-07
 -21.706 -0.164E-07 -0.164E-07
 -21.696 -0.171E-07 -0.171E-07
 -21.686 -0.177E-07 -0.177E-07
 -21.676 -0.184E-07 -0.184E-07
 -21.666 -0.191E-07 -0.191E-07
 -21.656 -0.198E-07 -0.198E-07
 -21.646 -0.205E-07 -0.205E-07
 -21.636 -0.213E-07 -0.213E-07
 -21.626 -0.220E-07 -0.220E-07
 -21.616 -0.227E-07 -0.227E-07
 -21.606 -0.235E-07 -0.235E-07
 -21.596 -0.242E-07 -0.242E-07
 -21.586 -0.250E-07 -0.250E-07
 -21.576 -0.257E-07 -0.257E-07
 -21.566 -0.265E-07 -0.265E-07
 -21.556 -0.272E-07 -0.272E-07
 -21.546 -0.279E-07 -0.279E-07
 -21.536 -0.286E-07 -0.286E-07
 -21.526 -0.294E-07 -0.294E-07
 -21.516 -0.301E-07 -0.301E-07
 -21.506 -0.307E-07 -0.307E-07
 -21.496 -0.314E-07 -0.314E-07
 -21.486 -0.320E-07 -0.320E-07
 -21.476 -0.326E-07 -0.326E-07
 -21.466 -0.332E-07 -0.332E-07
 -21.456 -0.338E-07 -0.338E-07
 -21.446 -0.343E-07 -0.343E-07
 -21.436 -0.347E-07 -0.347E-07
 -21.426 -0.351E-07 -0.351E-07
 -21.416 -0.355E-07 -0.355E-07
 -21.406 -0.358E-07 -0.358E-07
 -21.396 -0.361E-07 -0.361E-07
 -21.386 -0.363E-07 -0.363E-07
 -21.376 -0.364E-07 -0.364E-07
 -21.366 -0.365E-07 -0.365E-07
 -21.356 -0.365E-07 -0.365E-07
 -21.346 -0.364E-07 -0.364E-07
 -21.336 -0.362E-07 -0.362E-07
 -21.326 -0.359E-07 -0.359E-07
 -21.316 -0.355E-07 -0.355E-07
 -21.306 -0.350E-07 -0.350E-07
 -21.296 -0.344E-07 -0.344E-07
 -21.286 -0.337E-07 -0.337E-07
 -21.276 -0.328E-07 -0.328E-07
 -21.266 -0.319E-07 -0.319E-07
 -21.256 -0.308E-07 -0.308E-07
 -21.246 -0.295E-07 -0.295E-07
 -21.236 -0.282E-07 -0.282E-07
 -21.226 -0.266E-07 -0.266E-07
 -21.216 -0.249E-07 -0.249E-07
 -21.206 -0.231E-07 -0.231E-07
 -21.196 -0.211E-07 -0.211E-07
 -21.186 -0.189E-07 -0.189E-07
 -21.176 -0.165E-07 -0.165E-07
 -21.166 -0.139E-07 -0.139E-07
 -21.156 -0.112E-07 -0.112E-07
 -21.146 -0.821E-08 -0.821E-08
 -21.136 -0.505E-08 -0.505E-08
 -21.126 -0.169E-08 -0.169E-08
 -21.116  0.189E-08  0.189E-08
 -21.106  0.568E-08  0.568E-08
 -21.096  0.969E-08  0.969E-08
 -21.086  0.139E-07  0.139E-07
 -21.076  0.184E-07  0.184E-07
 -21.066  0.231E-07  0.231E-07
 -21.056  0.280E-07  0.280E-07
 -21.046  0.332E-07  0.332E-07
 -21.036  0.386E-07  0.386E-07
 -21.026  0.443E-07  0.443E-07
 -21.016  0.502E-07  0.502E-07
 -21.006  0.563E-07  0.563E-07
 -20.996  0.627E-07  0.627E-07
 -20.986  0.694E-07  0.694E-07
 -20.976  0.763E-07  0.763E-07
 -20.966  0.834E-07  0.834E-07
 -20.956  0.908E-07  0.908E-07
 -20.946  0.984E-07  0.984E-07
 -20.936  0.106E-06  0.106E-06
 -20.926  0.114E-06  0.114E-06
 -20.916  0.123E-06  0.123E-06
 -20.906  0.131E-06  0.131E-06
 -20.896  0.140E-06  0.140E-06
 -20.886  0.149E-06  0.149E-06
 -20.876  0.159E-06  0.159E-06
 -20.866  0.168E-06  0.168E-06
 -20.856  0.178E-06  0.178E-06
 -20.846  0.188E-06  0.188E-06
 -20.836  0.198E-06  0.198E-06
 -20.826  0.208E-06  0.208E-06
 -20.816  0.218E-06  0.218E-06
 -20.806  0.229E-06  0.229E-06
 -20.796  0.240E-06  0.240E-06
 -20.786  0.251E-06  0.251E-06
 -20.776  0.262E-06  0.262E-06
 -20.766  0.273E-06  0.273E-06
 -20.756  0.284E-06  0.284E-06
 -20.746  0.296E-06  0.296E-06
 -20.736  0.307E-06  0.307E-06
 -20.726  0.319E-06  0.319E-06
 -20.716  0.330E-06  0.330E-06
 -20.706  0.342E-06  0.342E-06
 -20.696  0.354E-06  0.354E-06
 -20.686  0.365E-06  0.365E-06
 -20.676  0.377E-06  0.377E-06
 -20.666  0.389E-06  0.389E-06
 -20.656  0.400E-06  0.400E-06
 -20.646  0.412E-06  0.412E-06
 -20.636  0.423E-06  0.423E-06
 -20.626  0.435E-06  0.435E-06
 -20.616  0.446E-06  0.446E-06
 -20.606  0.458E-06  0.458E-06
 -20.596  0.469E-06  0.469E-06
 -20.586  0.480E-06  0.480E-06
 -20.576  0.490E-06  0.490E-06
 -20.566  0.501E-06  0.501E-06
 -20.556  0.511E-06  0.511E-06
 -20.546  0.522E-06  0.522E-06
 -20.536  0.532E-06  0.532E-06
 -20.526  0.541E-06  0.541E-06
 -20.516  0.551E-06  0.551E-06
 -20.506  0.560E-06  0.560E-06
 -20.496  0.569E-06  0.569E-06
 -20.486  0.578E-06  0.578E-06
 -20.476  0.586E-06  0.586E-06
 -20.466  0.594E-06  0.594E-06
 -20.456  0.601E-06  0.601E-06
 -20.446  0.608E-06  0.608E-06
 -20.436  0.615E-06  0.615E-06
 -20.426  0.622E-06  0.622E-06
 -20.416  0.628E-06  0.628E-06
 -20.406  0.633E-06  0.633E-06
 -20.396  0.639E-06  0.639E-06
 -20.386  0.643E-06  0.643E-06
 -20.376  0.648E-06  0.648E-06
 -20.366  0.651E-06  0.651E-06
 -20.356  0.655E-06  0.655E-06
 -20.346  0.658E-06  0.658E-06
 -20.336  0.660E-06  0.660E-06
 -20.326  0.662E-06  0.662E-06
 -20.316  0.664E-06  0.664E-06
 -20.306  0.665E-06  0.665E-06
 -20.296  0.666E-06  0.666E-06
 -20.286  0.666E-06  0.666E-06
 -20.276  0.665E-06  0.665E-06
 -20.266  0.664E-06  0.664E-06
 -20.256  0.663E-06  0.663E-06
 -20.246  0.661E-06  0.661E-06
 -20.236  0.659E-06  0.659E-06
 -20.226  0.656E-06  0.656E-06
 -20.216  0.653E-06  0.653E-06
 -20.206  0.650E-06  0.650E-06
 -20.196  0.645E-06  0.645E-06
 -20.186  0.641E-06  0.641E-06
 -20.176  0.636E-06  0.636E-06
 -20.166  0.630E-06  0.630E-06
 -20.156  0.625E-06  0.625E-06
 -20.146  0.618E-06  0.618E-06
 -20.136  0.612E-06  0.612E-06
 -20.126  0.605E-06  0.605E-06
 -20.116  0.597E-06  0.597E-06
 -20.106  0.590E-06  0.590E-06
 -20.096  0.582E-06  0.582E-06
 -20.086  0.573E-06  0.573E-06
 -20.076  0.564E-06  0.564E-06
 -20.066  0.555E-06  0.555E-06
 -20.056  0.546E-06  0.546E-06
 -20.046  0.537E-06  0.537E-06
 -20.036  0.527E-06  0.527E-06
 -20.026  0.517E-06  0.517E-06
 -20.016  0.506E-06  0.506E-06
 -20.006  0.496E-06  0.496E-06
 -19.996  0.485E-06  0.485E-06
 -19.986  0.474E-06  0.474E-06
 -19.976  0.463E-06  0.463E-06
 -19.966  0.452E-06  0.452E-06
 -19.956  0.441E-06  0.441E-06
 -19.946  0.429E-06  0.429E-06
 -19.936  0.418E-06  0.418E-06
 -19.926  0.407E-06  0.407E-06
 -19.916  0.395E-06  0.395E-06
 -19.906  0.383E-06  0.383E-06
 -19.896  0.372E-06  0.372E-06
 -19.886  0.360E-06  0.360E-06
 -19.876  0.348E-06  0.348E-06
 -19.866  0.337E-06  0.337E-06
 -19.856  0.325E-06  0.325E-06
 -19.846  0.314E-06  0.314E-06
 -19.836  0.302E-06  0.302E-06
 -19.826  0.291E-06  0.291E-06
 -19.816  0.280E-06  0.280E-06
 -19.806  0.269E-06  0.269E-06
 -19.796  0.258E-06  0.258E-06
 -19.786  0.247E-06  0.247E-06
 -19.776  0.236E-06  0.236E-06
 -19.766  0.226E-06  0.226E-06
 -19.756  0.215E-06  0.215E-06
 -19.746  0.205E-06  0.205E-06
 -19.736  0.195E-06  0.195E-06
 -19.726  0.185E-06  0.185E-06
 -19.716  0.176E-06  0.176E-06
 -19.706  0.166E-06  0.166E-06
 -19.696  0.157E-06  0.157E-06
 -19.686  0.148E-06  0.148E-06
 -19.676  0.140E-06  0.140E-06
 -19.666  0.131E-06  0.131E-06
 -19.656  0.123E-06  0.123E-06
 -19.646  0.115E-06  0.115E-06
 -19.636  0.107E-06  0.107E-06
 -19.626  0.998E-07  0.998E-07
 -19.616  0.926E-07  0.926E-07
 -19.606  0.856E-07  0.856E-07
 -19.596  0.789E-07  0.789E-07
 -19.586  0.724E-07  0.724E-07
 -19.576  0.662E-07  0.662E-07
 -19.566  0.603E-07  0.603E-07
 -19.556  0.546E-07  0.546E-07
 -19.546  0.491E-07  0.491E-07
 -19.536  0.439E-07  0.439E-07
 -19.526  0.390E-07  0.390E-07
 -19.516  0.343E-07  0.343E-07
 -19.506  0.298E-07  0.298E-07
 -19.496  0.256E-07  0.256E-07
 -19.486  0.216E-07  0.216E-07
 -19.476  0.179E-07  0.179E-07
 -19.466  0.144E-07  0.144E-07
 -19.456  0.111E-07  0.111E-07
 -19.446  0.797E-08  0.797E-08
 -19.436  0.510E-08  0.510E-08
 -19.426  0.244E-08  0.244E-08
 -19.416 -0.271E-10 -0.271E-10
 -19.406 -0.229E-08 -0.229E-08
 -19.396 -0.437E-08 -0.437E-08
 -19.386 -0.626E-08 -0.626E-08
 -19.376 -0.798E-08 -0.798E-08
 -19.366 -0.953E-08 -0.953E-08
 -19.356 -0.109E-07 -0.109E-07
 -19.346 -0.121E-07 -0.121E-07
 -19.336 -0.132E-07 -0.132E-07
 -19.326 -0.141E-07 -0.141E-07
 -19.316 -0.149E-07 -0.149E-07
 -19.306 -0.156E-07 -0.156E-07
 -19.296 -0.161E-07 -0.161E-07
 -19.286 -0.165E-07 -0.165E-07
 -19.276 -0.168E-07 -0.168E-07
 -19.266 -0.170E-07 -0.170E-07
 -19.256 -0.171E-07 -0.171E-07
 -19.246 -0.171E-07 -0.171E-07
 -19.236 -0.170E-07 -0.170E-07
 -19.226 -0.168E-07 -0.168E-07
 -19.216 -0.166E-07 -0.166E-07
 -19.206 -0.163E-07 -0.163E-07
 -19.196 -0.159E-07 -0.159E-07
 -19.186 -0.154E-07 -0.154E-07
 -19.176 -0.150E-07 -0.150E-07
 -19.166 -0.144E-07 -0.144E-07
 -19.156 -0.138E-07 -0.138E-07
 -19.146 -0.132E-07 -0.132E-07
 -19.136 -0.125E-07 -0.125E-07
 -19.126 -0.119E-07 -0.119E-07
 -19.116 -0.111E-07 -0.111E-07
 -19.106 -0.104E-07 -0.104E-07
 -19.096 -0.967E-08 -0.967E-08
 -19.086 -0.890E-08 -0.890E-08
 -19.076 -0.813E-08 -0.813E-08
 -19.066 -0.735E-08 -0.735E-08
 -19.056 -0.657E-08 -0.657E-08
 -19.046 -0.580E-08 -0.580E-08
 -19.036 -0.502E-08 -0.502E-08
 -19.026 -0.425E-08 -0.425E-08
 -19.016 -0.349E-08 -0.349E-08
 -19.006 -0.274E-08 -0.274E-08
 -18.996 -0.200E-08 -0.200E-08
 -18.986 -0.128E-08 -0.128E-08
 -18.976 -0.571E-09 -0.571E-09
 -18.966  0.116E-09  0.116E-09
 -18.956  0.783E-09  0.783E-09
 -18.946  0.143E-08  0.143E-08
 -18.936  0.205E-08  0.205E-08
 -18.926  0.265E-08  0.265E-08
 -18.916  0.322E-08  0.322E-08
 -18.906  0.377E-08  0.377E-08
 -18.896  0.429E-08  0.429E-08
 -18.886  0.478E-08  0.478E-08
 -18.876  0.525E-08  0.525E-08
 -18.866  0.569E-08  0.569E-08
 -18.856  0.610E-08  0.610E-08
 -18.846  0.648E-08  0.648E-08
 -18.836  0.684E-08  0.684E-08
 -18.826  0.716E-08  0.716E-08
 -18.816  0.746E-08  0.746E-08
 -18.806  0.773E-08  0.773E-08
 -18.796  0.797E-08  0.797E-08
 -18.786  0.819E-08  0.819E-08
 -18.776  0.838E-08  0.838E-08
 -18.766  0.854E-08  0.854E-08
 -18.756  0.868E-08  0.868E-08
 -18.746  0.879E-08  0.879E-08
 -18.736  0.888E-08  0.888E-08
 -18.726  0.894E-08  0.894E-08
 -18.716  0.899E-08  0.899E-08
 -18.706  0.901E-08  0.901E-08
 -18.696  0.901E-08  0.901E-08
 -18.686  0.898E-08  0.898E-08
 -18.676  0.894E-08  0.894E-08
 -18.666  0.888E-08  0.888E-08
 -18.656  0.881E-08  0.881E-08
 -18.646  0.871E-08  0.871E-08
 -18.636  0.860E-08  0.860E-08
 -18.626  0.848E-08  0.848E-08
 -18.616  0.834E-08  0.834E-08
 -18.606  0.819E-08  0.819E-08
 -18.596  0.802E-08  0.802E-08
 -18.586  0.785E-08  0.785E-08
 -18.576  0.766E-08  0.766E-08
 -18.566  0.746E-08  0.746E-08
 -18.556  0.726E-08  0.726E-08
 -18.546  0.705E-08  0.705E-08
 -18.536  0.683E-08  0.683E-08
 -18.526  0.660E-08  0.660E-08
 -18.516  0.637E-08  0.637E-08
 -18.506  0.613E-08  0.613E-08
 -18.496  0.589E-08  0.589E-08
 -18.486  0.565E-08  0.565E-08
 -18.476  0.540E-08  0.540E-08
 -18.466  0.515E-08  0.515E-08
 -18.456  0.491E-08  0.491E-08
 -18.446  0.466E-08  0.466E-08
 -18.436  0.440E-08  0.440E-08
 -18.426  0.415E-08  0.415E-08
 -18.416  0.391E-08  0.391E-08
 -18.406  0.366E-08  0.366E-08
 -18.396  0.341E-08  0.341E-08
 -18.386  0.317E-08  0.317E-08
 -18.376  0.293E-08  0.293E-08
 -18.366  0.269E-08  0.269E-08
 -18.356  0.246E-08  0.246E-08
 -18.346  0.223E-08  0.223E-08
 -18.336  0.200E-08  0.200E-08
 -18.326  0.178E-08  0.178E-08
 -18.316  0.156E-08  0.156E-08
 -18.306  0.135E-08  0.135E-08
 -18.296  0.114E-08  0.114E-08
 -18.286  0.936E-09  0.936E-09
 -18.276  0.738E-09  0.738E-09
 -18.266  0.546E-09  0.546E-09
 -18.256  0.358E-09  0.358E-09
 -18.246  0.177E-09  0.177E-09
 -18.236  0.531E-12  0.531E-12
 -18.226 -0.170E-09 -0.170E-09
 -18.216 -0.335E-09 -0.335E-09
 -18.206 -0.495E-09 -0.495E-09
 -18.196 -0.649E-09 -0.649E-09
 -18.186 -0.798E-09 -0.798E-09
 -18.176 -0.941E-09 -0.941E-09
 -18.166 -0.108E-08 -0.108E-08
 -18.156 -0.121E-08 -0.121E-08
 -18.146 -0.134E-08 -0.134E-08
 -18.136 -0.146E-08 -0.146E-08
 -18.126 -0.158E-08 -0.158E-08
 -18.116 -0.169E-08 -0.169E-08
 -18.106 -0.180E-08 -0.180E-08
 -18.096 -0.190E-08 -0.190E-08
 -18.086 -0.200E-08 -0.200E-08
 -18.076 -0.210E-08 -0.210E-08
 -18.066 -0.219E-08 -0.219E-08
 -18.056 -0.227E-08 -0.227E-08
 -18.046 -0.236E-08 -0.236E-08
 -18.036 -0.244E-08 -0.244E-08
 -18.026 -0.251E-08 -0.251E-08
 -18.016 -0.259E-08 -0.259E-08
 -18.006 -0.266E-08 -0.266E-08
 -17.996 -0.272E-08 -0.272E-08
 -17.986 -0.279E-08 -0.279E-08
 -17.976 -0.285E-08 -0.285E-08
 -17.966 -0.291E-08 -0.291E-08
 -17.956 -0.297E-08 -0.297E-08
 -17.946 -0.303E-08 -0.303E-08
 -17.936 -0.308E-08 -0.308E-08
 -17.926 -0.313E-08 -0.313E-08
 -17.916 -0.318E-08 -0.318E-08
 -17.906 -0.324E-08 -0.324E-08
 -17.896 -0.328E-08 -0.328E-08
 -17.886 -0.333E-08 -0.333E-08
 -17.876 -0.338E-08 -0.338E-08
 -17.866 -0.343E-08 -0.343E-08
 -17.856 -0.348E-08 -0.348E-08
 -17.846 -0.352E-08 -0.352E-08
 -17.836 -0.357E-08 -0.357E-08
 -17.826 -0.362E-08 -0.362E-08
 -17.816 -0.367E-08 -0.367E-08
 -17.806 -0.371E-08 -0.371E-08
 -17.796 -0.376E-08 -0.376E-08
 -17.786 -0.381E-08 -0.381E-08
 -17.776 -0.386E-08 -0.386E-08
 -17.766 -0.392E-08 -0.392E-08
 -17.756 -0.397E-08 -0.397E-08
 -17.746 -0.402E-08 -0.402E-08
 -17.736 -0.408E-08 -0.408E-08
 -17.726 -0.414E-08 -0.414E-08
 -17.716 -0.419E-08 -0.419E-08
 -17.706 -0.425E-08 -0.425E-08
 -17.696 -0.432E-08 -0.432E-08
 -17.686 -0.438E-08 -0.438E-08
 -17.676 -0.445E-08 -0.445E-08
 -17.666 -0.452E-08 -0.452E-08
 -17.656 -0.459E-08 -0.459E-08
 -17.646 -0.466E-08 -0.466E-08
 -17.636 -0.474E-08 -0.474E-08
 -17.626 -0.481E-08 -0.481E-08
 -17.616 -0.489E-08 -0.489E-08
 -17.606 -0.497E-08 -0.497E-08
 -17.596 -0.506E-08 -0.506E-08
 -17.586 -0.514E-08 -0.514E-08
 -17.576 -0.523E-08 -0.523E-08
 -17.566 -0.532E-08 -0.532E-08
 -17.556 -0.542E-08 -0.542E-08
 -17.546 -0.551E-08 -0.551E-08
 -17.536 -0.561E-08 -0.561E-08
 -17.526 -0.570E-08 -0.570E-08
 -17.516 -0.580E-08 -0.580E-08
 -17.506 -0.590E-08 -0.590E-08
 -17.496 -0.600E-08 -0.600E-08
 -17.486 -0.610E-08 -0.610E-08
 -17.476 -0.620E-08 -0.620E-08
 -17.466 -0.631E-08 -0.631E-08
 -17.456 -0.641E-08 -0.641E-08
 -17.446 -0.651E-08 -0.651E-08
 -17.436 -0.661E-08 -0.661E-08
 -17.426 -0.670E-08 -0.670E-08
 -17.416 -0.680E-08 -0.680E-08
 -17.406 -0.689E-08 -0.689E-08
 -17.396 -0.698E-08 -0.698E-08
 -17.386 -0.706E-08 -0.706E-08
 -17.376 -0.714E-08 -0.714E-08
 -17.366 -0.722E-08 -0.722E-08
 -17.356 -0.728E-08 -0.728E-08
 -17.346 -0.734E-08 -0.734E-08
 -17.336 -0.739E-08 -0.739E-08
 -17.326 -0.743E-08 -0.743E-08
 -17.316 -0.746E-08 -0.746E-08
 -17.306 -0.748E-08 -0.748E-08
 -17.296 -0.748E-08 -0.748E-08
 -17.286 -0.748E-08 -0.748E-08
 -17.276 -0.745E-08 -0.745E-08
 -17.266 -0.741E-08 -0.741E-08
 -17.256 -0.735E-08 -0.735E-08
 -17.246 -0.727E-08 -0.727E-08
 -17.236 -0.717E-08 -0.717E-08
 -17.226 -0.704E-08 -0.704E-08
 -17.216 -0.689E-08 -0.689E-08
 -17.206 -0.671E-08 -0.671E-08
 -17.196 -0.651E-08 -0.651E-08
 -17.186 -0.627E-08 -0.627E-08
 -17.176 -0.600E-08 -0.600E-08
 -17.166 -0.569E-08 -0.569E-08
 -17.156 -0.535E-08 -0.535E-08
 -17.146 -0.497E-08 -0.497E-08
 -17.136 -0.455E-08 -0.455E-08
 -17.126 -0.408E-08 -0.408E-08
 -17.116 -0.357E-08 -0.357E-08
 -17.106 -0.301E-08 -0.301E-08
 -17.096 -0.240E-08 -0.240E-08
 -17.086 -0.173E-08 -0.173E-08
 -17.076 -0.101E-08 -0.101E-08
 -17.066 -0.236E-09 -0.236E-09
 -17.056  0.604E-09  0.604E-09
 -17.046  0.151E-08  0.151E-08
 -17.036  0.247E-08  0.247E-08
 -17.026  0.351E-08  0.351E-08
 -17.016  0.462E-08  0.462E-08
 -17.006  0.580E-08  0.580E-08
 -16.996  0.706E-08  0.706E-08
 -16.986  0.839E-08  0.839E-08
 -16.976  0.981E-08  0.981E-08
 -16.966  0.113E-07  0.113E-07
 -16.956  0.129E-07  0.129E-07
 -16.946  0.146E-07  0.146E-07
 -16.936  0.163E-07  0.163E-07
 -16.926  0.182E-07  0.182E-07
 -16.916  0.201E-07  0.201E-07
 -16.906  0.222E-07  0.222E-07
 -16.896  0.243E-07  0.243E-07
 -16.886  0.266E-07  0.266E-07
 -16.876  0.289E-07  0.289E-07
 -16.866  0.314E-07  0.314E-07
 -16.856  0.339E-07  0.339E-07
 -16.846  0.366E-07  0.366E-07
 -16.836  0.394E-07  0.394E-07
 -16.826  0.422E-07  0.422E-07
 -16.816  0.452E-07  0.452E-07
 -16.806  0.483E-07  0.483E-07
 -16.796  0.515E-07  0.515E-07
 -16.786  0.548E-07  0.548E-07
 -16.776  0.582E-07  0.582E-07
 -16.766  0.617E-07  0.617E-07
 -16.756  0.654E-07  0.654E-07
 -16.746  0.691E-07  0.691E-07
 -16.736  0.730E-07  0.730E-07
 -16.726  0.769E-07  0.769E-07
 -16.716  0.810E-07  0.810E-07
 -16.706  0.851E-07  0.851E-07
 -16.696  0.894E-07  0.894E-07
 -16.686  0.937E-07  0.937E-07
 -16.676  0.982E-07  0.982E-07
 -16.666  0.103E-06  0.103E-06
 -16.656  0.107E-06  0.107E-06
 -16.646  0.112E-06  0.112E-06
 -16.636  0.117E-06  0.117E-06
 -16.626  0.122E-06  0.122E-06
 -16.616  0.127E-06  0.127E-06
 -16.606  0.132E-06  0.132E-06
 -16.596  0.137E-06  0.137E-06
 -16.586  0.142E-06  0.142E-06
 -16.576  0.147E-06  0.147E-06
 -16.566  0.152E-06  0.152E-06
 -16.556  0.157E-06  0.157E-06
 -16.546  0.163E-06  0.163E-06
 -16.536  0.168E-06  0.168E-06
 -16.526  0.173E-06  0.173E-06
 -16.516  0.179E-06  0.179E-06
 -16.506  0.184E-06  0.184E-06
 -16.496  0.190E-06  0.190E-06
 -16.486  0.195E-06  0.195E-06
 -16.476  0.200E-06  0.200E-06
 -16.466  0.206E-06  0.206E-06
 -16.456  0.211E-06  0.211E-06
 -16.446  0.216E-06  0.216E-06
 -16.436  0.221E-06  0.221E-06
 -16.426  0.227E-06  0.227E-06
 -16.416  0.232E-06  0.232E-06
 -16.406  0.237E-06  0.237E-06
 -16.396  0.242E-06  0.242E-06
 -16.386  0.247E-06  0.247E-06
 -16.376  0.251E-06  0.251E-06
 -16.366  0.256E-06  0.256E-06
 -16.356  0.261E-06  0.261E-06
 -16.346  0.265E-06  0.265E-06
 -16.336  0.270E-06  0.270E-06
 -16.326  0.274E-06  0.274E-06
 -16.316  0.278E-06  0.278E-06
 -16.306  0.282E-06  0.282E-06
 -16.296  0.286E-06  0.286E-06
 -16.286  0.290E-06  0.290E-06
 -16.276  0.293E-06  0.293E-06
 -16.266  0.296E-06  0.296E-06
 -16.256  0.300E-06  0.300E-06
 -16.246  0.303E-06  0.303E-06
 -16.236  0.305E-06  0.305E-06
 -16.226  0.308E-06  0.308E-06
 -16.216  0.310E-06  0.310E-06
 -16.206  0.313E-06  0.313E-06
 -16.196  0.315E-06  0.315E-06
 -16.186  0.316E-06  0.316E-06
 -16.176  0.318E-06  0.318E-06
 -16.166  0.319E-06  0.319E-06
 -16.156  0.320E-06  0.320E-06
 -16.146  0.321E-06  0.321E-06
 -16.136  0.322E-06  0.322E-06
 -16.126  0.323E-06  0.323E-06
 -16.116  0.323E-06  0.323E-06
 -16.106  0.323E-06  0.323E-06
 -16.096  0.323E-06  0.323E-06
 -16.086  0.322E-06  0.322E-06
 -16.076  0.322E-06  0.322E-06
 -16.066  0.321E-06  0.321E-06
 -16.056  0.320E-06  0.320E-06
 -16.046  0.318E-06  0.318E-06
 -16.036  0.317E-06  0.317E-06
 -16.026  0.315E-06  0.315E-06
 -16.016  0.313E-06  0.313E-06
 -16.006  0.311E-06  0.311E-06
 -15.996  0.309E-06  0.309E-06
 -15.986  0.306E-06  0.306E-06
 -15.976  0.303E-06  0.303E-06
 -15.966  0.300E-06  0.300E-06
 -15.956  0.297E-06  0.297E-06
 -15.946  0.294E-06  0.294E-06
 -15.936  0.290E-06  0.290E-06
 -15.926  0.286E-06  0.286E-06
 -15.916  0.282E-06  0.282E-06
 -15.906  0.278E-06  0.278E-06
 -15.896  0.274E-06  0.274E-06
 -15.886  0.270E-06  0.270E-06
 -15.876  0.265E-06  0.265E-06
 -15.866  0.261E-06  0.261E-06
 -15.856  0.256E-06  0.256E-06
 -15.846  0.251E-06  0.251E-06
 -15.836  0.246E-06  0.246E-06
 -15.826  0.241E-06  0.241E-06
 -15.816  0.236E-06  0.236E-06
 -15.806  0.231E-06  0.231E-06
 -15.796  0.225E-06  0.225E-06
 -15.786  0.220E-06  0.220E-06
 -15.776  0.214E-06  0.214E-06
 -15.766  0.209E-06  0.209E-06
 -15.756  0.203E-06  0.203E-06
 -15.746  0.198E-06  0.198E-06
 -15.736  0.192E-06  0.192E-06
 -15.726  0.186E-06  0.186E-06
 -15.716  0.181E-06  0.181E-06
 -15.706  0.175E-06  0.175E-06
 -15.696  0.169E-06  0.169E-06
 -15.686  0.163E-06  0.163E-06
 -15.676  0.158E-06  0.158E-06
 -15.666  0.152E-06  0.152E-06
 -15.656  0.146E-06  0.146E-06
 -15.646  0.141E-06  0.141E-06
 -15.636  0.135E-06  0.135E-06
 -15.626  0.129E-06  0.129E-06
 -15.616  0.124E-06  0.124E-06
 -15.606  0.118E-06  0.118E-06
 -15.596  0.113E-06  0.113E-06
 -15.586  0.108E-06  0.108E-06
 -15.576  0.102E-06  0.102E-06
 -15.566  0.971E-07  0.971E-07
 -15.556  0.920E-07  0.920E-07
 -15.546  0.869E-07  0.869E-07
 -15.536  0.819E-07  0.819E-07
 -15.526  0.770E-07  0.770E-07
 -15.516  0.722E-07  0.722E-07
 -15.506  0.675E-07  0.675E-07
 -15.496  0.629E-07  0.629E-07
 -15.486  0.583E-07  0.583E-07
 -15.476  0.539E-07  0.539E-07
 -15.466  0.496E-07  0.496E-07
 -15.456  0.453E-07  0.453E-07
 -15.446  0.412E-07  0.412E-07
 -15.436  0.371E-07  0.371E-07
 -15.426  0.332E-07  0.332E-07
 -15.416  0.293E-07  0.293E-07
 -15.406  0.256E-07  0.256E-07
 -15.396  0.219E-07  0.219E-07
 -15.386  0.183E-07  0.183E-07
 -15.376  0.149E-07  0.149E-07
 -15.366  0.115E-07  0.115E-07
 -15.356  0.824E-08  0.824E-08
 -15.346  0.506E-08  0.506E-08
 -15.336  0.196E-08  0.196E-08
 -15.326 -0.104E-08 -0.104E-08
 -15.316 -0.396E-08 -0.396E-08
 -15.306 -0.679E-08 -0.679E-08
 -15.296 -0.955E-08 -0.955E-08
 -15.286 -0.122E-07 -0.122E-07
 -15.276 -0.148E-07 -0.148E-07
 -15.266 -0.174E-07 -0.174E-07
 -15.256 -0.198E-07 -0.198E-07
 -15.246 -0.222E-07 -0.222E-07
 -15.236 -0.245E-07 -0.245E-07
 -15.226 -0.268E-07 -0.268E-07
 -15.216 -0.290E-07 -0.290E-07
 -15.206 -0.312E-07 -0.312E-07
 -15.196 -0.333E-07 -0.333E-07
 -15.186 -0.354E-07 -0.354E-07
 -15.176 -0.374E-07 -0.374E-07
 -15.166 -0.393E-07 -0.393E-07
 -15.156 -0.413E-07 -0.413E-07
 -15.146 -0.432E-07 -0.432E-07
 -15.136 -0.451E-07 -0.451E-07
 -15.126 -0.469E-07 -0.469E-07
 -15.116 -0.487E-07 -0.487E-07
 -15.106 -0.505E-07 -0.505E-07
 -15.096 -0.523E-07 -0.523E-07
 -15.086 -0.540E-07 -0.540E-07
 -15.076 -0.558E-07 -0.558E-07
 -15.066 -0.575E-07 -0.575E-07
 -15.056 -0.592E-07 -0.592E-07
 -15.046 -0.609E-07 -0.609E-07
 -15.036 -0.626E-07 -0.626E-07
 -15.026 -0.643E-07 -0.643E-07
 -15.016 -0.660E-07 -0.660E-07
 -15.006 -0.677E-07 -0.677E-07
 -14.996 -0.693E-07 -0.693E-07
 -14.986 -0.710E-07 -0.710E-07
 -14.976 -0.727E-07 -0.727E-07
 -14.966 -0.743E-07 -0.743E-07
 -14.956 -0.760E-07 -0.760E-07
 -14.946 -0.776E-07 -0.776E-07
 -14.936 -0.793E-07 -0.793E-07
 -14.926 -0.809E-07 -0.809E-07
 -14.916 -0.826E-07 -0.826E-07
 -14.906 -0.842E-07 -0.842E-07
 -14.896 -0.858E-07 -0.858E-07
 -14.886 -0.874E-07 -0.874E-07
 -14.876 -0.889E-07 -0.889E-07
 -14.866 -0.905E-07 -0.905E-07
 -14.856 -0.920E-07 -0.920E-07
 -14.846 -0.935E-07 -0.935E-07
 -14.836 -0.949E-07 -0.949E-07
 -14.826 -0.964E-07 -0.964E-07
 -14.816 -0.977E-07 -0.977E-07
 -14.806 -0.990E-07 -0.990E-07
 -14.796 -0.100E-06 -0.100E-06
 -14.786 -0.102E-06 -0.102E-06
 -14.776 -0.103E-06 -0.103E-06
 -14.766 -0.104E-06 -0.104E-06
 -14.756 -0.105E-06 -0.105E-06
 -14.746 -0.106E-06 -0.106E-06
 -14.736 -0.106E-06 -0.106E-06
 -14.726 -0.107E-06 -0.107E-06
 -14.716 -0.108E-06 -0.108E-06
 -14.706 -0.108E-06 -0.108E-06
 -14.696 -0.108E-06 -0.108E-06
 -14.686 -0.108E-06 -0.108E-06
 -14.676 -0.108E-06 -0.108E-06
 -14.666 -0.108E-06 -0.108E-06
 -14.656 -0.108E-06 -0.108E-06
 -14.646 -0.107E-06 -0.107E-06
 -14.636 -0.106E-06 -0.106E-06
 -14.626 -0.105E-06 -0.105E-06
 -14.616 -0.104E-06 -0.104E-06
 -14.606 -0.103E-06 -0.103E-06
 -14.596 -0.101E-06 -0.101E-06
 -14.586 -0.987E-07 -0.987E-07
 -14.576 -0.964E-07 -0.964E-07
 -14.566 -0.938E-07 -0.938E-07
 -14.556 -0.908E-07 -0.908E-07
 -14.546 -0.876E-07 -0.876E-07
 -14.536 -0.839E-07 -0.839E-07
 -14.526 -0.799E-07 -0.799E-07
 -14.516 -0.756E-07 -0.756E-07
 -14.506 -0.708E-07 -0.708E-07
 -14.496 -0.657E-07 -0.657E-07
 -14.486 -0.601E-07 -0.601E-07
 -14.476 -0.540E-07 -0.540E-07
 -14.466 -0.475E-07 -0.475E-07
 -14.456 -0.406E-07 -0.406E-07
 -14.446 -0.331E-07 -0.331E-07
 -14.436 -0.252E-07 -0.252E-07
 -14.426 -0.167E-07 -0.167E-07
 -14.416 -0.770E-08 -0.770E-08
 -14.406  0.186E-08  0.186E-08
 -14.396  0.120E-07  0.120E-07
 -14.386  0.227E-07  0.227E-07
 -14.376  0.340E-07  0.340E-07
 -14.366  0.459E-07  0.459E-07
 -14.356  0.584E-07  0.584E-07
 -14.346  0.716E-07  0.716E-07
 -14.336  0.854E-07  0.854E-07
 -14.326  0.998E-07  0.998E-07
 -14.316  0.115E-06  0.115E-06
 -14.306  0.131E-06  0.131E-06
 -14.296  0.147E-06  0.147E-06
 -14.286  0.165E-06  0.165E-06
 -14.276  0.182E-06  0.182E-06
 -14.266  0.201E-06  0.201E-06
 -14.256  0.220E-06  0.220E-06
 -14.246  0.241E-06  0.241E-06
 -14.236  0.261E-06  0.261E-06
 -14.226  0.283E-06  0.283E-06
 -14.216  0.305E-06  0.305E-06
 -14.206  0.329E-06  0.329E-06
 -14.196  0.352E-06  0.352E-06
 -14.186  0.377E-06  0.377E-06
 -14.176  0.402E-06  0.402E-06
 -14.166  0.428E-06  0.428E-06
 -14.156  0.455E-06  0.455E-06
 -14.146  0.483E-06  0.483E-06
 -14.136  0.511E-06  0.511E-06
 -14.126  0.540E-06  0.540E-06
 -14.116  0.570E-06  0.570E-06
 -14.106  0.601E-06  0.601E-06
 -14.096  0.632E-06  0.632E-06
 -14.086  0.664E-06  0.664E-06
 -14.076  0.696E-06  0.696E-06
 -14.066  0.730E-06  0.730E-06
 -14.056  0.763E-06  0.763E-06
 -14.046  0.798E-06  0.798E-06
 -14.036  0.833E-06  0.833E-06
 -14.026  0.869E-06  0.869E-06
 -14.016  0.905E-06  0.905E-06
 -14.006  0.942E-06  0.942E-06
 -13.996  0.979E-06  0.979E-06
 -13.986  0.102E-05  0.102E-05
 -13.976  0.106E-05  0.106E-05
 -13.966  0.109E-05  0.109E-05
 -13.956  0.113E-05  0.113E-05
 -13.946  0.117E-05  0.117E-05
 -13.936  0.121E-05  0.121E-05
 -13.926  0.125E-05  0.125E-05
 -13.916  0.129E-05  0.129E-05
 -13.906  0.133E-05  0.133E-05
 -13.896  0.137E-05  0.137E-05
 -13.886  0.141E-05  0.141E-05
 -13.876  0.146E-05  0.146E-05
 -13.866  0.150E-05  0.150E-05
 -13.856  0.154E-05  0.154E-05
 -13.846  0.158E-05  0.158E-05
 -13.836  0.162E-05  0.162E-05
 -13.826  0.166E-05  0.166E-05
 -13.816  0.170E-05  0.170E-05
 -13.806  0.174E-05  0.174E-05
 -13.796  0.178E-05  0.178E-05
 -13.786  0.182E-05  0.182E-05
 -13.776  0.186E-05  0.186E-05
 -13.766  0.190E-05  0.190E-05
 -13.756  0.194E-05  0.194E-05
 -13.746  0.198E-05  0.198E-05
 -13.736  0.201E-05  0.201E-05
 -13.726  0.205E-05  0.205E-05
 -13.716  0.209E-05  0.209E-05
 -13.706  0.212E-05  0.212E-05
 -13.696  0.216E-05  0.216E-05
 -13.686  0.219E-05  0.219E-05
 -13.676  0.222E-05  0.222E-05
 -13.666  0.226E-05  0.226E-05
 -13.656  0.229E-05  0.229E-05
 -13.646  0.232E-05  0.232E-05
 -13.636  0.235E-05  0.235E-05
 -13.626  0.237E-05  0.237E-05
 -13.616  0.240E-05  0.240E-05
 -13.606  0.243E-05  0.243E-05
 -13.596  0.245E-05  0.245E-05
 -13.586  0.247E-05  0.247E-05
 -13.576  0.250E-05  0.250E-05
 -13.566  0.252E-05  0.252E-05
 -13.556  0.254E-05  0.254E-05
 -13.546  0.255E-05  0.255E-05
 -13.536  0.257E-05  0.257E-05
 -13.526  0.259E-05  0.259E-05
 -13.516  0.260E-05  0.260E-05
 -13.506  0.261E-05  0.261E-05
 -13.496  0.262E-05  0.262E-05
 -13.486  0.263E-05  0.263E-05
 -13.476  0.264E-05  0.264E-05
 -13.466  0.265E-05  0.265E-05
 -13.456  0.265E-05  0.265E-05
 -13.446  0.266E-05  0.266E-05
 -13.436  0.266E-05  0.266E-05
 -13.426  0.266E-05  0.266E-05
 -13.416  0.266E-05  0.266E-05
 -13.406  0.265E-05  0.265E-05
 -13.396  0.265E-05  0.265E-05
 -13.386  0.264E-05  0.264E-05
 -13.376  0.263E-05  0.263E-05
 -13.366  0.262E-05  0.262E-05
 -13.356  0.261E-05  0.261E-05
 -13.346  0.260E-05  0.260E-05
 -13.336  0.259E-05  0.259E-05
 -13.326  0.257E-05  0.257E-05
 -13.316  0.256E-05  0.256E-05
 -13.306  0.254E-05  0.254E-05
 -13.296  0.252E-05  0.252E-05
 -13.286  0.250E-05  0.250E-05
 -13.276  0.248E-05  0.248E-05
 -13.266  0.245E-05  0.245E-05
 -13.256  0.243E-05  0.243E-05
 -13.246  0.240E-05  0.240E-05
 -13.236  0.237E-05  0.237E-05
 -13.226  0.235E-05  0.235E-05
 -13.216  0.232E-05  0.232E-05
 -13.206  0.229E-05  0.229E-05
 -13.196  0.225E-05  0.225E-05
 -13.186  0.222E-05  0.222E-05
 -13.176  0.219E-05  0.219E-05
 -13.166  0.215E-05  0.215E-05
 -13.156  0.212E-05  0.212E-05
 -13.146  0.208E-05  0.208E-05
 -13.136  0.205E-05  0.205E-05
 -13.126  0.201E-05  0.201E-05
 -13.116  0.197E-05  0.197E-05
 -13.106  0.193E-05  0.193E-05
 -13.096  0.189E-05  0.189E-05
 -13.086  0.185E-05  0.185E-05
 -13.076  0.181E-05  0.181E-05
 -13.066  0.177E-05  0.177E-05
 -13.056  0.173E-05  0.173E-05
 -13.046  0.169E-05  0.169E-05
 -13.036  0.165E-05  0.165E-05
 -13.026  0.161E-05  0.161E-05
 -13.016  0.156E-05  0.156E-05
 -13.006  0.152E-05  0.152E-05
 -12.996  0.148E-05  0.148E-05
 -12.986  0.144E-05  0.144E-05
 -12.976  0.140E-05  0.140E-05
 -12.966  0.135E-05  0.135E-05
 -12.956  0.131E-05  0.131E-05
 -12.946  0.127E-05  0.127E-05
 -12.936  0.123E-05  0.123E-05
 -12.926  0.119E-05  0.119E-05
 -12.916  0.115E-05  0.115E-05
 -12.906  0.111E-05  0.111E-05
 -12.896  0.107E-05  0.107E-05
 -12.886  0.103E-05  0.103E-05
 -12.876  0.986E-06  0.986E-06
 -12.866  0.947E-06  0.947E-06
 -12.856  0.908E-06  0.908E-06
 -12.846  0.870E-06  0.870E-06
 -12.836  0.832E-06  0.832E-06
 -12.826  0.795E-06  0.795E-06
 -12.816  0.758E-06  0.758E-06
 -12.806  0.722E-06  0.722E-06
 -12.796  0.687E-06  0.687E-06
 -12.786  0.652E-06  0.652E-06
 -12.776  0.618E-06  0.618E-06
 -12.766  0.585E-06  0.585E-06
 -12.756  0.552E-06  0.552E-06
 -12.746  0.520E-06  0.520E-06
 -12.736  0.488E-06  0.488E-06
 -12.726  0.457E-06  0.457E-06
 -12.716  0.427E-06  0.427E-06
 -12.706  0.398E-06  0.398E-06
 -12.696  0.370E-06  0.370E-06
 -12.686  0.342E-06  0.342E-06
 -12.676  0.314E-06  0.314E-06
 -12.666  0.288E-06  0.288E-06
 -12.656  0.262E-06  0.262E-06
 -12.646  0.237E-06  0.237E-06
 -12.636  0.213E-06  0.213E-06
 -12.626  0.189E-06  0.189E-06
 -12.616  0.166E-06  0.166E-06
 -12.606  0.144E-06  0.144E-06
 -12.596  0.123E-06  0.123E-06
 -12.586  0.102E-06  0.102E-06
 -12.576  0.819E-07  0.819E-07
 -12.566  0.625E-07  0.625E-07
 -12.556  0.437E-07  0.437E-07
 -12.546  0.256E-07  0.256E-07
 -12.536  0.812E-08  0.812E-08
 -12.526 -0.870E-08 -0.870E-08
 -12.516 -0.249E-07 -0.249E-07
 -12.506 -0.404E-07 -0.404E-07
 -12.496 -0.554E-07 -0.554E-07
 -12.486 -0.697E-07 -0.697E-07
 -12.476 -0.835E-07 -0.835E-07
 -12.466 -0.966E-07 -0.966E-07
 -12.456 -0.109E-06 -0.109E-06
 -12.446 -0.121E-06 -0.121E-06
 -12.436 -0.133E-06 -0.133E-06
 -12.426 -0.144E-06 -0.144E-06
 -12.416 -0.154E-06 -0.154E-06
 -12.406 -0.164E-06 -0.164E-06
 -12.396 -0.173E-06 -0.173E-06
 -12.386 -0.182E-06 -0.182E-06
 -12.376 -0.190E-06 -0.190E-06
 -12.366 -0.198E-06 -0.198E-06
 -12.356 -0.205E-06 -0.205E-06
 -12.346 -0.211E-06 -0.211E-06
 -12.336 -0.217E-06 -0.217E-06
 -12.326 -0.223E-06 -0.223E-06
 -12.316 -0.228E-06 -0.228E-06
 -12.306 -0.233E-06 -0.233E-06
 -12.296 -0.237E-06 -0.237E-06
 -12.286 -0.240E-06 -0.240E-06
 -12.276 -0.244E-06 -0.244E-06
 -12.266 -0.246E-06 -0.246E-06
 -12.256 -0.248E-06 -0.248E-06
 -12.246 -0.250E-06 -0.250E-06
 -12.236 -0.250E-06 -0.250E-06
 -12.226 -0.251E-06 -0.251E-06
 -12.216 -0.251E-06 -0.251E-06
 -12.206 -0.250E-06 -0.250E-06
 -12.196 -0.249E-06 -0.249E-06
 -12.186 -0.247E-06 -0.247E-06
 -12.176 -0.244E-06 -0.244E-06
 -12.166 -0.241E-06 -0.241E-06
 -12.156 -0.237E-06 -0.237E-06
 -12.146 -0.233E-06 -0.233E-06
 -12.136 -0.228E-06 -0.228E-06
 -12.126 -0.222E-06 -0.222E-06
 -12.116 -0.216E-06 -0.216E-06
 -12.106 -0.209E-06 -0.209E-06
 -12.096 -0.201E-06 -0.201E-06
 -12.086 -0.192E-06 -0.192E-06
 -12.076 -0.183E-06 -0.183E-06
 -12.066 -0.173E-06 -0.173E-06
 -12.056 -0.162E-06 -0.162E-06
 -12.046 -0.151E-06 -0.151E-06
 -12.036 -0.138E-06 -0.138E-06
 -12.026 -0.125E-06 -0.125E-06
 -12.016 -0.111E-06 -0.111E-06
 -12.006 -0.962E-07 -0.962E-07
 -11.996 -0.805E-07 -0.805E-07
 -11.986 -0.638E-07 -0.638E-07
 -11.976 -0.463E-07 -0.463E-07
 -11.966 -0.279E-07 -0.279E-07
 -11.956 -0.859E-08 -0.859E-08
 -11.946  0.116E-07  0.116E-07
 -11.936  0.328E-07  0.328E-07
 -11.926  0.549E-07  0.549E-07
 -11.916  0.779E-07  0.779E-07
 -11.906  0.102E-06  0.102E-06
 -11.896  0.127E-06  0.127E-06
 -11.886  0.152E-06  0.152E-06
 -11.876  0.179E-06  0.179E-06
 -11.866  0.207E-06  0.207E-06
 -11.856  0.235E-06  0.235E-06
 -11.846  0.265E-06  0.265E-06
 -11.836  0.295E-06  0.295E-06
 -11.826  0.326E-06  0.326E-06
 -11.816  0.358E-06  0.358E-06
 -11.806  0.391E-06  0.391E-06
 -11.796  0.425E-06  0.425E-06
 -11.786  0.459E-06  0.459E-06
 -11.776  0.494E-06  0.494E-06
 -11.766  0.529E-06  0.529E-06
 -11.756  0.566E-06  0.566E-06
 -11.746  0.602E-06  0.602E-06
 -11.736  0.640E-06  0.640E-06
 -11.726  0.677E-06  0.677E-06
 -11.716  0.715E-06  0.715E-06
 -11.706  0.754E-06  0.754E-06
 -11.696  0.792E-06  0.792E-06
 -11.686  0.830E-06  0.830E-06
 -11.676  0.869E-06  0.869E-06
 -11.666  0.907E-06  0.907E-06
 -11.656  0.945E-06  0.945E-06
 -11.646  0.983E-06  0.983E-06
 -11.636  0.102E-05  0.102E-05
 -11.626  0.106E-05  0.106E-05
 -11.616  0.109E-05  0.109E-05
 -11.606  0.113E-05  0.113E-05
 -11.596  0.116E-05  0.116E-05
 -11.586  0.119E-05  0.119E-05
 -11.576  0.122E-05  0.122E-05
 -11.566  0.125E-05  0.125E-05
 -11.556  0.127E-05  0.127E-05
 -11.546  0.130E-05  0.130E-05
 -11.536  0.132E-05  0.132E-05
 -11.526  0.133E-05  0.133E-05
 -11.516  0.135E-05  0.135E-05
 -11.506  0.136E-05  0.136E-05
 -11.496  0.136E-05  0.136E-05
 -11.486  0.136E-05  0.136E-05
 -11.476  0.136E-05  0.136E-05
 -11.466  0.135E-05  0.135E-05
 -11.456  0.133E-05  0.133E-05
 -11.446  0.131E-05  0.131E-05
 -11.436  0.128E-05  0.128E-05
 -11.426  0.124E-05  0.124E-05
 -11.416  0.119E-05  0.119E-05
 -11.406  0.113E-05  0.113E-05
 -11.396  0.106E-05  0.106E-05
 -11.386  0.977E-06  0.977E-06
 -11.376  0.882E-06  0.882E-06
 -11.366  0.774E-06  0.774E-06
 -11.356  0.651E-06  0.651E-06
 -11.346  0.511E-06  0.511E-06
 -11.336  0.353E-06  0.353E-06
 -11.326  0.176E-06  0.176E-06
 -11.316 -0.212E-07 -0.212E-07
 -11.306 -0.241E-06 -0.241E-06
 -11.296 -0.486E-06 -0.486E-06
 -11.286 -0.757E-06 -0.757E-06
 -11.276 -0.106E-05 -0.106E-05
 -11.266 -0.139E-05 -0.139E-05
 -11.256 -0.175E-05 -0.175E-05
 -11.246 -0.215E-05 -0.215E-05
 -11.236 -0.259E-05 -0.259E-05
 -11.226 -0.307E-05 -0.307E-05
 -11.216 -0.359E-05 -0.359E-05
 -11.206 -0.416E-05 -0.416E-05
 -11.196 -0.479E-05 -0.479E-05
 -11.186 -0.547E-05 -0.547E-05
 -11.176 -0.621E-05 -0.621E-05
 -11.166 -0.702E-05 -0.702E-05
 -11.156 -0.789E-05 -0.789E-05
 -11.146 -0.884E-05 -0.884E-05
 -11.136 -0.987E-05 -0.987E-05
 -11.126 -0.110E-04 -0.110E-04
 -11.116 -0.122E-04 -0.122E-04
 -11.106 -0.135E-04 -0.135E-04
 -11.096 -0.149E-04 -0.149E-04
 -11.086 -0.164E-04 -0.164E-04
 -11.076 -0.181E-04 -0.181E-04
 -11.066 -0.199E-04 -0.199E-04
 -11.056 -0.218E-04 -0.218E-04
 -11.046 -0.239E-04 -0.239E-04
 -11.036 -0.261E-04 -0.261E-04
 -11.026 -0.285E-04 -0.285E-04
 -11.016 -0.310E-04 -0.310E-04
 -11.006 -0.338E-04 -0.338E-04
 -10.996 -0.368E-04 -0.368E-04
 -10.986 -0.400E-04 -0.400E-04
 -10.976 -0.434E-04 -0.434E-04
 -10.966 -0.470E-04 -0.470E-04
 -10.956 -0.510E-04 -0.510E-04
 -10.946 -0.552E-04 -0.552E-04
 -10.936 -0.597E-04 -0.597E-04
 -10.926 -0.645E-04 -0.645E-04
 -10.916 -0.696E-04 -0.696E-04
 -10.906 -0.751E-04 -0.751E-04
 -10.896 -0.810E-04 -0.810E-04
 -10.886 -0.873E-04 -0.873E-04
 -10.876 -0.940E-04 -0.940E-04
 -10.866 -0.101E-03 -0.101E-03
 -10.856 -0.109E-03 -0.109E-03
 -10.846 -0.117E-03 -0.117E-03
 -10.836 -0.125E-03 -0.125E-03
 -10.826 -0.134E-03 -0.134E-03
 -10.816 -0.144E-03 -0.144E-03
 -10.806 -0.154E-03 -0.154E-03
 -10.796 -0.165E-03 -0.165E-03
 -10.786 -0.177E-03 -0.177E-03
 -10.776 -0.189E-03 -0.189E-03
 -10.766 -0.202E-03 -0.202E-03
 -10.756 -0.216E-03 -0.216E-03
 -10.746 -0.231E-03 -0.231E-03
 -10.736 -0.246E-03 -0.246E-03
 -10.726 -0.262E-03 -0.262E-03
 -10.716 -0.280E-03 -0.280E-03
 -10.706 -0.298E-03 -0.298E-03
 -10.696 -0.317E-03 -0.317E-03
 -10.686 -0.337E-03 -0.337E-03
 -10.676 -0.359E-03 -0.359E-03
 -10.666 -0.381E-03 -0.381E-03
 -10.656 -0.405E-03 -0.405E-03
 -10.646 -0.429E-03 -0.429E-03
 -10.636 -0.455E-03 -0.455E-03
 -10.626 -0.483E-03 -0.483E-03
 -10.616 -0.511E-03 -0.511E-03
 -10.606 -0.541E-03 -0.541E-03
 -10.596 -0.573E-03 -0.573E-03
 -10.586 -0.606E-03 -0.606E-03
 -10.576 -0.640E-03 -0.640E-03
 -10.566 -0.676E-03 -0.676E-03
 -10.556 -0.714E-03 -0.714E-03
 -10.546 -0.753E-03 -0.753E-03
 -10.536 -0.794E-03 -0.794E-03
 -10.526 -0.836E-03 -0.836E-03
 -10.516 -0.880E-03 -0.880E-03
 -10.506 -0.926E-03 -0.926E-03
 -10.496 -0.974E-03 -0.974E-03
 -10.486 -0.102E-02 -0.102E-02
 -10.476 -0.108E-02 -0.108E-02
 -10.466 -0.113E-02 -0.113E-02
 -10.456 -0.118E-02 -0.118E-02
 -10.446 -0.124E-02 -0.124E-02
 -10.436 -0.130E-02 -0.130E-02
 -10.426 -0.136E-02 -0.136E-02
 -10.416 -0.142E-02 -0.142E-02
 -10.406 -0.149E-02 -0.149E-02
 -10.396 -0.156E-02 -0.156E-02
 -10.386 -0.163E-02 -0.163E-02
 -10.376 -0.170E-02 -0.170E-02
 -10.366 -0.177E-02 -0.177E-02
 -10.356 -0.184E-02 -0.184E-02
 -10.346 -0.192E-02 -0.192E-02
 -10.336 -0.200E-02 -0.200E-02
 -10.326 -0.208E-02 -0.208E-02
 -10.316 -0.216E-02 -0.216E-02
 -10.306 -0.224E-02 -0.224E-02
 -10.296 -0.232E-02 -0.232E-02
 -10.286 -0.241E-02 -0.241E-02
 -10.276 -0.249E-02 -0.249E-02
 -10.266 -0.258E-02 -0.258E-02
 -10.256 -0.267E-02 -0.267E-02
 -10.246 -0.276E-02 -0.276E-02
 -10.236 -0.285E-02 -0.285E-02
 -10.226 -0.294E-02 -0.294E-02
 -10.216 -0.303E-02 -0.303E-02
 -10.206 -0.312E-02 -0.312E-02
 -10.196 -0.321E-02 -0.321E-02
 -10.186 -0.330E-02 -0.330E-02
 -10.176 -0.339E-02 -0.339E-02
 -10.166 -0.348E-02 -0.348E-02
 -10.156 -0.356E-02 -0.356E-02
 -10.146 -0.365E-02 -0.365E-02
 -10.136 -0.373E-02 -0.373E-02
 -10.126 -0.381E-02 -0.381E-02
 -10.116 -0.389E-02 -0.389E-02
 -10.106 -0.397E-02 -0.397E-02
 -10.096 -0.404E-02 -0.404E-02
 -10.086 -0.411E-02 -0.411E-02
 -10.076 -0.417E-02 -0.417E-02
 -10.066 -0.423E-02 -0.423E-02
 -10.056 -0.429E-02 -0.429E-02
 -10.046 -0.434E-02 -0.434E-02
 -10.036 -0.438E-02 -0.438E-02
 -10.026 -0.442E-02 -0.442E-02
 -10.016 -0.445E-02 -0.445E-02
 -10.006 -0.447E-02 -0.447E-02
  -9.996 -0.449E-02 -0.449E-02
  -9.986 -0.449E-02 -0.449E-02
  -9.976 -0.449E-02 -0.449E-02
  -9.966 -0.448E-02 -0.448E-02
  -9.956 -0.446E-02 -0.446E-02
  -9.946 -0.443E-02 -0.443E-02
  -9.936 -0.438E-02 -0.438E-02
  -9.926 -0.433E-02 -0.433E-02
  -9.916 -0.426E-02 -0.426E-02
  -9.906 -0.417E-02 -0.417E-02
  -9.896 -0.408E-02 -0.408E-02
  -9.886 -0.397E-02 -0.397E-02
  -9.876 -0.384E-02 -0.384E-02
  -9.866 -0.370E-02 -0.370E-02
  -9.856 -0.354E-02 -0.354E-02
  -9.846 -0.337E-02 -0.337E-02
  -9.836 -0.317E-02 -0.317E-02
  -9.826 -0.296E-02 -0.296E-02
  -9.816 -0.273E-02 -0.273E-02
  -9.806 -0.248E-02 -0.248E-02
  -9.796 -0.221E-02 -0.221E-02
  -9.786 -0.192E-02 -0.192E-02
  -9.776 -0.161E-02 -0.161E-02
  -9.766 -0.127E-02 -0.127E-02
  -9.756 -0.913E-03 -0.913E-03
  -9.746 -0.533E-03 -0.533E-03
  -9.736 -0.130E-03 -0.130E-03
  -9.726  0.298E-03  0.298E-03
  -9.716  0.750E-03  0.750E-03
  -9.706  0.123E-02  0.123E-02
  -9.696  0.173E-02  0.173E-02
  -9.686  0.226E-02  0.226E-02
  -9.676  0.281E-02  0.281E-02
  -9.666  0.339E-02  0.339E-02
  -9.656  0.400E-02  0.400E-02
  -9.646  0.463E-02  0.463E-02
  -9.636  0.529E-02  0.529E-02
  -9.626  0.598E-02  0.598E-02
  -9.616  0.670E-02  0.670E-02
  -9.606  0.744E-02  0.744E-02
  -9.596  0.821E-02  0.821E-02
  -9.586  0.900E-02  0.900E-02
  -9.576  0.983E-02  0.983E-02
  -9.566  0.107E-01  0.107E-01
  -9.556  0.116E-01  0.116E-01
  -9.546  0.125E-01  0.125E-01
  -9.536  0.134E-01  0.134E-01
  -9.526  0.144E-01  0.144E-01
  -9.516  0.153E-01  0.153E-01
  -9.506  0.163E-01  0.163E-01
  -9.496  0.174E-01  0.174E-01
  -9.486  0.184E-01  0.184E-01
  -9.476  0.195E-01  0.195E-01
  -9.466  0.206E-01  0.206E-01
  -9.456  0.217E-01  0.217E-01
  -9.446  0.229E-01  0.229E-01
  -9.436  0.241E-01  0.241E-01
  -9.426  0.253E-01  0.253E-01
  -9.416  0.265E-01  0.265E-01
  -9.406  0.277E-01  0.277E-01
  -9.396  0.289E-01  0.289E-01
  -9.386  0.302E-01  0.302E-01
  -9.376  0.315E-01  0.315E-01
  -9.366  0.328E-01  0.328E-01
  -9.356  0.341E-01  0.341E-01
  -9.346  0.354E-01  0.354E-01
  -9.336  0.367E-01  0.367E-01
  -9.326  0.380E-01  0.380E-01
  -9.316  0.394E-01  0.394E-01
  -9.306  0.407E-01  0.407E-01
  -9.296  0.421E-01  0.421E-01
  -9.286  0.435E-01  0.435E-01
  -9.276  0.448E-01  0.448E-01
  -9.266  0.462E-01  0.462E-01
  -9.256  0.476E-01  0.476E-01
  -9.246  0.489E-01  0.489E-01
  -9.236  0.503E-01  0.503E-01
  -9.226  0.516E-01  0.516E-01
  -9.216  0.530E-01  0.530E-01
  -9.206  0.544E-01  0.544E-01
  -9.196  0.557E-01  0.557E-01
  -9.186  0.570E-01  0.570E-01
  -9.176  0.584E-01  0.584E-01
  -9.166  0.597E-01  0.597E-01
  -9.156  0.610E-01  0.610E-01
  -9.146  0.623E-01  0.623E-01
  -9.136  0.635E-01  0.635E-01
  -9.126  0.648E-01  0.648E-01
  -9.116  0.660E-01  0.660E-01
  -9.106  0.672E-01  0.672E-01
  -9.096  0.684E-01  0.684E-01
  -9.086  0.696E-01  0.696E-01
  -9.076  0.708E-01  0.708E-01
  -9.066  0.719E-01  0.719E-01
  -9.056  0.730E-01  0.730E-01
  -9.046  0.741E-01  0.741E-01
  -9.036  0.752E-01  0.752E-01
  -9.026  0.762E-01  0.762E-01
  -9.016  0.772E-01  0.772E-01
  -9.006  0.782E-01  0.782E-01
  -8.996  0.792E-01  0.792E-01
  -8.986  0.801E-01  0.801E-01
  -8.976  0.810E-01  0.810E-01
  -8.966  0.819E-01  0.819E-01
  -8.956  0.827E-01  0.827E-01
  -8.946  0.835E-01  0.835E-01
  -8.936  0.843E-01  0.843E-01
  -8.926  0.850E-01  0.850E-01
  -8.916  0.857E-01  0.857E-01
  -8.906  0.864E-01  0.864E-01
  -8.896  0.871E-01  0.871E-01
  -8.886  0.877E-01  0.877E-01
  -8.876  0.882E-01  0.882E-01
  -8.866  0.888E-01  0.888E-01
  -8.856  0.893E-01  0.893E-01
  -8.846  0.898E-01  0.898E-01
  -8.836  0.903E-01  0.903E-01
  -8.826  0.907E-01  0.907E-01
  -8.816  0.911E-01  0.911E-01
  -8.806  0.914E-01  0.914E-01
  -8.796  0.918E-01  0.918E-01
  -8.786  0.920E-01  0.920E-01
  -8.776  0.923E-01  0.923E-01
  -8.766  0.925E-01  0.925E-01
  -8.756  0.927E-01  0.927E-01
  -8.746  0.929E-01  0.929E-01
  -8.736  0.931E-01  0.931E-01
  -8.726  0.932E-01  0.932E-01
  -8.716  0.933E-01  0.933E-01
  -8.706  0.933E-01  0.933E-01
  -8.696  0.933E-01  0.933E-01
  -8.686  0.933E-01  0.933E-01
  -8.676  0.933E-01  0.933E-01
  -8.666  0.932E-01  0.932E-01
  -8.656  0.932E-01  0.932E-01
  -8.646  0.930E-01  0.930E-01
  -8.636  0.929E-01  0.929E-01
  -8.626  0.927E-01  0.927E-01
  -8.616  0.926E-01  0.926E-01
  -8.606  0.923E-01  0.923E-01
  -8.596  0.921E-01  0.921E-01
  -8.586  0.919E-01  0.919E-01
  -8.576  0.916E-01  0.916E-01
  -8.566  0.913E-01  0.913E-01
  -8.556  0.909E-01  0.909E-01
  -8.546  0.906E-01  0.906E-01
  -8.536  0.902E-01  0.902E-01
  -8.526  0.898E-01  0.898E-01
  -8.516  0.894E-01  0.894E-01
  -8.506  0.890E-01  0.890E-01
  -8.496  0.886E-01  0.886E-01
  -8.486  0.881E-01  0.881E-01
  -8.476  0.876E-01  0.876E-01
  -8.466  0.871E-01  0.871E-01
  -8.456  0.866E-01  0.866E-01
  -8.446  0.861E-01  0.861E-01
  -8.436  0.855E-01  0.855E-01
  -8.426  0.850E-01  0.850E-01
  -8.416  0.844E-01  0.844E-01
  -8.406  0.838E-01  0.838E-01
  -8.396  0.832E-01  0.832E-01
  -8.386  0.826E-01  0.826E-01
  -8.376  0.820E-01  0.820E-01
  -8.366  0.814E-01  0.814E-01
  -8.356  0.807E-01  0.807E-01
  -8.346  0.801E-01  0.801E-01
  -8.336  0.794E-01  0.794E-01
  -8.326  0.788E-01  0.788E-01
  -8.316  0.781E-01  0.781E-01
  -8.306  0.775E-01  0.775E-01
  -8.296  0.768E-01  0.768E-01
  -8.286  0.761E-01  0.761E-01
  -8.276  0.754E-01  0.754E-01
  -8.266  0.748E-01  0.748E-01
  -8.256  0.741E-01  0.741E-01
  -8.246  0.735E-01  0.735E-01
  -8.236  0.728E-01  0.728E-01
  -8.226  0.721E-01  0.721E-01
  -8.216  0.715E-01  0.715E-01
  -8.206  0.709E-01  0.709E-01
  -8.196  0.702E-01  0.702E-01
  -8.186  0.696E-01  0.696E-01
  -8.176  0.690E-01  0.690E-01
  -8.166  0.684E-01  0.684E-01
  -8.156  0.679E-01  0.679E-01
  -8.146  0.673E-01  0.673E-01
  -8.136  0.668E-01  0.668E-01
  -8.126  0.663E-01  0.663E-01
  -8.116  0.658E-01  0.658E-01
  -8.106  0.653E-01  0.653E-01
  -8.096  0.649E-01  0.649E-01
  -8.086  0.644E-01  0.644E-01
  -8.076  0.640E-01  0.640E-01
  -8.066  0.637E-01  0.637E-01
  -8.056  0.634E-01  0.634E-01
  -8.046  0.631E-01  0.631E-01
  -8.036  0.628E-01  0.628E-01
  -8.026  0.626E-01  0.626E-01
  -8.016  0.624E-01  0.624E-01
  -8.006  0.622E-01  0.622E-01
  -7.996  0.621E-01  0.621E-01
  -7.986  0.620E-01  0.620E-01
  -7.976  0.620E-01  0.620E-01
  -7.966  0.619E-01  0.619E-01
  -7.956  0.620E-01  0.620E-01
  -7.946  0.621E-01  0.621E-01
  -7.936  0.622E-01  0.622E-01
  -7.926  0.624E-01  0.624E-01
  -7.916  0.626E-01  0.626E-01
  -7.906  0.629E-01  0.629E-01
  -7.896  0.632E-01  0.632E-01
  -7.886  0.635E-01  0.635E-01
  -7.876  0.639E-01  0.639E-01
  -7.866  0.644E-01  0.644E-01
  -7.856  0.648E-01  0.648E-01
  -7.846  0.654E-01  0.654E-01
  -7.836  0.660E-01  0.660E-01
  -7.826  0.666E-01  0.666E-01
  -7.816  0.673E-01  0.673E-01
  -7.806  0.680E-01  0.680E-01
  -7.796  0.687E-01  0.687E-01
  -7.786  0.695E-01  0.695E-01
  -7.776  0.704E-01  0.704E-01
  -7.766  0.713E-01  0.713E-01
  -7.756  0.722E-01  0.722E-01
  -7.746  0.731E-01  0.731E-01
  -7.736  0.741E-01  0.741E-01
  -7.726  0.752E-01  0.752E-01
  -7.716  0.762E-01  0.762E-01
  -7.706  0.773E-01  0.773E-01
  -7.696  0.785E-01  0.785E-01
  -7.686  0.796E-01  0.796E-01
  -7.676  0.808E-01  0.808E-01
  -7.666  0.820E-01  0.820E-01
  -7.656  0.832E-01  0.832E-01
  -7.646  0.844E-01  0.844E-01
  -7.636  0.857E-01  0.857E-01
  -7.626  0.870E-01  0.870E-01
  -7.616  0.882E-01  0.882E-01
  -7.606  0.895E-01  0.895E-01
  -7.596  0.908E-01  0.908E-01
  -7.586  0.921E-01  0.921E-01
  -7.576  0.934E-01  0.934E-01
  -7.566  0.947E-01  0.947E-01
  -7.556  0.960E-01  0.960E-01
  -7.546  0.972E-01  0.972E-01
  -7.536  0.985E-01  0.985E-01
  -7.526  0.997E-01  0.997E-01
  -7.516  0.101E+00  0.101E+00
  -7.506  0.102E+00  0.102E+00
  -7.496  0.103E+00  0.103E+00
  -7.486  0.105E+00  0.105E+00
  -7.476  0.106E+00  0.106E+00
  -7.466  0.107E+00  0.107E+00
  -7.456  0.108E+00  0.108E+00
  -7.446  0.109E+00  0.109E+00
  -7.436  0.110E+00  0.110E+00
  -7.426  0.111E+00  0.111E+00
  -7.416  0.112E+00  0.112E+00
  -7.406  0.112E+00  0.112E+00
  -7.396  0.113E+00  0.113E+00
  -7.386  0.114E+00  0.114E+00
  -7.376  0.115E+00  0.115E+00
  -7.366  0.115E+00  0.115E+00
  -7.356  0.116E+00  0.116E+00
  -7.346  0.116E+00  0.116E+00
  -7.336  0.117E+00  0.117E+00
  -7.326  0.117E+00  0.117E+00
  -7.316  0.118E+00  0.118E+00
  -7.306  0.118E+00  0.118E+00
  -7.296  0.118E+00  0.118E+00
  -7.286  0.118E+00  0.118E+00
  -7.276  0.118E+00  0.118E+00
  -7.266  0.118E+00  0.118E+00
  -7.256  0.118E+00  0.118E+00
  -7.246  0.118E+00  0.118E+00
  -7.236  0.118E+00  0.118E+00
  -7.226  0.117E+00  0.117E+00
  -7.216  0.117E+00  0.117E+00
  -7.206  0.117E+00  0.117E+00
  -7.196  0.116E+00  0.116E+00
  -7.186  0.116E+00  0.116E+00
  -7.176  0.115E+00  0.115E+00
  -7.166  0.114E+00  0.114E+00
  -7.156  0.113E+00  0.113E+00
  -7.146  0.112E+00  0.112E+00
  -7.136  0.112E+00  0.112E+00
  -7.126  0.111E+00  0.111E+00
  -7.116  0.109E+00  0.109E+00
  -7.106  0.108E+00  0.108E+00
  -7.096  0.107E+00  0.107E+00
  -7.086  0.106E+00  0.106E+00
  -7.076  0.105E+00  0.105E+00
  -7.066  0.103E+00  0.103E+00
  -7.056  0.102E+00  0.102E+00
  -7.046  0.100E+00  0.100E+00
  -7.036  0.987E-01  0.987E-01
  -7.026  0.972E-01  0.972E-01
  -7.016  0.955E-01  0.955E-01
  -7.006  0.939E-01  0.939E-01
  -6.996  0.922E-01  0.922E-01
  -6.986  0.904E-01  0.904E-01
  -6.976  0.886E-01  0.886E-01
  -6.966  0.868E-01  0.868E-01
  -6.956  0.850E-01  0.850E-01
  -6.946  0.831E-01  0.831E-01
  -6.936  0.812E-01  0.812E-01
  -6.926  0.792E-01  0.792E-01
  -6.916  0.773E-01  0.773E-01
  -6.906  0.753E-01  0.753E-01
  -6.896  0.734E-01  0.734E-01
  -6.886  0.714E-01  0.714E-01
  -6.876  0.694E-01  0.694E-01
  -6.866  0.674E-01  0.674E-01
  -6.856  0.654E-01  0.654E-01
  -6.846  0.634E-01  0.634E-01
  -6.836  0.614E-01  0.614E-01
  -6.826  0.594E-01  0.594E-01
  -6.816  0.574E-01  0.574E-01
  -6.806  0.554E-01  0.554E-01
  -6.796  0.534E-01  0.534E-01
  -6.786  0.515E-01  0.515E-01
  -6.776  0.495E-01  0.495E-01
  -6.766  0.476E-01  0.476E-01
  -6.756  0.457E-01  0.457E-01
  -6.746  0.438E-01  0.438E-01
  -6.736  0.420E-01  0.420E-01
  -6.726  0.402E-01  0.402E-01
  -6.716  0.384E-01  0.384E-01
  -6.706  0.366E-01  0.366E-01
  -6.696  0.349E-01  0.349E-01
  -6.686  0.332E-01  0.332E-01
  -6.676  0.316E-01  0.316E-01
  -6.666  0.300E-01  0.300E-01
  -6.656  0.284E-01  0.284E-01
  -6.646  0.269E-01  0.269E-01
  -6.636  0.254E-01  0.254E-01
  -6.626  0.240E-01  0.240E-01
  -6.616  0.226E-01  0.226E-01
  -6.606  0.213E-01  0.213E-01
  -6.596  0.200E-01  0.200E-01
  -6.586  0.188E-01  0.188E-01
  -6.576  0.176E-01  0.176E-01
  -6.566  0.165E-01  0.165E-01
  -6.556  0.154E-01  0.154E-01
  -6.546  0.144E-01  0.144E-01
  -6.536  0.134E-01  0.134E-01
  -6.526  0.125E-01  0.125E-01
  -6.516  0.116E-01  0.116E-01
  -6.506  0.108E-01  0.108E-01
  -6.496  0.100E-01  0.100E-01
  -6.486  0.933E-02  0.933E-02
  -6.476  0.868E-02  0.868E-02
  -6.466  0.809E-02  0.809E-02
  -6.456  0.755E-02  0.755E-02
  -6.446  0.706E-02  0.706E-02
  -6.436  0.662E-02  0.662E-02
  -6.426  0.624E-02  0.624E-02
  -6.416  0.591E-02  0.591E-02
  -6.406  0.563E-02  0.563E-02
  -6.396  0.541E-02  0.541E-02
  -6.386  0.523E-02  0.523E-02
  -6.376  0.511E-02  0.511E-02
  -6.366  0.503E-02  0.503E-02
  -6.356  0.500E-02  0.500E-02
  -6.346  0.502E-02  0.502E-02
  -6.336  0.508E-02  0.508E-02
  -6.326  0.519E-02  0.519E-02
  -6.316  0.534E-02  0.534E-02
  -6.306  0.554E-02  0.554E-02
  -6.296  0.578E-02  0.578E-02
  -6.286  0.606E-02  0.606E-02
  -6.276  0.637E-02  0.637E-02
  -6.266  0.673E-02  0.673E-02
  -6.256  0.712E-02  0.712E-02
  -6.246  0.755E-02  0.755E-02
  -6.236  0.801E-02  0.801E-02
  -6.226  0.850E-02  0.850E-02
  -6.216  0.902E-02  0.902E-02
  -6.206  0.957E-02  0.957E-02
  -6.196  0.102E-01  0.102E-01
  -6.186  0.108E-01  0.108E-01
  -6.176  0.114E-01  0.114E-01
  -6.166  0.120E-01  0.120E-01
  -6.156  0.127E-01  0.127E-01
  -6.146  0.134E-01  0.134E-01
  -6.136  0.141E-01  0.141E-01
  -6.126  0.148E-01  0.148E-01
  -6.116  0.156E-01  0.156E-01
  -6.106  0.163E-01  0.163E-01
  -6.096  0.171E-01  0.171E-01
  -6.086  0.179E-01  0.179E-01
  -6.076  0.187E-01  0.187E-01
  -6.066  0.195E-01  0.195E-01
  -6.056  0.203E-01  0.203E-01
  -6.046  0.211E-01  0.211E-01
  -6.036  0.219E-01  0.219E-01
  -6.026  0.227E-01  0.227E-01
  -6.016  0.235E-01  0.235E-01
  -6.006  0.243E-01  0.243E-01
  -5.996  0.251E-01  0.251E-01
  -5.986  0.259E-01  0.259E-01
  -5.976  0.267E-01  0.267E-01
  -5.966  0.274E-01  0.274E-01
  -5.956  0.282E-01  0.282E-01
  -5.946  0.290E-01  0.290E-01
  -5.936  0.297E-01  0.297E-01
  -5.926  0.304E-01  0.304E-01
  -5.916  0.311E-01  0.311E-01
  -5.906  0.318E-01  0.318E-01
  -5.896  0.325E-01  0.325E-01
  -5.886  0.332E-01  0.332E-01
  -5.876  0.338E-01  0.338E-01
  -5.866  0.345E-01  0.345E-01
  -5.856  0.351E-01  0.351E-01
  -5.846  0.357E-01  0.357E-01
  -5.836  0.362E-01  0.362E-01
  -5.826  0.368E-01  0.368E-01
  -5.816  0.373E-01  0.373E-01
  -5.806  0.378E-01  0.378E-01
  -5.796  0.382E-01  0.382E-01
  -5.786  0.387E-01  0.387E-01
  -5.776  0.391E-01  0.391E-01
  -5.766  0.395E-01  0.395E-01
  -5.756  0.399E-01  0.399E-01
  -5.746  0.402E-01  0.402E-01
  -5.736  0.405E-01  0.405E-01
  -5.726  0.408E-01  0.408E-01
  -5.716  0.411E-01  0.411E-01
  -5.706  0.413E-01  0.413E-01
  -5.696  0.415E-01  0.415E-01
  -5.686  0.417E-01  0.417E-01
  -5.676  0.418E-01  0.418E-01
  -5.666  0.420E-01  0.420E-01
  -5.656  0.421E-01  0.421E-01
  -5.646  0.422E-01  0.422E-01
  -5.636  0.422E-01  0.422E-01
  -5.626  0.422E-01  0.422E-01
  -5.616  0.422E-01  0.422E-01
  -5.606  0.422E-01  0.422E-01
  -5.596  0.422E-01  0.422E-01
  -5.586  0.421E-01  0.421E-01
  -5.576  0.421E-01  0.421E-01
  -5.566  0.419E-01  0.419E-01
  -5.556  0.418E-01  0.418E-01
  -5.546  0.417E-01  0.417E-01
  -5.536  0.415E-01  0.415E-01
  -5.526  0.414E-01  0.414E-01
  -5.516  0.412E-01  0.412E-01
  -5.506  0.410E-01  0.410E-01
  -5.496  0.407E-01  0.407E-01
  -5.486  0.405E-01  0.405E-01
  -5.476  0.403E-01  0.403E-01
  -5.466  0.400E-01  0.400E-01
  -5.456  0.397E-01  0.397E-01
  -5.446  0.395E-01  0.395E-01
  -5.436  0.392E-01  0.392E-01
  -5.426  0.389E-01  0.389E-01
  -5.416  0.386E-01  0.386E-01
  -5.406  0.383E-01  0.383E-01
  -5.396  0.380E-01  0.380E-01
  -5.386  0.377E-01  0.377E-01
  -5.376  0.374E-01  0.374E-01
  -5.366  0.371E-01  0.371E-01
  -5.356  0.368E-01  0.368E-01
  -5.346  0.365E-01  0.365E-01
  -5.336  0.362E-01  0.362E-01
  -5.326  0.359E-01  0.359E-01
  -5.316  0.356E-01  0.356E-01
  -5.306  0.353E-01  0.353E-01
  -5.296  0.350E-01  0.350E-01
  -5.286  0.347E-01  0.347E-01
  -5.276  0.344E-01  0.344E-01
  -5.266  0.342E-01  0.342E-01
  -5.256  0.339E-01  0.339E-01
  -5.246  0.337E-01  0.337E-01
  -5.236  0.335E-01  0.335E-01
  -5.226  0.333E-01  0.333E-01
  -5.216  0.330E-01  0.330E-01
  -5.206  0.329E-01  0.329E-01
  -5.196  0.327E-01  0.327E-01
  -5.186  0.325E-01  0.325E-01
  -5.176  0.324E-01  0.324E-01
  -5.166  0.322E-01  0.322E-01
  -5.156  0.321E-01  0.321E-01
  -5.146  0.320E-01  0.320E-01
  -5.136  0.319E-01  0.319E-01
  -5.126  0.318E-01  0.318E-01
  -5.116  0.318E-01  0.318E-01
  -5.106  0.318E-01  0.318E-01
  -5.096  0.317E-01  0.317E-01
  -5.086  0.317E-01  0.317E-01
  -5.076  0.318E-01  0.318E-01
  -5.066  0.318E-01  0.318E-01
  -5.056  0.318E-01  0.318E-01
  -5.046  0.319E-01  0.319E-01
  -5.036  0.320E-01  0.320E-01
  -5.026  0.321E-01  0.321E-01
  -5.016  0.322E-01  0.322E-01
  -5.006  0.324E-01  0.324E-01
  -4.996  0.325E-01  0.325E-01
  -4.986  0.327E-01  0.327E-01
  -4.976  0.329E-01  0.329E-01
  -4.966  0.331E-01  0.331E-01
  -4.956  0.333E-01  0.333E-01
  -4.946  0.336E-01  0.336E-01
  -4.936  0.339E-01  0.339E-01
  -4.926  0.341E-01  0.341E-01
  -4.916  0.344E-01  0.344E-01
  -4.906  0.348E-01  0.348E-01
  -4.896  0.351E-01  0.351E-01
  -4.886  0.354E-01  0.354E-01
  -4.876  0.358E-01  0.358E-01
  -4.866  0.362E-01  0.362E-01
  -4.856  0.366E-01  0.366E-01
  -4.846  0.370E-01  0.370E-01
  -4.836  0.374E-01  0.374E-01
  -4.826  0.379E-01  0.379E-01
  -4.816  0.383E-01  0.383E-01
  -4.806  0.388E-01  0.388E-01
  -4.796  0.393E-01  0.393E-01
  -4.786  0.398E-01  0.398E-01
  -4.776  0.403E-01  0.403E-01
  -4.766  0.408E-01  0.408E-01
  -4.756  0.414E-01  0.414E-01
  -4.746  0.419E-01  0.419E-01
  -4.736  0.425E-01  0.425E-01
  -4.726  0.431E-01  0.431E-01
  -4.716  0.437E-01  0.437E-01
  -4.706  0.442E-01  0.442E-01
  -4.696  0.449E-01  0.449E-01
  -4.686  0.455E-01  0.455E-01
  -4.676  0.461E-01  0.461E-01
  -4.666  0.467E-01  0.467E-01
  -4.656  0.474E-01  0.474E-01
  -4.646  0.480E-01  0.480E-01
  -4.636  0.487E-01  0.487E-01
  -4.626  0.494E-01  0.494E-01
  -4.616  0.501E-01  0.501E-01
  -4.606  0.508E-01  0.508E-01
  -4.596  0.515E-01  0.515E-01
  -4.586  0.522E-01  0.522E-01
  -4.576  0.529E-01  0.529E-01
  -4.566  0.536E-01  0.536E-01
  -4.556  0.543E-01  0.543E-01
  -4.546  0.550E-01  0.550E-01
  -4.536  0.558E-01  0.558E-01
  -4.526  0.565E-01  0.565E-01
  -4.516  0.572E-01  0.572E-01
  -4.506  0.580E-01  0.580E-01
  -4.496  0.587E-01  0.587E-01
  -4.486  0.595E-01  0.595E-01
  -4.476  0.602E-01  0.602E-01
  -4.466  0.609E-01  0.609E-01
  -4.456  0.617E-01  0.617E-01
  -4.446  0.624E-01  0.624E-01
  -4.436  0.632E-01  0.632E-01
  -4.426  0.639E-01  0.639E-01
  -4.416  0.647E-01  0.647E-01
  -4.406  0.654E-01  0.654E-01
  -4.396  0.662E-01  0.662E-01
  -4.386  0.669E-01  0.669E-01
  -4.376  0.677E-01  0.677E-01
  -4.366  0.684E-01  0.684E-01
  -4.356  0.691E-01  0.691E-01
  -4.346  0.698E-01  0.698E-01
  -4.336  0.706E-01  0.706E-01
  -4.326  0.713E-01  0.713E-01
  -4.316  0.720E-01  0.720E-01
  -4.306  0.727E-01  0.727E-01
  -4.296  0.734E-01  0.734E-01
  -4.286  0.740E-01  0.740E-01
  -4.276  0.747E-01  0.747E-01
  -4.266  0.754E-01  0.754E-01
  -4.256  0.760E-01  0.760E-01
  -4.246  0.767E-01  0.767E-01
  -4.236  0.773E-01  0.773E-01
  -4.226  0.780E-01  0.780E-01
  -4.216  0.786E-01  0.786E-01
  -4.206  0.792E-01  0.792E-01
  -4.196  0.798E-01  0.798E-01
  -4.186  0.804E-01  0.804E-01
  -4.176  0.809E-01  0.809E-01
  -4.166  0.815E-01  0.815E-01
  -4.156  0.820E-01  0.820E-01
  -4.146  0.826E-01  0.826E-01
  -4.136  0.831E-01  0.831E-01
  -4.126  0.836E-01  0.836E-01
  -4.116  0.841E-01  0.841E-01
  -4.106  0.845E-01  0.845E-01
  -4.096  0.850E-01  0.850E-01
  -4.086  0.855E-01  0.855E-01
  -4.076  0.859E-01  0.859E-01
  -4.066  0.863E-01  0.863E-01
  -4.056  0.867E-01  0.867E-01
  -4.046  0.871E-01  0.871E-01
  -4.036  0.875E-01  0.875E-01
  -4.026  0.879E-01  0.879E-01
  -4.016  0.882E-01  0.882E-01
  -4.006  0.886E-01  0.886E-01
  -3.996  0.889E-01  0.889E-01
  -3.986  0.892E-01  0.892E-01
  -3.976  0.895E-01  0.895E-01
  -3.966  0.898E-01  0.898E-01
  -3.956  0.901E-01  0.901E-01
  -3.946  0.903E-01  0.903E-01
  -3.936  0.906E-01  0.906E-01
  -3.926  0.908E-01  0.908E-01
  -3.916  0.910E-01  0.910E-01
  -3.906  0.913E-01  0.913E-01
  -3.896  0.915E-01  0.915E-01
  -3.886  0.916E-01  0.916E-01
  -3.876  0.918E-01  0.918E-01
  -3.866  0.920E-01  0.920E-01
  -3.856  0.922E-01  0.922E-01
  -3.846  0.923E-01  0.923E-01
  -3.836  0.925E-01  0.925E-01
  -3.826  0.926E-01  0.926E-01
  -3.816  0.927E-01  0.927E-01
  -3.806  0.929E-01  0.929E-01
  -3.796  0.930E-01  0.930E-01
  -3.786  0.931E-01  0.931E-01
  -3.776  0.932E-01  0.932E-01
  -3.766  0.933E-01  0.933E-01
  -3.756  0.934E-01  0.934E-01
  -3.746  0.934E-01  0.934E-01
  -3.736  0.935E-01  0.935E-01
  -3.726  0.936E-01  0.936E-01
  -3.716  0.937E-01  0.937E-01
  -3.706  0.937E-01  0.937E-01
  -3.696  0.938E-01  0.938E-01
  -3.686  0.938E-01  0.938E-01
  -3.676  0.939E-01  0.939E-01
  -3.666  0.940E-01  0.940E-01
  -3.656  0.940E-01  0.940E-01
  -3.646  0.940E-01  0.940E-01
  -3.636  0.941E-01  0.941E-01
  -3.626  0.941E-01  0.941E-01
  -3.616  0.942E-01  0.942E-01
  -3.606  0.942E-01  0.942E-01
  -3.596  0.942E-01  0.942E-01
  -3.586  0.943E-01  0.943E-01
  -3.576  0.943E-01  0.943E-01
  -3.566  0.943E-01  0.943E-01
  -3.556  0.943E-01  0.943E-01
  -3.546  0.944E-01  0.944E-01
  -3.536  0.944E-01  0.944E-01
  -3.526  0.944E-01  0.944E-01
  -3.516  0.944E-01  0.944E-01
  -3.506  0.944E-01  0.944E-01
  -3.496  0.944E-01  0.944E-01
  -3.486  0.944E-01  0.944E-01
  -3.476  0.944E-01  0.944E-01
  -3.466  0.944E-01  0.944E-01
  -3.456  0.944E-01  0.944E-01
  -3.446  0.944E-01  0.944E-01
  -3.436  0.944E-01  0.944E-01
  -3.426  0.944E-01  0.944E-01
  -3.416  0.944E-01  0.944E-01
  -3.406  0.943E-01  0.943E-01
  -3.396  0.943E-01  0.943E-01
  -3.386  0.943E-01  0.943E-01
  -3.376  0.942E-01  0.942E-01
  -3.366  0.942E-01  0.942E-01
  -3.356  0.942E-01  0.942E-01
  -3.346  0.941E-01  0.941E-01
  -3.336  0.940E-01  0.940E-01
  -3.326  0.940E-01  0.940E-01
  -3.316  0.939E-01  0.939E-01
  -3.306  0.938E-01  0.938E-01
  -3.296  0.938E-01  0.938E-01
  -3.286  0.937E-01  0.937E-01
  -3.276  0.936E-01  0.936E-01
  -3.266  0.935E-01  0.935E-01
  -3.256  0.934E-01  0.934E-01
  -3.246  0.933E-01  0.933E-01
  -3.236  0.931E-01  0.931E-01
  -3.226  0.930E-01  0.930E-01
  -3.216  0.929E-01  0.929E-01
  -3.206  0.927E-01  0.927E-01
  -3.196  0.926E-01  0.926E-01
  -3.186  0.925E-01  0.925E-01
  -3.176  0.923E-01  0.923E-01
  -3.166  0.922E-01  0.922E-01
  -3.156  0.920E-01  0.920E-01
  -3.146  0.918E-01  0.918E-01
  -3.136  0.917E-01  0.917E-01
  -3.126  0.915E-01  0.915E-01
  -3.116  0.913E-01  0.913E-01
  -3.106  0.912E-01  0.912E-01
  -3.096  0.910E-01  0.910E-01
  -3.086  0.908E-01  0.908E-01
  -3.076  0.907E-01  0.907E-01
  -3.066  0.905E-01  0.905E-01
  -3.056  0.903E-01  0.903E-01
  -3.046  0.902E-01  0.902E-01
  -3.036  0.900E-01  0.900E-01
  -3.026  0.899E-01  0.899E-01
  -3.016  0.897E-01  0.897E-01
  -3.006  0.896E-01  0.896E-01
  -2.996  0.895E-01  0.895E-01
  -2.986  0.894E-01  0.894E-01
  -2.976  0.892E-01  0.892E-01
  -2.966  0.891E-01  0.891E-01
  -2.956  0.891E-01  0.891E-01
  -2.946  0.890E-01  0.890E-01
  -2.936  0.889E-01  0.889E-01
  -2.926  0.889E-01  0.889E-01
  -2.916  0.889E-01  0.889E-01
  -2.906  0.889E-01  0.889E-01
  -2.896  0.889E-01  0.889E-01
  -2.886  0.889E-01  0.889E-01
  -2.876  0.890E-01  0.890E-01
  -2.866  0.890E-01  0.890E-01
  -2.856  0.891E-01  0.891E-01
  -2.846  0.893E-01  0.893E-01
  -2.836  0.894E-01  0.894E-01
  -2.826  0.896E-01  0.896E-01
  -2.816  0.898E-01  0.898E-01
  -2.806  0.900E-01  0.900E-01
  -2.796  0.903E-01  0.903E-01
  -2.786  0.906E-01  0.906E-01
  -2.776  0.909E-01  0.909E-01
  -2.766  0.913E-01  0.913E-01
  -2.756  0.917E-01  0.917E-01
  -2.746  0.921E-01  0.921E-01
  -2.736  0.925E-01  0.925E-01
  -2.726  0.930E-01  0.930E-01
  -2.716  0.936E-01  0.936E-01
  -2.706  0.941E-01  0.941E-01
  -2.696  0.947E-01  0.947E-01
  -2.686  0.954E-01  0.954E-01
  -2.676  0.960E-01  0.960E-01
  -2.666  0.967E-01  0.967E-01
  -2.656  0.975E-01  0.975E-01
  -2.646  0.982E-01  0.982E-01
  -2.636  0.990E-01  0.990E-01
  -2.626  0.999E-01  0.999E-01
  -2.616  0.101E+00  0.101E+00
  -2.606  0.102E+00  0.102E+00
  -2.596  0.103E+00  0.103E+00
  -2.586  0.104E+00  0.104E+00
  -2.576  0.105E+00  0.105E+00
  -2.566  0.106E+00  0.106E+00
  -2.556  0.107E+00  0.107E+00
  -2.546  0.108E+00  0.108E+00
  -2.536  0.109E+00  0.109E+00
  -2.526  0.110E+00  0.110E+00
  -2.516  0.111E+00  0.111E+00
  -2.506  0.112E+00  0.112E+00
  -2.496  0.114E+00  0.114E+00
  -2.486  0.115E+00  0.115E+00
  -2.476  0.116E+00  0.116E+00
  -2.466  0.117E+00  0.117E+00
  -2.456  0.119E+00  0.119E+00
  -2.446  0.120E+00  0.120E+00
  -2.436  0.121E+00  0.121E+00
  -2.426  0.123E+00  0.123E+00
  -2.416  0.124E+00  0.124E+00
  -2.406  0.125E+00  0.125E+00
  -2.396  0.127E+00  0.127E+00
  -2.386  0.128E+00  0.128E+00
  -2.376  0.129E+00  0.129E+00
  -2.366  0.131E+00  0.131E+00
  -2.356  0.132E+00  0.132E+00
  -2.346  0.133E+00  0.133E+00
  -2.336  0.135E+00  0.135E+00
  -2.326  0.136E+00  0.136E+00
  -2.316  0.137E+00  0.137E+00
  -2.306  0.138E+00  0.138E+00
  -2.296  0.140E+00  0.140E+00
  -2.286  0.141E+00  0.141E+00
  -2.276  0.142E+00  0.142E+00
  -2.266  0.143E+00  0.143E+00
  -2.256  0.144E+00  0.144E+00
  -2.246  0.145E+00  0.145E+00
  -2.236  0.146E+00  0.146E+00
  -2.226  0.147E+00  0.147E+00
  -2.216  0.148E+00  0.148E+00
  -2.206  0.149E+00  0.149E+00
  -2.196  0.150E+00  0.150E+00
  -2.186  0.151E+00  0.151E+00
  -2.176  0.152E+00  0.152E+00
  -2.166  0.153E+00  0.153E+00
  -2.156  0.153E+00  0.153E+00
  -2.146  0.154E+00  0.154E+00
  -2.136  0.154E+00  0.154E+00
  -2.126  0.155E+00  0.155E+00
  -2.116  0.155E+00  0.155E+00
  -2.106  0.156E+00  0.156E+00
  -2.096  0.156E+00  0.156E+00
  -2.086  0.156E+00  0.156E+00
  -2.076  0.157E+00  0.157E+00
  -2.066  0.157E+00  0.157E+00
  -2.056  0.157E+00  0.157E+00
  -2.046  0.157E+00  0.157E+00
  -2.036  0.157E+00  0.157E+00
  -2.026  0.156E+00  0.156E+00
  -2.016  0.156E+00  0.156E+00
  -2.006  0.156E+00  0.156E+00
  -1.996  0.156E+00  0.156E+00
  -1.986  0.155E+00  0.155E+00
  -1.976  0.155E+00  0.155E+00
  -1.966  0.154E+00  0.154E+00
  -1.956  0.154E+00  0.154E+00
  -1.946  0.153E+00  0.153E+00
  -1.936  0.152E+00  0.152E+00
  -1.926  0.151E+00  0.151E+00
  -1.916  0.150E+00  0.150E+00
  -1.906  0.150E+00  0.150E+00
  -1.896  0.149E+00  0.149E+00
  -1.886  0.147E+00  0.147E+00
  -1.876  0.146E+00  0.146E+00
  -1.866  0.145E+00  0.145E+00
  -1.856  0.144E+00  0.144E+00
  -1.846  0.143E+00  0.143E+00
  -1.836  0.141E+00  0.141E+00
  -1.826  0.140E+00  0.140E+00
  -1.816  0.138E+00  0.138E+00
  -1.806  0.137E+00  0.137E+00
  -1.796  0.135E+00  0.135E+00
  -1.786  0.134E+00  0.134E+00
  -1.776  0.132E+00  0.132E+00
  -1.766  0.131E+00  0.131E+00
  -1.756  0.129E+00  0.129E+00
  -1.746  0.127E+00  0.127E+00
  -1.736  0.125E+00  0.125E+00
  -1.726  0.124E+00  0.124E+00
  -1.716  0.122E+00  0.122E+00
  -1.706  0.120E+00  0.120E+00
  -1.696  0.118E+00  0.118E+00
  -1.686  0.116E+00  0.116E+00
  -1.676  0.114E+00  0.114E+00
  -1.666  0.112E+00  0.112E+00
  -1.656  0.110E+00  0.110E+00
  -1.646  0.108E+00  0.108E+00
  -1.636  0.107E+00  0.107E+00
  -1.626  0.105E+00  0.105E+00
  -1.616  0.103E+00  0.103E+00
  -1.606  0.101E+00  0.101E+00
  -1.596  0.987E-01  0.987E-01
  -1.586  0.968E-01  0.968E-01
  -1.576  0.948E-01  0.948E-01
  -1.566  0.929E-01  0.929E-01
  -1.556  0.910E-01  0.910E-01
  -1.546  0.891E-01  0.891E-01
  -1.536  0.872E-01  0.872E-01
  -1.526  0.853E-01  0.853E-01
  -1.516  0.834E-01  0.834E-01
  -1.506  0.816E-01  0.816E-01
  -1.496  0.797E-01  0.797E-01
  -1.486  0.779E-01  0.779E-01
  -1.476  0.762E-01  0.762E-01
  -1.466  0.744E-01  0.744E-01
  -1.456  0.727E-01  0.727E-01
  -1.446  0.710E-01  0.710E-01
  -1.436  0.693E-01  0.693E-01
  -1.426  0.677E-01  0.677E-01
  -1.416  0.660E-01  0.660E-01
  -1.406  0.645E-01  0.645E-01
  -1.396  0.629E-01  0.629E-01
  -1.386  0.614E-01  0.614E-01
  -1.376  0.599E-01  0.599E-01
  -1.366  0.585E-01  0.585E-01
  -1.356  0.571E-01  0.571E-01
  -1.346  0.557E-01  0.557E-01
  -1.336  0.543E-01  0.543E-01
  -1.326  0.530E-01  0.530E-01
  -1.316  0.518E-01  0.518E-01
  -1.306  0.505E-01  0.505E-01
  -1.296  0.493E-01  0.493E-01
  -1.286  0.482E-01  0.482E-01
  -1.276  0.470E-01  0.470E-01
  -1.266  0.459E-01  0.459E-01
  -1.256  0.449E-01  0.449E-01
  -1.246  0.438E-01  0.438E-01
  -1.236  0.428E-01  0.428E-01
  -1.226  0.419E-01  0.419E-01
  -1.216  0.410E-01  0.410E-01
  -1.206  0.401E-01  0.401E-01
  -1.196  0.392E-01  0.392E-01
  -1.186  0.384E-01  0.384E-01
  -1.176  0.376E-01  0.376E-01
  -1.166  0.368E-01  0.368E-01
  -1.156  0.361E-01  0.361E-01
  -1.146  0.353E-01  0.353E-01
  -1.136  0.347E-01  0.347E-01
  -1.126  0.340E-01  0.340E-01
  -1.116  0.334E-01  0.334E-01
  -1.106  0.328E-01  0.328E-01
  -1.096  0.322E-01  0.322E-01
  -1.086  0.316E-01  0.316E-01
  -1.076  0.311E-01  0.311E-01
  -1.066  0.306E-01  0.306E-01
  -1.056  0.301E-01  0.301E-01
  -1.046  0.296E-01  0.296E-01
  -1.036  0.292E-01  0.292E-01
  -1.026  0.287E-01  0.287E-01
  -1.016  0.283E-01  0.283E-01
  -1.006  0.279E-01  0.279E-01
  -0.996  0.276E-01  0.276E-01
  -0.986  0.272E-01  0.272E-01
  -0.976  0.269E-01  0.269E-01
  -0.966  0.265E-01  0.265E-01
  -0.956  0.262E-01  0.262E-01
  -0.946  0.259E-01  0.259E-01
  -0.936  0.257E-01  0.257E-01
  -0.926  0.254E-01  0.254E-01
  -0.916  0.251E-01  0.251E-01
  -0.906  0.249E-01  0.249E-01
  -0.896  0.247E-01  0.247E-01
  -0.886  0.245E-01  0.245E-01
  -0.876  0.243E-01  0.243E-01
  -0.866  0.241E-01  0.241E-01
  -0.856  0.239E-01  0.239E-01
  -0.846  0.237E-01  0.237E-01
  -0.836  0.236E-01  0.236E-01
  -0.826  0.235E-01  0.235E-01
  -0.816  0.233E-01  0.233E-01
  -0.806  0.232E-01  0.232E-01
  -0.796  0.231E-01  0.231E-01
  -0.786  0.230E-01  0.230E-01
  -0.776  0.230E-01  0.230E-01
  -0.766  0.229E-01  0.229E-01
  -0.756  0.229E-01  0.229E-01
  -0.746  0.228E-01  0.228E-01
  -0.736  0.228E-01  0.228E-01
  -0.726  0.228E-01  0.228E-01
  -0.716  0.228E-01  0.228E-01
  -0.706  0.229E-01  0.229E-01
  -0.696  0.229E-01  0.229E-01
  -0.686  0.230E-01  0.230E-01
  -0.676  0.231E-01  0.231E-01
  -0.666  0.232E-01  0.232E-01
  -0.656  0.233E-01  0.233E-01
  -0.646  0.234E-01  0.234E-01
  -0.636  0.236E-01  0.236E-01
  -0.626  0.238E-01  0.238E-01
  -0.616  0.240E-01  0.240E-01
  -0.606  0.242E-01  0.242E-01
  -0.596  0.244E-01  0.244E-01
  -0.586  0.247E-01  0.247E-01
  -0.576  0.250E-01  0.250E-01
  -0.566  0.253E-01  0.253E-01
  -0.556  0.256E-01  0.256E-01
  -0.546  0.260E-01  0.260E-01
  -0.536  0.263E-01  0.263E-01
  -0.526  0.267E-01  0.267E-01
  -0.516  0.271E-01  0.271E-01
  -0.506  0.276E-01  0.276E-01
  -0.496  0.281E-01  0.281E-01
  -0.486  0.286E-01  0.286E-01
  -0.476  0.291E-01  0.291E-01
  -0.466  0.296E-01  0.296E-01
  -0.456  0.302E-01  0.302E-01
  -0.446  0.308E-01  0.308E-01
  -0.436  0.314E-01  0.314E-01
  -0.426  0.321E-01  0.321E-01
  -0.416  0.328E-01  0.328E-01
  -0.406  0.335E-01  0.335E-01
  -0.396  0.342E-01  0.342E-01
  -0.386  0.349E-01  0.349E-01
  -0.376  0.357E-01  0.357E-01
  -0.366  0.365E-01  0.365E-01
  -0.356  0.373E-01  0.373E-01
  -0.346  0.381E-01  0.381E-01
  -0.336  0.390E-01  0.390E-01
  -0.326  0.399E-01  0.399E-01
  -0.316  0.408E-01  0.408E-01
  -0.306  0.417E-01  0.417E-01
  -0.296  0.426E-01  0.426E-01
  -0.286  0.436E-01  0.436E-01
  -0.276  0.445E-01  0.445E-01
  -0.266  0.455E-01  0.455E-01
  -0.256  0.465E-01  0.465E-01
  -0.246  0.475E-01  0.475E-01
  -0.236  0.485E-01  0.485E-01
  -0.226  0.496E-01  0.496E-01
  -0.216  0.506E-01  0.506E-01
  -0.206  0.517E-01  0.517E-01
  -0.196  0.527E-01  0.527E-01
  -0.186  0.538E-01  0.538E-01
  -0.176  0.548E-01  0.548E-01
  -0.166  0.559E-01  0.559E-01
  -0.156  0.569E-01  0.569E-01
  -0.146  0.580E-01  0.580E-01
  -0.136  0.590E-01  0.590E-01
  -0.126  0.601E-01  0.601E-01
  -0.116  0.611E-01  0.611E-01
  -0.106  0.621E-01  0.621E-01
  -0.096  0.631E-01  0.631E-01
  -0.086  0.642E-01  0.642E-01
  -0.076  0.651E-01  0.651E-01
  -0.066  0.661E-01  0.661E-01
  -0.056  0.671E-01  0.671E-01
  -0.046  0.680E-01  0.680E-01
  -0.036  0.689E-01  0.689E-01
  -0.026  0.698E-01  0.698E-01
  -0.016  0.707E-01  0.707E-01
  -0.006  0.716E-01  0.716E-01
   0.004  0.724E-01  0.724E-01
   0.014  0.732E-01  0.732E-01
   0.024  0.739E-01  0.739E-01
   0.034  0.747E-01  0.747E-01
   0.044  0.754E-01  0.754E-01
   0.054  0.761E-01  0.761E-01
   0.064  0.767E-01  0.767E-01
   0.074  0.773E-01  0.773E-01
   0.084  0.779E-01  0.779E-01
   0.094  0.784E-01  0.784E-01
   0.104  0.789E-01  0.789E-01
   0.114  0.793E-01  0.793E-01
   0.124  0.797E-01  0.797E-01
   0.134  0.801E-01  0.801E-01
   0.144  0.804E-01  0.804E-01
   0.154  0.807E-01  0.807E-01
   0.164  0.810E-01  0.810E-01
   0.174  0.812E-01  0.812E-01
   0.184  0.813E-01  0.813E-01
   0.194  0.815E-01  0.815E-01
   0.204  0.815E-01  0.815E-01
   0.214  0.816E-01  0.816E-01
   0.224  0.816E-01  0.816E-01
   0.234  0.815E-01  0.815E-01
   0.244  0.814E-01  0.814E-01
   0.254  0.813E-01  0.813E-01
   0.264  0.812E-01  0.812E-01
   0.274  0.810E-01  0.810E-01
   0.284  0.807E-01  0.807E-01
   0.294  0.804E-01  0.804E-01
   0.304  0.801E-01  0.801E-01
   0.314  0.798E-01  0.798E-01
   0.324  0.794E-01  0.794E-01
   0.334  0.789E-01  0.789E-01
   0.344  0.785E-01  0.785E-01
   0.354  0.780E-01  0.780E-01
   0.364  0.775E-01  0.775E-01
   0.374  0.769E-01  0.769E-01
   0.384  0.764E-01  0.764E-01
   0.394  0.758E-01  0.758E-01
   0.404  0.751E-01  0.751E-01
   0.414  0.745E-01  0.745E-01
   0.424  0.738E-01  0.738E-01
   0.434  0.731E-01  0.731E-01
   0.444  0.724E-01  0.724E-01
   0.454  0.717E-01  0.717E-01
   0.464  0.710E-01  0.710E-01
   0.474  0.703E-01  0.703E-01
   0.484  0.695E-01  0.695E-01
   0.494  0.687E-01  0.687E-01
   0.504  0.680E-01  0.680E-01
   0.514  0.672E-01  0.672E-01
   0.524  0.664E-01  0.664E-01
   0.534  0.656E-01  0.656E-01
   0.544  0.649E-01  0.649E-01
   0.554  0.641E-01  0.641E-01
   0.564  0.633E-01  0.633E-01
   0.574  0.625E-01  0.625E-01
   0.584  0.618E-01  0.618E-01
   0.594  0.610E-01  0.610E-01
   0.604  0.603E-01  0.603E-01
   0.614  0.595E-01  0.595E-01
   0.624  0.588E-01  0.588E-01
   0.634  0.581E-01  0.581E-01
   0.644  0.574E-01  0.574E-01
   0.654  0.567E-01  0.567E-01
   0.664  0.561E-01  0.561E-01
   0.674  0.555E-01  0.555E-01
   0.684  0.548E-01  0.548E-01
   0.694  0.542E-01  0.542E-01
   0.704  0.537E-01  0.537E-01
   0.714  0.531E-01  0.531E-01
   0.724  0.526E-01  0.526E-01
   0.734  0.521E-01  0.521E-01
   0.744  0.516E-01  0.516E-01
   0.754  0.511E-01  0.511E-01
   0.764  0.507E-01  0.507E-01
   0.774  0.503E-01  0.503E-01
   0.784  0.499E-01  0.499E-01
   0.794  0.496E-01  0.496E-01
   0.804  0.492E-01  0.492E-01
   0.814  0.489E-01  0.489E-01
   0.824  0.486E-01  0.486E-01
   0.834  0.484E-01  0.484E-01
   0.844  0.482E-01  0.482E-01
   0.854  0.480E-01  0.480E-01
   0.864  0.478E-01  0.478E-01
   0.874  0.476E-01  0.476E-01
   0.884  0.475E-01  0.475E-01
   0.894  0.474E-01  0.474E-01
   0.904  0.473E-01  0.473E-01
   0.914  0.473E-01  0.473E-01
   0.924  0.472E-01  0.472E-01
   0.934  0.472E-01  0.472E-01
   0.944  0.472E-01  0.472E-01
   0.954  0.472E-01  0.472E-01
   0.964  0.472E-01  0.472E-01
   0.974  0.473E-01  0.473E-01
   0.984  0.473E-01  0.473E-01
   0.994  0.474E-01  0.474E-01
   1.004  0.475E-01  0.475E-01
   1.014  0.476E-01  0.476E-01
   1.024  0.477E-01  0.477E-01
   1.034  0.478E-01  0.478E-01
   1.044  0.479E-01  0.479E-01
   1.054  0.480E-01  0.480E-01
   1.064  0.482E-01  0.482E-01
   1.074  0.483E-01  0.483E-01
   1.084  0.484E-01  0.484E-01
   1.094  0.486E-01  0.486E-01
   1.104  0.487E-01  0.487E-01
   1.114  0.488E-01  0.488E-01
   1.124  0.490E-01  0.490E-01
   1.134  0.491E-01  0.491E-01
   1.144  0.492E-01  0.492E-01
   1.154  0.493E-01  0.493E-01
   1.164  0.494E-01  0.494E-01
   1.174  0.495E-01  0.495E-01
   1.184  0.496E-01  0.496E-01
   1.194  0.497E-01  0.497E-01
   1.204  0.497E-01  0.497E-01
   1.214  0.498E-01  0.498E-01
   1.224  0.498E-01  0.498E-01
   1.234  0.498E-01  0.498E-01
   1.244  0.498E-01  0.498E-01
   1.254  0.498E-01  0.498E-01
   1.264  0.498E-01  0.498E-01
   1.274  0.497E-01  0.497E-01
   1.284  0.497E-01  0.497E-01
   1.294  0.496E-01  0.496E-01
   1.304  0.495E-01  0.495E-01
   1.314  0.493E-01  0.493E-01
   1.324  0.492E-01  0.492E-01
   1.334  0.490E-01  0.490E-01
   1.344  0.488E-01  0.488E-01
   1.354  0.486E-01  0.486E-01
   1.364  0.484E-01  0.484E-01
   1.374  0.481E-01  0.481E-01
   1.384  0.478E-01  0.478E-01
   1.394  0.475E-01  0.475E-01
   1.404  0.472E-01  0.472E-01
   1.414  0.469E-01  0.469E-01
   1.424  0.465E-01  0.465E-01
   1.434  0.461E-01  0.461E-01
   1.444  0.457E-01  0.457E-01
   1.454  0.453E-01  0.453E-01
   1.464  0.449E-01  0.449E-01
   1.474  0.444E-01  0.444E-01
   1.484  0.440E-01  0.440E-01
   1.494  0.435E-01  0.435E-01
   1.504  0.430E-01  0.430E-01
   1.514  0.424E-01  0.424E-01
   1.524  0.419E-01  0.419E-01
   1.534  0.413E-01  0.413E-01
   1.544  0.408E-01  0.408E-01
   1.554  0.402E-01  0.402E-01
   1.564  0.396E-01  0.396E-01
   1.574  0.390E-01  0.390E-01
   1.584  0.384E-01  0.384E-01
   1.594  0.378E-01  0.378E-01
   1.604  0.372E-01  0.372E-01
   1.614  0.365E-01  0.365E-01
   1.624  0.359E-01  0.359E-01
   1.634  0.353E-01  0.353E-01
   1.644  0.346E-01  0.346E-01
   1.654  0.340E-01  0.340E-01
   1.664  0.334E-01  0.334E-01
   1.674  0.327E-01  0.327E-01
   1.684  0.321E-01  0.321E-01
   1.694  0.315E-01  0.315E-01
   1.704  0.308E-01  0.308E-01
   1.714  0.302E-01  0.302E-01
   1.724  0.296E-01  0.296E-01
   1.734  0.290E-01  0.290E-01
   1.744  0.284E-01  0.284E-01
   1.754  0.278E-01  0.278E-01
   1.764  0.273E-01  0.273E-01
   1.774  0.267E-01  0.267E-01
   1.784  0.262E-01  0.262E-01
   1.794  0.257E-01  0.257E-01
   1.804  0.252E-01  0.252E-01
   1.814  0.247E-01  0.247E-01
   1.824  0.242E-01  0.242E-01
   1.834  0.238E-01  0.238E-01
   1.844  0.233E-01  0.233E-01
   1.854  0.229E-01  0.229E-01
   1.864  0.226E-01  0.226E-01
   1.874  0.222E-01  0.222E-01
   1.884  0.219E-01  0.219E-01
   1.894  0.216E-01  0.216E-01
   1.904  0.213E-01  0.213E-01
   1.914  0.211E-01  0.211E-01
   1.924  0.209E-01  0.209E-01
   1.934  0.207E-01  0.207E-01
   1.944  0.205E-01  0.205E-01
   1.954  0.204E-01  0.204E-01
   1.964  0.203E-01  0.203E-01
   1.974  0.203E-01  0.203E-01
   1.984  0.203E-01  0.203E-01
   1.994  0.203E-01  0.203E-01
   2.004  0.203E-01  0.203E-01
   2.014  0.204E-01  0.204E-01
   2.024  0.205E-01  0.205E-01
   2.034  0.207E-01  0.207E-01
   2.044  0.208E-01  0.208E-01
   2.054  0.211E-01  0.211E-01
   2.064  0.213E-01  0.213E-01
   2.074  0.216E-01  0.216E-01
   2.084  0.219E-01  0.219E-01
   2.094  0.223E-01  0.223E-01
   2.104  0.227E-01  0.227E-01
   2.114  0.231E-01  0.231E-01
   2.124  0.236E-01  0.236E-01
   2.134  0.241E-01  0.241E-01
   2.144  0.246E-01  0.246E-01
   2.154  0.252E-01  0.252E-01
   2.164  0.258E-01  0.258E-01
   2.174  0.264E-01  0.264E-01
   2.184  0.271E-01  0.271E-01
   2.194  0.278E-01  0.278E-01
   2.204  0.285E-01  0.285E-01
   2.214  0.292E-01  0.292E-01
   2.224  0.300E-01  0.300E-01
   2.234  0.308E-01  0.308E-01
   2.244  0.316E-01  0.316E-01
   2.254  0.325E-01  0.325E-01
   2.264  0.334E-01  0.334E-01
   2.274  0.343E-01  0.343E-01
   2.284  0.352E-01  0.352E-01
   2.294  0.362E-01  0.362E-01
   2.304  0.371E-01  0.371E-01
   2.314  0.381E-01  0.381E-01
   2.324  0.391E-01  0.391E-01
   2.334  0.401E-01  0.401E-01
   2.344  0.412E-01  0.412E-01
   2.354  0.422E-01  0.422E-01
   2.364  0.433E-01  0.433E-01
   2.374  0.443E-01  0.443E-01
   2.384  0.454E-01  0.454E-01
   2.394  0.465E-01  0.465E-01
   2.404  0.475E-01  0.475E-01
   2.414  0.486E-01  0.486E-01
   2.424  0.497E-01  0.497E-01
   2.434  0.508E-01  0.508E-01
   2.444  0.519E-01  0.519E-01
   2.454  0.529E-01  0.529E-01
   2.464  0.540E-01  0.540E-01
   2.474  0.551E-01  0.551E-01
   2.484  0.561E-01  0.561E-01
   2.494  0.572E-01  0.572E-01
   2.504  0.582E-01  0.582E-01
   2.514  0.592E-01  0.592E-01
   2.524  0.602E-01  0.602E-01
   2.534  0.612E-01  0.612E-01
   2.544  0.621E-01  0.621E-01
   2.554  0.631E-01  0.631E-01
   2.564  0.640E-01  0.640E-01
   2.574  0.649E-01  0.649E-01
   2.584  0.657E-01  0.657E-01
   2.594  0.666E-01  0.666E-01
   2.604  0.674E-01  0.674E-01
   2.614  0.682E-01  0.682E-01
   2.624  0.689E-01  0.689E-01
   2.634  0.696E-01  0.696E-01
   2.644  0.703E-01  0.703E-01
   2.654  0.709E-01  0.709E-01
   2.664  0.715E-01  0.715E-01
   2.674  0.721E-01  0.721E-01
   2.684  0.726E-01  0.726E-01
   2.694  0.731E-01  0.731E-01
   2.704  0.735E-01  0.735E-01
   2.714  0.739E-01  0.739E-01
   2.724  0.743E-01  0.743E-01
   2.734  0.746E-01  0.746E-01
   2.744  0.749E-01  0.749E-01
   2.754  0.751E-01  0.751E-01
   2.764  0.753E-01  0.753E-01
   2.774  0.754E-01  0.754E-01
   2.784  0.755E-01  0.755E-01
   2.794  0.756E-01  0.756E-01
   2.804  0.756E-01  0.756E-01
   2.814  0.755E-01  0.755E-01
   2.824  0.754E-01  0.754E-01
   2.834  0.753E-01  0.753E-01
   2.844  0.751E-01  0.751E-01
   2.854  0.749E-01  0.749E-01
   2.864  0.746E-01  0.746E-01
   2.874  0.742E-01  0.742E-01
   2.884  0.739E-01  0.739E-01
   2.894  0.735E-01  0.735E-01
   2.904  0.730E-01  0.730E-01
   2.914  0.725E-01  0.725E-01
   2.924  0.720E-01  0.720E-01
   2.934  0.714E-01  0.714E-01
   2.944  0.708E-01  0.708E-01
   2.954  0.701E-01  0.701E-01
   2.964  0.694E-01  0.694E-01
   2.974  0.686E-01  0.686E-01
   2.984  0.679E-01  0.679E-01
   2.994  0.670E-01  0.670E-01
   3.004  0.662E-01  0.662E-01
   3.014  0.653E-01  0.653E-01
   3.024  0.644E-01  0.644E-01
   3.034  0.635E-01  0.635E-01
   3.044  0.625E-01  0.625E-01
   3.054  0.615E-01  0.615E-01
   3.064  0.605E-01  0.605E-01
   3.074  0.594E-01  0.594E-01
   3.084  0.584E-01  0.584E-01
   3.094  0.573E-01  0.573E-01
   3.104  0.561E-01  0.561E-01
   3.114  0.550E-01  0.550E-01
   3.124  0.539E-01  0.539E-01
   3.134  0.527E-01  0.527E-01
   3.144  0.515E-01  0.515E-01
   3.154  0.503E-01  0.503E-01
   3.164  0.491E-01  0.491E-01
   3.174  0.479E-01  0.479E-01
   3.184  0.467E-01  0.467E-01
   3.194  0.455E-01  0.455E-01
   3.204  0.442E-01  0.442E-01
   3.214  0.430E-01  0.430E-01
   3.224  0.418E-01  0.418E-01
   3.234  0.405E-01  0.405E-01
   3.244  0.393E-01  0.393E-01
   3.254  0.381E-01  0.381E-01
   3.264  0.369E-01  0.369E-01
   3.274  0.356E-01  0.356E-01
   3.284  0.344E-01  0.344E-01
   3.294  0.332E-01  0.332E-01
   3.304  0.320E-01  0.320E-01
   3.314  0.309E-01  0.309E-01
   3.324  0.297E-01  0.297E-01
   3.334  0.285E-01  0.285E-01
   3.344  0.274E-01  0.274E-01
   3.354  0.262E-01  0.262E-01
   3.364  0.251E-01  0.251E-01
   3.374  0.240E-01  0.240E-01
   3.384  0.230E-01  0.230E-01
   3.394  0.219E-01  0.219E-01
   3.404  0.208E-01  0.208E-01
   3.414  0.198E-01  0.198E-01
   3.424  0.188E-01  0.188E-01
   3.434  0.178E-01  0.178E-01
   3.444  0.169E-01  0.169E-01
   3.454  0.159E-01  0.159E-01
   3.464  0.150E-01  0.150E-01
   3.474  0.141E-01  0.141E-01
   3.484  0.133E-01  0.133E-01
   3.494  0.124E-01  0.124E-01
   3.504  0.116E-01  0.116E-01
   3.514  0.108E-01  0.108E-01
   3.524  0.100E-01  0.100E-01
   3.534  0.928E-02  0.928E-02
   3.544  0.855E-02  0.855E-02
   3.554  0.785E-02  0.785E-02
   3.564  0.717E-02  0.717E-02
   3.574  0.652E-02  0.652E-02
   3.584  0.590E-02  0.590E-02
   3.594  0.529E-02  0.529E-02
   3.604  0.471E-02  0.471E-02
   3.614  0.416E-02  0.416E-02
   3.624  0.363E-02  0.363E-02
   3.634  0.312E-02  0.312E-02
   3.644  0.263E-02  0.263E-02
   3.654  0.217E-02  0.217E-02
   3.664  0.173E-02  0.173E-02
   3.674  0.131E-02  0.131E-02
   3.684  0.915E-03  0.915E-03
   3.694  0.539E-03  0.539E-03
   3.704  0.183E-03  0.183E-03
   3.714 -0.152E-03 -0.152E-03
   3.724 -0.467E-03 -0.467E-03
   3.734 -0.763E-03 -0.763E-03
   3.744 -0.104E-02 -0.104E-02
   3.754 -0.130E-02 -0.130E-02
   3.764 -0.154E-02 -0.154E-02
   3.774 -0.177E-02 -0.177E-02
   3.784 -0.197E-02 -0.197E-02
   3.794 -0.216E-02 -0.216E-02
   3.804 -0.234E-02 -0.234E-02
   3.814 -0.250E-02 -0.250E-02
   3.824 -0.265E-02 -0.265E-02
   3.834 -0.278E-02 -0.278E-02
   3.844 -0.290E-02 -0.290E-02
   3.854 -0.301E-02 -0.301E-02
   3.864 -0.310E-02 -0.310E-02
   3.874 -0.318E-02 -0.318E-02
   3.884 -0.325E-02 -0.325E-02
   3.894 -0.331E-02 -0.331E-02
   3.904 -0.336E-02 -0.336E-02
   3.914 -0.340E-02 -0.340E-02
   3.924 -0.343E-02 -0.343E-02
   3.934 -0.346E-02 -0.346E-02
   3.944 -0.347E-02 -0.347E-02
   3.954 -0.348E-02 -0.348E-02
   3.964 -0.348E-02 -0.348E-02
   3.974 -0.347E-02 -0.347E-02
   3.984 -0.346E-02 -0.346E-02
   3.994 -0.344E-02 -0.344E-02
   4.004 -0.341E-02 -0.341E-02
   4.014 -0.338E-02 -0.338E-02
   4.024 -0.335E-02 -0.335E-02
   4.034 -0.331E-02 -0.331E-02
   4.044 -0.327E-02 -0.327E-02
   4.054 -0.322E-02 -0.322E-02
   4.064 -0.317E-02 -0.317E-02
   4.074 -0.312E-02 -0.312E-02
   4.084 -0.306E-02 -0.306E-02
   4.094 -0.300E-02 -0.300E-02
   4.104 -0.294E-02 -0.294E-02
   4.114 -0.288E-02 -0.288E-02
   4.124 -0.282E-02 -0.282E-02
   4.134 -0.275E-02 -0.275E-02
   4.144 -0.268E-02 -0.268E-02
   4.154 -0.262E-02 -0.262E-02
   4.164 -0.255E-02 -0.255E-02
   4.174 -0.248E-02 -0.248E-02
   4.184 -0.241E-02 -0.241E-02
   4.194 -0.235E-02 -0.235E-02
   4.204 -0.228E-02 -0.228E-02
   4.214 -0.221E-02 -0.221E-02
   4.224 -0.214E-02 -0.214E-02
   4.234 -0.207E-02 -0.207E-02
   4.244 -0.201E-02 -0.201E-02
   4.254 -0.194E-02 -0.194E-02
   4.264 -0.188E-02 -0.188E-02
   4.274 -0.181E-02 -0.181E-02
   4.284 -0.175E-02 -0.175E-02
   4.294 -0.169E-02 -0.169E-02
   4.304 -0.163E-02 -0.163E-02
   4.314 -0.156E-02 -0.156E-02
   4.324 -0.151E-02 -0.151E-02
   4.334 -0.145E-02 -0.145E-02
   4.344 -0.139E-02 -0.139E-02
   4.354 -0.134E-02 -0.134E-02
   4.364 -0.128E-02 -0.128E-02
   4.374 -0.123E-02 -0.123E-02
   4.384 -0.118E-02 -0.118E-02
   4.394 -0.113E-02 -0.113E-02
   4.404 -0.108E-02 -0.108E-02
   4.414 -0.104E-02 -0.104E-02
   4.424 -0.990E-03 -0.990E-03
   4.434 -0.946E-03 -0.946E-03
   4.444 -0.904E-03 -0.904E-03
   4.454 -0.863E-03 -0.863E-03
   4.464 -0.823E-03 -0.823E-03
   4.474 -0.785E-03 -0.785E-03
   4.484 -0.748E-03 -0.748E-03
   4.494 -0.712E-03 -0.712E-03
   4.504 -0.678E-03 -0.678E-03
   4.514 -0.645E-03 -0.645E-03
   4.524 -0.613E-03 -0.613E-03
   4.534 -0.583E-03 -0.583E-03
   4.544 -0.554E-03 -0.554E-03
   4.554 -0.526E-03 -0.526E-03
   4.564 -0.499E-03 -0.499E-03
   4.574 -0.473E-03 -0.473E-03
   4.584 -0.448E-03 -0.448E-03
   4.594 -0.425E-03 -0.425E-03
   4.604 -0.402E-03 -0.402E-03
   4.614 -0.380E-03 -0.380E-03
   4.624 -0.360E-03 -0.360E-03
   4.634 -0.340E-03 -0.340E-03
   4.644 -0.321E-03 -0.321E-03
   4.654 -0.303E-03 -0.303E-03
   4.664 -0.286E-03 -0.286E-03
   4.674 -0.270E-03 -0.270E-03
   4.684 -0.255E-03 -0.255E-03
   4.694 -0.240E-03 -0.240E-03
   4.704 -0.226E-03 -0.226E-03
   4.714 -0.213E-03 -0.213E-03
   4.724 -0.200E-03 -0.200E-03
   4.734 -0.188E-03 -0.188E-03
   4.744 -0.177E-03 -0.177E-03
   4.754 -0.167E-03 -0.167E-03
   4.764 -0.156E-03 -0.156E-03
   4.774 -0.147E-03 -0.147E-03
   4.784 -0.138E-03 -0.138E-03
   4.794 -0.129E-03 -0.129E-03
   4.804 -0.121E-03 -0.121E-03
   4.814 -0.113E-03 -0.113E-03
   4.824 -0.106E-03 -0.106E-03
   4.834 -0.995E-04 -0.995E-04
   4.844 -0.931E-04 -0.931E-04
   4.854 -0.870E-04 -0.870E-04
   4.864 -0.814E-04 -0.814E-04
   4.874 -0.760E-04 -0.760E-04
   4.884 -0.710E-04 -0.710E-04
   4.894 -0.663E-04 -0.663E-04
   4.904 -0.618E-04 -0.618E-04
   4.914 -0.577E-04 -0.577E-04
   4.924 -0.537E-04 -0.537E-04
   4.934 -0.501E-04 -0.501E-04
   4.944 -0.466E-04 -0.466E-04
   4.954 -0.434E-04 -0.434E-04
   4.964 -0.404E-04 -0.404E-04
   4.974 -0.376E-04 -0.376E-04
   4.984 -0.349E-04 -0.349E-04
   4.994 -0.324E-04 -0.324E-04
   5.004 -0.301E-04 -0.301E-04
   5.014 -0.280E-04 -0.280E-04
   5.024 -0.260E-04 -0.260E-04
   5.034 -0.241E-04 -0.241E-04
   5.044 -0.223E-04 -0.223E-04
   5.054 -0.207E-04 -0.207E-04
   5.064 -0.192E-04 -0.192E-04
   5.074 -0.177E-04 -0.177E-04
   5.084 -0.164E-04 -0.164E-04
   5.094 -0.152E-04 -0.152E-04
   5.104 -0.140E-04 -0.140E-04
   5.114 -0.130E-04 -0.130E-04
   5.124 -0.120E-04 -0.120E-04
   5.134 -0.111E-04 -0.111E-04
   5.144 -0.102E-04 -0.102E-04
   5.154 -0.942E-05 -0.942E-05
   5.164 -0.869E-05 -0.869E-05
   5.174 -0.801E-05 -0.801E-05
   5.184 -0.738E-05 -0.738E-05
   5.194 -0.679E-05 -0.679E-05
   5.204 -0.625E-05 -0.625E-05
   5.214 -0.575E-05 -0.575E-05
   5.224 -0.529E-05 -0.529E-05
   5.234 -0.487E-05 -0.487E-05
   5.244 -0.447E-05 -0.447E-05
   5.254 -0.411E-05 -0.411E-05
   5.264 -0.377E-05 -0.377E-05
   5.274 -0.346E-05 -0.346E-05
   5.284 -0.317E-05 -0.317E-05
   5.294 -0.291E-05 -0.291E-05
