# E (eV)   ldos(E)   pdos(E)   
 -27.116 -0.179E-08 -0.179E-08
 -27.106 -0.193E-08 -0.193E-08
 -27.096 -0.209E-08 -0.209E-08
 -27.086 -0.225E-08 -0.225E-08
 -27.076 -0.242E-08 -0.242E-08
 -27.066 -0.261E-08 -0.261E-08
 -27.056 -0.281E-08 -0.281E-08
 -27.046 -0.302E-08 -0.302E-08
 -27.036 -0.325E-08 -0.325E-08
 -27.026 -0.349E-08 -0.349E-08
 -27.016 -0.375E-08 -0.375E-08
 -27.006 -0.403E-08 -0.403E-08
 -26.996 -0.432E-08 -0.432E-08
 -26.986 -0.464E-08 -0.464E-08
 -26.976 -0.497E-08 -0.497E-08
 -26.966 -0.532E-08 -0.532E-08
 -26.956 -0.570E-08 -0.570E-08
 -26.946 -0.610E-08 -0.610E-08
 -26.936 -0.653E-08 -0.653E-08
 -26.926 -0.698E-08 -0.698E-08
 -26.916 -0.746E-08 -0.746E-08
 -26.906 -0.796E-08 -0.796E-08
 -26.896 -0.850E-08 -0.850E-08
 -26.886 -0.907E-08 -0.907E-08
 -26.876 -0.967E-08 -0.967E-08
 -26.866 -0.103E-07 -0.103E-07
 -26.856 -0.110E-07 -0.110E-07
 -26.846 -0.117E-07 -0.117E-07
 -26.836 -0.124E-07 -0.124E-07
 -26.826 -0.132E-07 -0.132E-07
 -26.816 -0.140E-07 -0.140E-07
 -26.806 -0.149E-07 -0.149E-07
 -26.796 -0.158E-07 -0.158E-07
 -26.786 -0.168E-07 -0.168E-07
 -26.776 -0.178E-07 -0.178E-07
 -26.766 -0.188E-07 -0.188E-07
 -26.756 -0.200E-07 -0.200E-07
 -26.746 -0.211E-07 -0.211E-07
 -26.736 -0.223E-07 -0.223E-07
 -26.726 -0.236E-07 -0.236E-07
 -26.716 -0.249E-07 -0.249E-07
 -26.706 -0.263E-07 -0.263E-07
 -26.696 -0.278E-07 -0.278E-07
 -26.686 -0.293E-07 -0.293E-07
 -26.676 -0.309E-07 -0.309E-07
 -26.666 -0.325E-07 -0.325E-07
 -26.656 -0.342E-07 -0.342E-07
 -26.646 -0.360E-07 -0.360E-07
 -26.636 -0.379E-07 -0.379E-07
 -26.626 -0.398E-07 -0.398E-07
 -26.616 -0.418E-07 -0.418E-07
 -26.606 -0.438E-07 -0.438E-07
 -26.596 -0.459E-07 -0.459E-07
 -26.586 -0.481E-07 -0.481E-07
 -26.576 -0.504E-07 -0.504E-07
 -26.566 -0.527E-07 -0.527E-07
 -26.556 -0.552E-07 -0.552E-07
 -26.546 -0.576E-07 -0.576E-07
 -26.536 -0.602E-07 -0.602E-07
 -26.526 -0.628E-07 -0.628E-07
 -26.516 -0.655E-07 -0.655E-07
 -26.506 -0.683E-07 -0.683E-07
 -26.496 -0.711E-07 -0.711E-07
 -26.486 -0.740E-07 -0.740E-07
 -26.476 -0.769E-07 -0.769E-07
 -26.466 -0.799E-07 -0.799E-07
 -26.456 -0.829E-07 -0.829E-07
 -26.446 -0.860E-07 -0.860E-07
 -26.436 -0.892E-07 -0.892E-07
 -26.426 -0.924E-07 -0.924E-07
 -26.416 -0.956E-07 -0.956E-07
 -26.406 -0.988E-07 -0.988E-07
 -26.396 -0.102E-06 -0.102E-06
 -26.386 -0.105E-06 -0.105E-06
 -26.376 -0.109E-06 -0.109E-06
 -26.366 -0.112E-06 -0.112E-06
 -26.356 -0.115E-06 -0.115E-06
 -26.346 -0.118E-06 -0.118E-06
 -26.336 -0.122E-06 -0.122E-06
 -26.326 -0.125E-06 -0.125E-06
 -26.316 -0.128E-06 -0.128E-06
 -26.306 -0.131E-06 -0.131E-06
 -26.296 -0.134E-06 -0.134E-06
 -26.286 -0.137E-06 -0.137E-06
 -26.276 -0.140E-06 -0.140E-06
 -26.266 -0.143E-06 -0.143E-06
 -26.256 -0.145E-06 -0.145E-06
 -26.246 -0.148E-06 -0.148E-06
 -26.236 -0.150E-06 -0.150E-06
 -26.226 -0.152E-06 -0.152E-06
 -26.216 -0.154E-06 -0.154E-06
 -26.206 -0.156E-06 -0.156E-06
 -26.196 -0.158E-06 -0.158E-06
 -26.186 -0.159E-06 -0.159E-06
 -26.176 -0.160E-06 -0.160E-06
 -26.166 -0.161E-06 -0.161E-06
 -26.156 -0.161E-06 -0.161E-06
 -26.146 -0.161E-06 -0.161E-06
 -26.136 -0.161E-06 -0.161E-06
 -26.126 -0.160E-06 -0.160E-06
 -26.116 -0.159E-06 -0.159E-06
 -26.106 -0.158E-06 -0.158E-06
 -26.096 -0.156E-06 -0.156E-06
 -26.086 -0.153E-06 -0.153E-06
 -26.076 -0.150E-06 -0.150E-06
 -26.066 -0.147E-06 -0.147E-06
 -26.056 -0.143E-06 -0.143E-06
 -26.046 -0.138E-06 -0.138E-06
 -26.036 -0.133E-06 -0.133E-06
 -26.026 -0.127E-06 -0.127E-06
 -26.016 -0.121E-06 -0.121E-06
 -26.006 -0.114E-06 -0.114E-06
 -25.996 -0.106E-06 -0.106E-06
 -25.986 -0.973E-07 -0.973E-07
 -25.976 -0.879E-07 -0.879E-07
 -25.966 -0.778E-07 -0.778E-07
 -25.956 -0.669E-07 -0.669E-07
 -25.946 -0.551E-07 -0.551E-07
 -25.936 -0.425E-07 -0.425E-07
 -25.926 -0.289E-07 -0.289E-07
 -25.916 -0.145E-07 -0.145E-07
 -25.906  0.807E-09  0.807E-09
 -25.896  0.171E-07  0.171E-07
 -25.886  0.343E-07  0.343E-07
 -25.876  0.526E-07  0.526E-07
 -25.866  0.718E-07  0.718E-07
 -25.856  0.921E-07  0.921E-07
 -25.846  0.113E-06  0.113E-06
 -25.836  0.136E-06  0.136E-06
 -25.826  0.159E-06  0.159E-06
 -25.816  0.184E-06  0.184E-06
 -25.806  0.209E-06  0.209E-06
 -25.796  0.236E-06  0.236E-06
 -25.786  0.264E-06  0.264E-06
 -25.776  0.292E-06  0.292E-06
 -25.766  0.322E-06  0.322E-06
 -25.756  0.353E-06  0.353E-06
 -25.746  0.385E-06  0.385E-06
 -25.736  0.419E-06  0.419E-06
 -25.726  0.453E-06  0.453E-06
 -25.716  0.488E-06  0.488E-06
 -25.706  0.525E-06  0.525E-06
 -25.696  0.562E-06  0.562E-06
 -25.686  0.601E-06  0.601E-06
 -25.676  0.640E-06  0.640E-06
 -25.666  0.681E-06  0.681E-06
 -25.656  0.722E-06  0.722E-06
 -25.646  0.764E-06  0.764E-06
 -25.636  0.808E-06  0.808E-06
 -25.626  0.852E-06  0.852E-06
 -25.616  0.897E-06  0.897E-06
 -25.606  0.943E-06  0.943E-06
 -25.596  0.989E-06  0.989E-06
 -25.586  0.104E-05  0.104E-05
 -25.576  0.108E-05  0.108E-05
 -25.566  0.113E-05  0.113E-05
 -25.556  0.118E-05  0.118E-05
 -25.546  0.123E-05  0.123E-05
 -25.536  0.128E-05  0.128E-05
 -25.526  0.133E-05  0.133E-05
 -25.516  0.138E-05  0.138E-05
 -25.506  0.143E-05  0.143E-05
 -25.496  0.149E-05  0.149E-05
 -25.486  0.154E-05  0.154E-05
 -25.476  0.159E-05  0.159E-05
 -25.466  0.164E-05  0.164E-05
 -25.456  0.169E-05  0.169E-05
 -25.446  0.174E-05  0.174E-05
 -25.436  0.180E-05  0.180E-05
 -25.426  0.185E-05  0.185E-05
 -25.416  0.190E-05  0.190E-05
 -25.406  0.195E-05  0.195E-05
 -25.396  0.200E-05  0.200E-05
 -25.386  0.205E-05  0.205E-05
 -25.376  0.210E-05  0.210E-05
 -25.366  0.214E-05  0.214E-05
 -25.356  0.219E-05  0.219E-05
 -25.346  0.224E-05  0.224E-05
 -25.336  0.228E-05  0.228E-05
 -25.326  0.233E-05  0.233E-05
 -25.316  0.237E-05  0.237E-05
 -25.306  0.241E-05  0.241E-05
 -25.296  0.246E-05  0.246E-05
 -25.286  0.250E-05  0.250E-05
 -25.276  0.253E-05  0.253E-05
 -25.266  0.257E-05  0.257E-05
 -25.256  0.261E-05  0.261E-05
 -25.246  0.264E-05  0.264E-05
 -25.236  0.267E-05  0.267E-05
 -25.226  0.270E-05  0.270E-05
 -25.216  0.273E-05  0.273E-05
 -25.206  0.276E-05  0.276E-05
 -25.196  0.279E-05  0.279E-05
 -25.186  0.281E-05  0.281E-05
 -25.176  0.283E-05  0.283E-05
 -25.166  0.285E-05  0.285E-05
 -25.156  0.287E-05  0.287E-05
 -25.146  0.289E-05  0.289E-05
 -25.136  0.290E-05  0.290E-05
 -25.126  0.291E-05  0.291E-05
 -25.116  0.292E-05  0.292E-05
 -25.106  0.293E-05  0.293E-05
 -25.096  0.294E-05  0.294E-05
 -25.086  0.294E-05  0.294E-05
 -25.076  0.294E-05  0.294E-05
 -25.066  0.294E-05  0.294E-05
 -25.056  0.294E-05  0.294E-05
 -25.046  0.294E-05  0.294E-05
 -25.036  0.293E-05  0.293E-05
 -25.026  0.292E-05  0.292E-05
 -25.016  0.291E-05  0.291E-05
 -25.006  0.290E-05  0.290E-05
 -24.996  0.288E-05  0.288E-05
 -24.986  0.286E-05  0.286E-05
 -24.976  0.284E-05  0.284E-05
 -24.966  0.282E-05  0.282E-05
 -24.956  0.280E-05  0.280E-05
 -24.946  0.278E-05  0.278E-05
 -24.936  0.275E-05  0.275E-05
 -24.926  0.272E-05  0.272E-05
 -24.916  0.269E-05  0.269E-05
 -24.906  0.266E-05  0.266E-05
 -24.896  0.263E-05  0.263E-05
 -24.886  0.259E-05  0.259E-05
 -24.876  0.255E-05  0.255E-05
 -24.866  0.252E-05  0.252E-05
 -24.856  0.248E-05  0.248E-05
 -24.846  0.244E-05  0.244E-05
 -24.836  0.239E-05  0.239E-05
 -24.826  0.235E-05  0.235E-05
 -24.816  0.231E-05  0.231E-05
 -24.806  0.226E-05  0.226E-05
 -24.796  0.222E-05  0.222E-05
 -24.786  0.217E-05  0.217E-05
 -24.776  0.212E-05  0.212E-05
 -24.766  0.207E-05  0.207E-05
 -24.756  0.202E-05  0.202E-05
 -24.746  0.197E-05  0.197E-05
 -24.736  0.192E-05  0.192E-05
 -24.726  0.187E-05  0.187E-05
 -24.716  0.182E-05  0.182E-05
 -24.706  0.177E-05  0.177E-05
 -24.696  0.172E-05  0.172E-05
 -24.686  0.167E-05  0.167E-05
 -24.676  0.162E-05  0.162E-05
 -24.666  0.156E-05  0.156E-05
 -24.656  0.151E-05  0.151E-05
 -24.646  0.146E-05  0.146E-05
 -24.636  0.141E-05  0.141E-05
 -24.626  0.136E-05  0.136E-05
 -24.616  0.131E-05  0.131E-05
 -24.606  0.126E-05  0.126E-05
 -24.596  0.121E-05  0.121E-05
 -24.586  0.116E-05  0.116E-05
 -24.576  0.111E-05  0.111E-05
 -24.566  0.106E-05  0.106E-05
 -24.556  0.101E-05  0.101E-05
 -24.546  0.967E-06  0.967E-06
 -24.536  0.921E-06  0.921E-06
 -24.526  0.876E-06  0.876E-06
 -24.516  0.831E-06  0.831E-06
 -24.506  0.787E-06  0.787E-06
 -24.496  0.745E-06  0.745E-06
 -24.486  0.703E-06  0.703E-06
 -24.476  0.662E-06  0.662E-06
 -24.466  0.622E-06  0.622E-06
 -24.456  0.583E-06  0.583E-06
 -24.446  0.545E-06  0.545E-06
 -24.436  0.508E-06  0.508E-06
 -24.426  0.472E-06  0.472E-06
 -24.416  0.437E-06  0.437E-06
 -24.406  0.403E-06  0.403E-06
 -24.396  0.370E-06  0.370E-06
 -24.386  0.339E-06  0.339E-06
 -24.376  0.308E-06  0.308E-06
 -24.366  0.279E-06  0.279E-06
 -24.356  0.251E-06  0.251E-06
 -24.346  0.223E-06  0.223E-06
 -24.336  0.197E-06  0.197E-06
 -24.326  0.172E-06  0.172E-06
 -24.316  0.148E-06  0.148E-06
 -24.306  0.125E-06  0.125E-06
 -24.296  0.103E-06  0.103E-06
 -24.286  0.826E-07  0.826E-07
 -24.276  0.628E-07  0.628E-07
 -24.266  0.440E-07  0.440E-07
 -24.256  0.262E-07  0.262E-07
 -24.246  0.943E-08  0.943E-08
 -24.236 -0.642E-08 -0.642E-08
 -24.226 -0.213E-07 -0.213E-07
 -24.216 -0.353E-07 -0.353E-07
 -24.206 -0.484E-07 -0.484E-07
 -24.196 -0.606E-07 -0.606E-07
 -24.186 -0.720E-07 -0.720E-07
 -24.176 -0.826E-07 -0.826E-07
 -24.166 -0.923E-07 -0.923E-07
 -24.156 -0.101E-06 -0.101E-06
 -24.146 -0.110E-06 -0.110E-06
 -24.136 -0.117E-06 -0.117E-06
 -24.126 -0.124E-06 -0.124E-06
 -24.116 -0.130E-06 -0.130E-06
 -24.106 -0.136E-06 -0.136E-06
 -24.096 -0.140E-06 -0.140E-06
 -24.086 -0.145E-06 -0.145E-06
 -24.076 -0.148E-06 -0.148E-06
 -24.066 -0.152E-06 -0.152E-06
 -24.056 -0.154E-06 -0.154E-06
 -24.046 -0.157E-06 -0.157E-06
 -24.036 -0.158E-06 -0.158E-06
 -24.026 -0.160E-06 -0.160E-06
 -24.016 -0.160E-06 -0.160E-06
 -24.006 -0.161E-06 -0.161E-06
 -23.996 -0.161E-06 -0.161E-06
 -23.986 -0.161E-06 -0.161E-06
 -23.976 -0.160E-06 -0.160E-06
 -23.966 -0.159E-06 -0.159E-06
 -23.956 -0.158E-06 -0.158E-06
 -23.946 -0.157E-06 -0.157E-06
 -23.936 -0.155E-06 -0.155E-06
 -23.926 -0.153E-06 -0.153E-06
 -23.916 -0.151E-06 -0.151E-06
 -23.906 -0.149E-06 -0.149E-06
 -23.896 -0.147E-06 -0.147E-06
 -23.886 -0.144E-06 -0.144E-06
 -23.876 -0.142E-06 -0.142E-06
 -23.866 -0.139E-06 -0.139E-06
 -23.856 -0.136E-06 -0.136E-06
 -23.846 -0.133E-06 -0.133E-06
 -23.836 -0.130E-06 -0.130E-06
 -23.826 -0.127E-06 -0.127E-06
 -23.816 -0.123E-06 -0.123E-06
 -23.806 -0.120E-06 -0.120E-06
 -23.796 -0.117E-06 -0.117E-06
 -23.786 -0.114E-06 -0.114E-06
 -23.776 -0.110E-06 -0.110E-06
 -23.766 -0.107E-06 -0.107E-06
 -23.756 -0.104E-06 -0.104E-06
 -23.746 -0.101E-06 -0.101E-06
 -23.736 -0.973E-07 -0.973E-07
 -23.726 -0.941E-07 -0.941E-07
 -23.716 -0.909E-07 -0.909E-07
 -23.706 -0.877E-07 -0.877E-07
 -23.696 -0.846E-07 -0.846E-07
 -23.686 -0.815E-07 -0.815E-07
 -23.676 -0.785E-07 -0.785E-07
 -23.666 -0.755E-07 -0.755E-07
 -23.656 -0.726E-07 -0.726E-07
 -23.646 -0.698E-07 -0.698E-07
 -23.636 -0.670E-07 -0.670E-07
 -23.626 -0.643E-07 -0.643E-07
 -23.616 -0.616E-07 -0.616E-07
 -23.606 -0.590E-07 -0.590E-07
 -23.596 -0.565E-07 -0.565E-07
 -23.586 -0.540E-07 -0.540E-07
 -23.576 -0.517E-07 -0.517E-07
 -23.566 -0.493E-07 -0.493E-07
 -23.556 -0.471E-07 -0.471E-07
 -23.546 -0.449E-07 -0.449E-07
 -23.536 -0.429E-07 -0.429E-07
 -23.526 -0.408E-07 -0.408E-07
 -23.516 -0.389E-07 -0.389E-07
 -23.506 -0.370E-07 -0.370E-07
 -23.496 -0.352E-07 -0.352E-07
 -23.486 -0.334E-07 -0.334E-07
 -23.476 -0.318E-07 -0.318E-07
 -23.466 -0.301E-07 -0.301E-07
 -23.456 -0.286E-07 -0.286E-07
 -23.446 -0.271E-07 -0.271E-07
 -23.436 -0.257E-07 -0.257E-07
 -23.426 -0.243E-07 -0.243E-07
 -23.416 -0.230E-07 -0.230E-07
 -23.406 -0.218E-07 -0.218E-07
 -23.396 -0.206E-07 -0.206E-07
 -23.386 -0.194E-07 -0.194E-07
 -23.376 -0.183E-07 -0.183E-07
 -23.366 -0.173E-07 -0.173E-07
 -23.356 -0.163E-07 -0.163E-07
 -23.346 -0.154E-07 -0.154E-07
 -23.336 -0.145E-07 -0.145E-07
 -23.326 -0.136E-07 -0.136E-07
 -23.316 -0.128E-07 -0.128E-07
 -23.306 -0.121E-07 -0.121E-07
 -23.296 -0.113E-07 -0.113E-07
 -23.286 -0.107E-07 -0.107E-07
 -23.276 -0.100E-07 -0.100E-07
 -23.266 -0.938E-08 -0.938E-08
 -23.256 -0.880E-08 -0.880E-08
 -23.246 -0.825E-08 -0.825E-08
 -23.236 -0.772E-08 -0.772E-08
 -23.226 -0.723E-08 -0.723E-08
 -23.216 -0.677E-08 -0.677E-08
 -23.206 -0.633E-08 -0.633E-08
 -23.196 -0.591E-08 -0.591E-08
 -23.186 -0.552E-08 -0.552E-08
 -23.176 -0.516E-08 -0.516E-08
 -23.166 -0.481E-08 -0.481E-08
 -23.156 -0.449E-08 -0.449E-08
 -23.146 -0.418E-08 -0.418E-08
 -23.136 -0.390E-08 -0.390E-08
 -23.126 -0.363E-08 -0.363E-08
 -23.116 -0.338E-08 -0.338E-08
 -23.106 -0.314E-08 -0.314E-08
 -23.096 -0.292E-08 -0.292E-08
 -23.086 -0.271E-08 -0.271E-08
 -23.076 -0.252E-08 -0.252E-08
 -23.066 -0.234E-08 -0.234E-08
 -23.056 -0.217E-08 -0.217E-08
 -23.046 -0.201E-08 -0.201E-08
 -23.036 -0.187E-08 -0.187E-08
 -23.026 -0.173E-08 -0.173E-08
 -23.016 -0.160E-08 -0.160E-08
 -23.006 -0.148E-08 -0.148E-08
 -22.996 -0.137E-08 -0.137E-08
 -22.986 -0.127E-08 -0.127E-08
 -22.976 -0.117E-08 -0.117E-08
 -22.966 -0.108E-08 -0.108E-08
 -22.956 -0.999E-09 -0.999E-09
 -22.946 -0.922E-09 -0.922E-09
 -22.936 -0.850E-09 -0.850E-09
 -22.926 -0.784E-09 -0.784E-09
 -22.916 -0.723E-09 -0.723E-09
 -22.906 -0.666E-09 -0.666E-09
 -22.896 -0.613E-09 -0.613E-09
 -22.886 -0.564E-09 -0.564E-09
 -22.876 -0.519E-09 -0.519E-09
 -22.866 -0.478E-09 -0.478E-09
 -22.856 -0.440E-09 -0.440E-09
 -22.846 -0.404E-09 -0.404E-09
 -22.836 -0.372E-09 -0.372E-09
 -22.826 -0.342E-09 -0.342E-09
 -22.816 -0.314E-09 -0.314E-09
 -22.806 -0.289E-09 -0.289E-09
 -22.796 -0.266E-09 -0.266E-09
 -22.786 -0.245E-09 -0.245E-09
 -22.776 -0.225E-09 -0.225E-09
 -22.766 -0.208E-09 -0.208E-09
 -22.756 -0.192E-09 -0.192E-09
 -22.746 -0.177E-09 -0.177E-09
 -22.736 -0.164E-09 -0.164E-09
 -22.726 -0.152E-09 -0.152E-09
 -22.716 -0.141E-09 -0.141E-09
 -22.706 -0.132E-09 -0.132E-09
 -22.696 -0.123E-09 -0.123E-09
 -22.686 -0.116E-09 -0.116E-09
 -22.676 -0.109E-09 -0.109E-09
 -22.666 -0.103E-09 -0.103E-09
 -22.656 -0.987E-10 -0.987E-10
 -22.646 -0.948E-10 -0.948E-10
 -22.636 -0.917E-10 -0.917E-10
 -22.626 -0.894E-10 -0.894E-10
 -22.616 -0.878E-10 -0.878E-10
 -22.606 -0.870E-10 -0.870E-10
 -22.596 -0.869E-10 -0.869E-10
 -22.586 -0.875E-10 -0.875E-10
 -22.576 -0.888E-10 -0.888E-10
 -22.566 -0.909E-10 -0.909E-10
 -22.556 -0.937E-10 -0.937E-10
 -22.546 -0.972E-10 -0.972E-10
 -22.536 -0.102E-09 -0.102E-09
 -22.526 -0.107E-09 -0.107E-09
 -22.516 -0.112E-09 -0.112E-09
 -22.506 -0.119E-09 -0.119E-09
 -22.496 -0.127E-09 -0.127E-09
 -22.486 -0.135E-09 -0.135E-09
 -22.476 -0.145E-09 -0.145E-09
 -22.466 -0.155E-09 -0.155E-09
 -22.456 -0.166E-09 -0.166E-09
 -22.446 -0.179E-09 -0.179E-09
 -22.436 -0.193E-09 -0.193E-09
 -22.426 -0.208E-09 -0.208E-09
 -22.416 -0.224E-09 -0.224E-09
 -22.406 -0.241E-09 -0.241E-09
 -22.396 -0.261E-09 -0.261E-09
 -22.386 -0.281E-09 -0.281E-09
 -22.376 -0.304E-09 -0.304E-09
 -22.366 -0.328E-09 -0.328E-09
 -22.356 -0.354E-09 -0.354E-09
 -22.346 -0.382E-09 -0.382E-09
 -22.336 -0.412E-09 -0.412E-09
 -22.326 -0.444E-09 -0.444E-09
 -22.316 -0.479E-09 -0.479E-09
 -22.306 -0.516E-09 -0.516E-09
 -22.296 -0.556E-09 -0.556E-09
 -22.286 -0.598E-09 -0.598E-09
 -22.276 -0.644E-09 -0.644E-09
 -22.266 -0.693E-09 -0.693E-09
 -22.256 -0.745E-09 -0.745E-09
 -22.246 -0.801E-09 -0.801E-09
 -22.236 -0.861E-09 -0.861E-09
 -22.226 -0.924E-09 -0.924E-09
 -22.216 -0.992E-09 -0.992E-09
 -22.206 -0.106E-08 -0.106E-08
 -22.196 -0.114E-08 -0.114E-08
 -22.186 -0.122E-08 -0.122E-08
 -22.176 -0.131E-08 -0.131E-08
 -22.166 -0.140E-08 -0.140E-08
 -22.156 -0.150E-08 -0.150E-08
 -22.146 -0.161E-08 -0.161E-08
 -22.136 -0.172E-08 -0.172E-08
 -22.126 -0.183E-08 -0.183E-08
 -22.116 -0.196E-08 -0.196E-08
 -22.106 -0.209E-08 -0.209E-08
 -22.096 -0.223E-08 -0.223E-08
 -22.086 -0.238E-08 -0.238E-08
 -22.076 -0.253E-08 -0.253E-08
 -22.066 -0.269E-08 -0.269E-08
 -22.056 -0.287E-08 -0.287E-08
 -22.046 -0.305E-08 -0.305E-08
 -22.036 -0.324E-08 -0.324E-08
 -22.026 -0.345E-08 -0.345E-08
 -22.016 -0.366E-08 -0.366E-08
 -22.006 -0.388E-08 -0.388E-08
 -21.996 -0.412E-08 -0.412E-08
 -21.986 -0.436E-08 -0.436E-08
 -21.976 -0.462E-08 -0.462E-08
 -21.966 -0.490E-08 -0.490E-08
 -21.956 -0.518E-08 -0.518E-08
 -21.946 -0.548E-08 -0.548E-08
 -21.936 -0.579E-08 -0.579E-08
 -21.926 -0.612E-08 -0.612E-08
 -21.916 -0.646E-08 -0.646E-08
 -21.906 -0.681E-08 -0.681E-08
 -21.896 -0.718E-08 -0.718E-08
 -21.886 -0.757E-08 -0.757E-08
 -21.876 -0.797E-08 -0.797E-08
 -21.866 -0.839E-08 -0.839E-08
 -21.856 -0.882E-08 -0.882E-08
 -21.846 -0.927E-08 -0.927E-08
 -21.836 -0.974E-08 -0.974E-08
 -21.826 -0.102E-07 -0.102E-07
 -21.816 -0.107E-07 -0.107E-07
 -21.806 -0.112E-07 -0.112E-07
 -21.796 -0.118E-07 -0.118E-07
 -21.786 -0.123E-07 -0.123E-07
 -21.776 -0.129E-07 -0.129E-07
 -21.766 -0.135E-07 -0.135E-07
 -21.756 -0.141E-07 -0.141E-07
 -21.746 -0.147E-07 -0.147E-07
 -21.736 -0.154E-07 -0.154E-07
 -21.726 -0.160E-07 -0.160E-07
 -21.716 -0.167E-07 -0.167E-07
 -21.706 -0.174E-07 -0.174E-07
 -21.696 -0.181E-07 -0.181E-07
 -21.686 -0.188E-07 -0.188E-07
 -21.676 -0.195E-07 -0.195E-07
 -21.666 -0.202E-07 -0.202E-07
 -21.656 -0.210E-07 -0.210E-07
 -21.646 -0.218E-07 -0.218E-07
 -21.636 -0.225E-07 -0.225E-07
 -21.626 -0.233E-07 -0.233E-07
 -21.616 -0.241E-07 -0.241E-07
 -21.606 -0.249E-07 -0.249E-07
 -21.596 -0.257E-07 -0.257E-07
 -21.586 -0.265E-07 -0.265E-07
 -21.576 -0.273E-07 -0.273E-07
 -21.566 -0.281E-07 -0.281E-07
 -21.556 -0.289E-07 -0.289E-07
 -21.546 -0.296E-07 -0.296E-07
 -21.536 -0.304E-07 -0.304E-07
 -21.526 -0.312E-07 -0.312E-07
 -21.516 -0.319E-07 -0.319E-07
 -21.506 -0.327E-07 -0.327E-07
 -21.496 -0.334E-07 -0.334E-07
 -21.486 -0.340E-07 -0.340E-07
 -21.476 -0.347E-07 -0.347E-07
 -21.466 -0.353E-07 -0.353E-07
 -21.456 -0.359E-07 -0.359E-07
 -21.446 -0.365E-07 -0.365E-07
 -21.436 -0.370E-07 -0.370E-07
 -21.426 -0.374E-07 -0.374E-07
 -21.416 -0.379E-07 -0.379E-07
 -21.406 -0.382E-07 -0.382E-07
 -21.396 -0.385E-07 -0.385E-07
 -21.386 -0.387E-07 -0.387E-07
 -21.376 -0.389E-07 -0.389E-07
 -21.366 -0.390E-07 -0.390E-07
 -21.356 -0.390E-07 -0.390E-07
 -21.346 -0.389E-07 -0.389E-07
 -21.336 -0.387E-07 -0.387E-07
 -21.326 -0.384E-07 -0.384E-07
 -21.316 -0.380E-07 -0.380E-07
 -21.306 -0.375E-07 -0.375E-07
 -21.296 -0.369E-07 -0.369E-07
 -21.286 -0.362E-07 -0.362E-07
 -21.276 -0.353E-07 -0.353E-07
 -21.266 -0.343E-07 -0.343E-07
 -21.256 -0.332E-07 -0.332E-07
 -21.246 -0.319E-07 -0.319E-07
 -21.236 -0.305E-07 -0.305E-07
 -21.226 -0.289E-07 -0.289E-07
 -21.216 -0.271E-07 -0.271E-07
 -21.206 -0.252E-07 -0.252E-07
 -21.196 -0.231E-07 -0.231E-07
 -21.186 -0.208E-07 -0.208E-07
 -21.176 -0.183E-07 -0.183E-07
 -21.166 -0.156E-07 -0.156E-07
 -21.156 -0.127E-07 -0.127E-07
 -21.146 -0.961E-08 -0.961E-08
 -21.136 -0.630E-08 -0.630E-08
 -21.126 -0.277E-08 -0.277E-08
 -21.116  0.981E-09  0.981E-09
 -21.106  0.496E-08  0.496E-08
 -21.096  0.918E-08  0.918E-08
 -21.086  0.136E-07  0.136E-07
 -21.076  0.183E-07  0.183E-07
 -21.066  0.233E-07  0.233E-07
 -21.056  0.285E-07  0.285E-07
 -21.046  0.339E-07  0.339E-07
 -21.036  0.396E-07  0.396E-07
 -21.026  0.456E-07  0.456E-07
 -21.016  0.518E-07  0.518E-07
 -21.006  0.583E-07  0.583E-07
 -20.996  0.650E-07  0.650E-07
 -20.986  0.720E-07  0.720E-07
 -20.976  0.793E-07  0.793E-07
 -20.966  0.868E-07  0.868E-07
 -20.956  0.946E-07  0.946E-07
 -20.946  0.103E-06  0.103E-06
 -20.936  0.111E-06  0.111E-06
 -20.926  0.120E-06  0.120E-06
 -20.916  0.128E-06  0.128E-06
 -20.906  0.137E-06  0.137E-06
 -20.896  0.147E-06  0.147E-06
 -20.886  0.156E-06  0.156E-06
 -20.876  0.166E-06  0.166E-06
 -20.866  0.176E-06  0.176E-06
 -20.856  0.186E-06  0.186E-06
 -20.846  0.197E-06  0.197E-06
 -20.836  0.207E-06  0.207E-06
 -20.826  0.218E-06  0.218E-06
 -20.816  0.229E-06  0.229E-06
 -20.806  0.240E-06  0.240E-06
 -20.796  0.252E-06  0.252E-06
 -20.786  0.263E-06  0.263E-06
 -20.776  0.275E-06  0.275E-06
 -20.766  0.287E-06  0.287E-06
 -20.756  0.299E-06  0.299E-06
 -20.746  0.311E-06  0.311E-06
 -20.736  0.323E-06  0.323E-06
 -20.726  0.335E-06  0.335E-06
 -20.716  0.347E-06  0.347E-06
 -20.706  0.359E-06  0.359E-06
 -20.696  0.372E-06  0.372E-06
 -20.686  0.384E-06  0.384E-06
 -20.676  0.396E-06  0.396E-06
 -20.666  0.409E-06  0.409E-06
 -20.656  0.421E-06  0.421E-06
 -20.646  0.433E-06  0.433E-06
 -20.636  0.445E-06  0.445E-06
 -20.626  0.457E-06  0.457E-06
 -20.616  0.469E-06  0.469E-06
 -20.606  0.481E-06  0.481E-06
 -20.596  0.493E-06  0.493E-06
 -20.586  0.504E-06  0.504E-06
 -20.576  0.515E-06  0.515E-06
 -20.566  0.526E-06  0.526E-06
 -20.556  0.537E-06  0.537E-06
 -20.546  0.548E-06  0.548E-06
 -20.536  0.558E-06  0.558E-06
 -20.526  0.568E-06  0.568E-06
 -20.516  0.578E-06  0.578E-06
 -20.506  0.588E-06  0.588E-06
 -20.496  0.597E-06  0.597E-06
 -20.486  0.606E-06  0.606E-06
 -20.476  0.614E-06  0.614E-06
 -20.466  0.622E-06  0.622E-06
 -20.456  0.630E-06  0.630E-06
 -20.446  0.637E-06  0.637E-06
 -20.436  0.644E-06  0.644E-06
 -20.426  0.651E-06  0.651E-06
 -20.416  0.657E-06  0.657E-06
 -20.406  0.663E-06  0.663E-06
 -20.396  0.668E-06  0.668E-06
 -20.386  0.672E-06  0.672E-06
 -20.376  0.677E-06  0.677E-06
 -20.366  0.680E-06  0.680E-06
 -20.356  0.684E-06  0.684E-06
 -20.346  0.686E-06  0.686E-06
 -20.336  0.689E-06  0.689E-06
 -20.326  0.690E-06  0.690E-06
 -20.316  0.692E-06  0.692E-06
 -20.306  0.692E-06  0.692E-06
 -20.296  0.693E-06  0.693E-06
 -20.286  0.692E-06  0.692E-06
 -20.276  0.691E-06  0.691E-06
 -20.266  0.690E-06  0.690E-06
 -20.256  0.688E-06  0.688E-06
 -20.246  0.686E-06  0.686E-06
 -20.236  0.683E-06  0.683E-06
 -20.226  0.680E-06  0.680E-06
 -20.216  0.676E-06  0.676E-06
 -20.206  0.672E-06  0.672E-06
 -20.196  0.667E-06  0.667E-06
 -20.186  0.662E-06  0.662E-06
 -20.176  0.656E-06  0.656E-06
 -20.166  0.650E-06  0.650E-06
 -20.156  0.644E-06  0.644E-06
 -20.146  0.637E-06  0.637E-06
 -20.136  0.630E-06  0.630E-06
 -20.126  0.622E-06  0.622E-06
 -20.116  0.614E-06  0.614E-06
 -20.106  0.606E-06  0.606E-06
 -20.096  0.597E-06  0.597E-06
 -20.086  0.588E-06  0.588E-06
 -20.076  0.579E-06  0.579E-06
 -20.066  0.569E-06  0.569E-06
 -20.056  0.559E-06  0.559E-06
 -20.046  0.549E-06  0.549E-06
 -20.036  0.539E-06  0.539E-06
 -20.026  0.529E-06  0.529E-06
 -20.016  0.518E-06  0.518E-06
 -20.006  0.508E-06  0.508E-06
 -19.996  0.497E-06  0.497E-06
 -19.986  0.486E-06  0.486E-06
 -19.976  0.475E-06  0.475E-06
 -19.966  0.464E-06  0.464E-06
 -19.956  0.453E-06  0.453E-06
 -19.946  0.442E-06  0.442E-06
 -19.936  0.431E-06  0.431E-06
 -19.926  0.420E-06  0.420E-06
 -19.916  0.409E-06  0.409E-06
 -19.906  0.398E-06  0.398E-06
 -19.896  0.387E-06  0.387E-06
 -19.886  0.376E-06  0.376E-06
 -19.876  0.366E-06  0.366E-06
 -19.866  0.355E-06  0.355E-06
 -19.856  0.345E-06  0.345E-06
 -19.846  0.335E-06  0.335E-06
 -19.836  0.325E-06  0.325E-06
 -19.826  0.316E-06  0.316E-06
 -19.816  0.307E-06  0.307E-06
 -19.806  0.298E-06  0.298E-06
 -19.796  0.289E-06  0.289E-06
 -19.786  0.281E-06  0.281E-06
 -19.776  0.273E-06  0.273E-06
 -19.766  0.265E-06  0.265E-06
 -19.756  0.258E-06  0.258E-06
 -19.746  0.251E-06  0.251E-06
 -19.736  0.244E-06  0.244E-06
 -19.726  0.238E-06  0.238E-06
 -19.716  0.232E-06  0.232E-06
 -19.706  0.226E-06  0.226E-06
 -19.696  0.221E-06  0.221E-06
 -19.686  0.217E-06  0.217E-06
 -19.676  0.213E-06  0.213E-06
 -19.666  0.209E-06  0.209E-06
 -19.656  0.206E-06  0.206E-06
 -19.646  0.203E-06  0.203E-06
 -19.636  0.200E-06  0.200E-06
 -19.626  0.198E-06  0.198E-06
 -19.616  0.197E-06  0.197E-06
 -19.606  0.195E-06  0.195E-06
 -19.596  0.195E-06  0.195E-06
 -19.586  0.194E-06  0.194E-06
 -19.576  0.195E-06  0.195E-06
 -19.566  0.195E-06  0.195E-06
 -19.556  0.196E-06  0.196E-06
 -19.546  0.197E-06  0.197E-06
 -19.536  0.199E-06  0.199E-06
 -19.526  0.201E-06  0.201E-06
 -19.516  0.204E-06  0.204E-06
 -19.506  0.207E-06  0.207E-06
 -19.496  0.210E-06  0.210E-06
 -19.486  0.214E-06  0.214E-06
 -19.476  0.218E-06  0.218E-06
 -19.466  0.222E-06  0.222E-06
 -19.456  0.226E-06  0.226E-06
 -19.446  0.231E-06  0.231E-06
 -19.436  0.236E-06  0.236E-06
 -19.426  0.242E-06  0.242E-06
 -19.416  0.247E-06  0.247E-06
 -19.406  0.253E-06  0.253E-06
 -19.396  0.259E-06  0.259E-06
 -19.386  0.266E-06  0.266E-06
 -19.376  0.272E-06  0.272E-06
 -19.366  0.279E-06  0.279E-06
 -19.356  0.285E-06  0.285E-06
 -19.346  0.292E-06  0.292E-06
 -19.336  0.299E-06  0.299E-06
 -19.326  0.306E-06  0.306E-06
 -19.316  0.313E-06  0.313E-06
 -19.306  0.320E-06  0.320E-06
 -19.296  0.328E-06  0.328E-06
 -19.286  0.335E-06  0.335E-06
 -19.276  0.342E-06  0.342E-06
 -19.266  0.349E-06  0.349E-06
 -19.256  0.356E-06  0.356E-06
 -19.246  0.363E-06  0.363E-06
 -19.236  0.370E-06  0.370E-06
 -19.226  0.377E-06  0.377E-06
 -19.216  0.384E-06  0.384E-06
 -19.206  0.390E-06  0.390E-06
 -19.196  0.397E-06  0.397E-06
 -19.186  0.403E-06  0.403E-06
 -19.176  0.409E-06  0.409E-06
 -19.166  0.415E-06  0.415E-06
 -19.156  0.420E-06  0.420E-06
 -19.146  0.426E-06  0.426E-06
 -19.136  0.431E-06  0.431E-06
 -19.126  0.436E-06  0.436E-06
 -19.116  0.441E-06  0.441E-06
 -19.106  0.445E-06  0.445E-06
 -19.096  0.449E-06  0.449E-06
 -19.086  0.453E-06  0.453E-06
 -19.076  0.456E-06  0.456E-06
 -19.066  0.459E-06  0.459E-06
 -19.056  0.462E-06  0.462E-06
 -19.046  0.464E-06  0.464E-06
 -19.036  0.466E-06  0.466E-06
 -19.026  0.468E-06  0.468E-06
 -19.016  0.470E-06  0.470E-06
 -19.006  0.471E-06  0.471E-06
 -18.996  0.471E-06  0.471E-06
 -18.986  0.472E-06  0.472E-06
 -18.976  0.472E-06  0.472E-06
 -18.966  0.471E-06  0.471E-06
 -18.956  0.470E-06  0.470E-06
 -18.946  0.469E-06  0.469E-06
 -18.936  0.468E-06  0.468E-06
 -18.926  0.466E-06  0.466E-06
 -18.916  0.464E-06  0.464E-06
 -18.906  0.461E-06  0.461E-06
 -18.896  0.458E-06  0.458E-06
 -18.886  0.455E-06  0.455E-06
 -18.876  0.451E-06  0.451E-06
 -18.866  0.447E-06  0.447E-06
 -18.856  0.443E-06  0.443E-06
 -18.846  0.438E-06  0.438E-06
 -18.836  0.433E-06  0.433E-06
 -18.826  0.428E-06  0.428E-06
 -18.816  0.422E-06  0.422E-06
 -18.806  0.417E-06  0.417E-06
 -18.796  0.410E-06  0.410E-06
 -18.786  0.404E-06  0.404E-06
 -18.776  0.397E-06  0.397E-06
 -18.766  0.391E-06  0.391E-06
 -18.756  0.383E-06  0.383E-06
 -18.746  0.376E-06  0.376E-06
 -18.736  0.368E-06  0.368E-06
 -18.726  0.361E-06  0.361E-06
 -18.716  0.353E-06  0.353E-06
 -18.706  0.344E-06  0.344E-06
 -18.696  0.336E-06  0.336E-06
 -18.686  0.327E-06  0.327E-06
 -18.676  0.319E-06  0.319E-06
 -18.666  0.310E-06  0.310E-06
 -18.656  0.301E-06  0.301E-06
 -18.646  0.292E-06  0.292E-06
 -18.636  0.283E-06  0.283E-06
 -18.626  0.273E-06  0.273E-06
 -18.616  0.264E-06  0.264E-06
 -18.606  0.255E-06  0.255E-06
 -18.596  0.245E-06  0.245E-06
 -18.586  0.235E-06  0.235E-06
 -18.576  0.226E-06  0.226E-06
 -18.566  0.216E-06  0.216E-06
 -18.556  0.207E-06  0.207E-06
 -18.546  0.197E-06  0.197E-06
 -18.536  0.187E-06  0.187E-06
 -18.526  0.178E-06  0.178E-06
 -18.516  0.168E-06  0.168E-06
 -18.506  0.158E-06  0.158E-06
 -18.496  0.149E-06  0.149E-06
 -18.486  0.139E-06  0.139E-06
 -18.476  0.129E-06  0.129E-06
 -18.466  0.120E-06  0.120E-06
 -18.456  0.110E-06  0.110E-06
 -18.446  0.101E-06  0.101E-06
 -18.436  0.917E-07  0.917E-07
 -18.426  0.824E-07  0.824E-07
 -18.416  0.732E-07  0.732E-07
 -18.406  0.641E-07  0.641E-07
 -18.396  0.550E-07  0.550E-07
 -18.386  0.461E-07  0.461E-07
 -18.376  0.372E-07  0.372E-07
 -18.366  0.284E-07  0.284E-07
 -18.356  0.197E-07  0.197E-07
 -18.346  0.111E-07  0.111E-07
 -18.336  0.266E-08  0.266E-08
 -18.326 -0.572E-08 -0.572E-08
 -18.316 -0.140E-07 -0.140E-07
 -18.306 -0.222E-07 -0.222E-07
 -18.296 -0.302E-07 -0.302E-07
 -18.286 -0.382E-07 -0.382E-07
 -18.276 -0.460E-07 -0.460E-07
 -18.266 -0.537E-07 -0.537E-07
 -18.256 -0.612E-07 -0.612E-07
 -18.246 -0.687E-07 -0.687E-07
 -18.236 -0.760E-07 -0.760E-07
 -18.226 -0.832E-07 -0.832E-07
 -18.216 -0.903E-07 -0.903E-07
 -18.206 -0.972E-07 -0.972E-07
 -18.196 -0.104E-06 -0.104E-06
 -18.186 -0.111E-06 -0.111E-06
 -18.176 -0.117E-06 -0.117E-06
 -18.166 -0.123E-06 -0.123E-06
 -18.156 -0.129E-06 -0.129E-06
 -18.146 -0.135E-06 -0.135E-06
 -18.136 -0.141E-06 -0.141E-06
 -18.126 -0.147E-06 -0.147E-06
 -18.116 -0.152E-06 -0.152E-06
 -18.106 -0.157E-06 -0.157E-06
 -18.096 -0.162E-06 -0.162E-06
 -18.086 -0.167E-06 -0.167E-06
 -18.076 -0.172E-06 -0.172E-06
 -18.066 -0.176E-06 -0.176E-06
 -18.056 -0.180E-06 -0.180E-06
 -18.046 -0.184E-06 -0.184E-06
 -18.036 -0.187E-06 -0.187E-06
 -18.026 -0.191E-06 -0.191E-06
 -18.016 -0.194E-06 -0.194E-06
 -18.006 -0.196E-06 -0.196E-06
 -17.996 -0.198E-06 -0.198E-06
 -17.986 -0.200E-06 -0.200E-06
 -17.976 -0.202E-06 -0.202E-06
 -17.966 -0.203E-06 -0.203E-06
 -17.956 -0.204E-06 -0.204E-06
 -17.946 -0.204E-06 -0.204E-06
 -17.936 -0.204E-06 -0.204E-06
 -17.926 -0.203E-06 -0.203E-06
 -17.916 -0.202E-06 -0.202E-06
 -17.906 -0.200E-06 -0.200E-06
 -17.896 -0.198E-06 -0.198E-06
 -17.886 -0.195E-06 -0.195E-06
 -17.876 -0.192E-06 -0.192E-06
 -17.866 -0.188E-06 -0.188E-06
 -17.856 -0.184E-06 -0.184E-06
 -17.846 -0.178E-06 -0.178E-06
 -17.836 -0.172E-06 -0.172E-06
 -17.826 -0.166E-06 -0.166E-06
 -17.816 -0.158E-06 -0.158E-06
 -17.806 -0.150E-06 -0.150E-06
 -17.796 -0.141E-06 -0.141E-06
 -17.786 -0.132E-06 -0.132E-06
 -17.776 -0.121E-06 -0.121E-06
 -17.766 -0.110E-06 -0.110E-06
 -17.756 -0.972E-07 -0.972E-07
 -17.746 -0.839E-07 -0.839E-07
 -17.736 -0.697E-07 -0.697E-07
 -17.726 -0.546E-07 -0.546E-07
 -17.716 -0.384E-07 -0.384E-07
 -17.706 -0.212E-07 -0.212E-07
 -17.696 -0.304E-08 -0.304E-08
 -17.686  0.162E-07  0.162E-07
 -17.676  0.365E-07  0.365E-07
 -17.666  0.579E-07  0.579E-07
 -17.656  0.804E-07  0.804E-07
 -17.646  0.104E-06  0.104E-06
 -17.636  0.129E-06  0.129E-06
 -17.626  0.155E-06  0.155E-06
 -17.616  0.182E-06  0.182E-06
 -17.606  0.210E-06  0.210E-06
 -17.596  0.239E-06  0.239E-06
 -17.586  0.270E-06  0.270E-06
 -17.576  0.302E-06  0.302E-06
 -17.566  0.335E-06  0.335E-06
 -17.556  0.369E-06  0.369E-06
 -17.546  0.404E-06  0.404E-06
 -17.536  0.441E-06  0.441E-06
 -17.526  0.478E-06  0.478E-06
 -17.516  0.517E-06  0.517E-06
 -17.506  0.557E-06  0.557E-06
 -17.496  0.598E-06  0.598E-06
 -17.486  0.640E-06  0.640E-06
 -17.476  0.684E-06  0.684E-06
 -17.466  0.728E-06  0.728E-06
 -17.456  0.773E-06  0.773E-06
 -17.446  0.820E-06  0.820E-06
 -17.436  0.867E-06  0.867E-06
 -17.426  0.916E-06  0.916E-06
 -17.416  0.965E-06  0.965E-06
 -17.406  0.101E-05  0.101E-05
 -17.396  0.107E-05  0.107E-05
 -17.386  0.112E-05  0.112E-05
 -17.376  0.117E-05  0.117E-05
 -17.366  0.122E-05  0.122E-05
 -17.356  0.128E-05  0.128E-05
 -17.346  0.133E-05  0.133E-05
 -17.336  0.139E-05  0.139E-05
 -17.326  0.144E-05  0.144E-05
 -17.316  0.150E-05  0.150E-05
 -17.306  0.155E-05  0.155E-05
 -17.296  0.161E-05  0.161E-05
 -17.286  0.167E-05  0.167E-05
 -17.276  0.172E-05  0.172E-05
 -17.266  0.178E-05  0.178E-05
 -17.256  0.183E-05  0.183E-05
 -17.246  0.189E-05  0.189E-05
 -17.236  0.195E-05  0.195E-05
 -17.226  0.200E-05  0.200E-05
 -17.216  0.206E-05  0.206E-05
 -17.206  0.211E-05  0.211E-05
 -17.196  0.217E-05  0.217E-05
 -17.186  0.222E-05  0.222E-05
 -17.176  0.228E-05  0.228E-05
 -17.166  0.233E-05  0.233E-05
 -17.156  0.238E-05  0.238E-05
 -17.146  0.243E-05  0.243E-05
 -17.136  0.248E-05  0.248E-05
 -17.126  0.253E-05  0.253E-05
 -17.116  0.258E-05  0.258E-05
 -17.106  0.263E-05  0.263E-05
 -17.096  0.267E-05  0.267E-05
 -17.086  0.272E-05  0.272E-05
 -17.076  0.276E-05  0.276E-05
 -17.066  0.280E-05  0.280E-05
 -17.056  0.284E-05  0.284E-05
 -17.046  0.288E-05  0.288E-05
 -17.036  0.291E-05  0.291E-05
 -17.026  0.295E-05  0.295E-05
 -17.016  0.298E-05  0.298E-05
 -17.006  0.301E-05  0.301E-05
 -16.996  0.304E-05  0.304E-05
 -16.986  0.307E-05  0.307E-05
 -16.976  0.309E-05  0.309E-05
 -16.966  0.312E-05  0.312E-05
 -16.956  0.314E-05  0.314E-05
 -16.946  0.316E-05  0.316E-05
 -16.936  0.317E-05  0.317E-05
 -16.926  0.319E-05  0.319E-05
 -16.916  0.320E-05  0.320E-05
 -16.906  0.321E-05  0.321E-05
 -16.896  0.322E-05  0.322E-05
 -16.886  0.322E-05  0.322E-05
 -16.876  0.323E-05  0.323E-05
 -16.866  0.323E-05  0.323E-05
 -16.856  0.323E-05  0.323E-05
 -16.846  0.322E-05  0.322E-05
 -16.836  0.322E-05  0.322E-05
 -16.826  0.321E-05  0.321E-05
 -16.816  0.320E-05  0.320E-05
 -16.806  0.319E-05  0.319E-05
 -16.796  0.317E-05  0.317E-05
 -16.786  0.316E-05  0.316E-05
 -16.776  0.314E-05  0.314E-05
 -16.766  0.312E-05  0.312E-05
 -16.756  0.310E-05  0.310E-05
 -16.746  0.307E-05  0.307E-05
 -16.736  0.304E-05  0.304E-05
 -16.726  0.302E-05  0.302E-05
 -16.716  0.299E-05  0.299E-05
 -16.706  0.295E-05  0.295E-05
 -16.696  0.292E-05  0.292E-05
 -16.686  0.289E-05  0.289E-05
 -16.676  0.285E-05  0.285E-05
 -16.666  0.281E-05  0.281E-05
 -16.656  0.277E-05  0.277E-05
 -16.646  0.273E-05  0.273E-05
 -16.636  0.269E-05  0.269E-05
 -16.626  0.264E-05  0.264E-05
 -16.616  0.260E-05  0.260E-05
 -16.606  0.255E-05  0.255E-05
 -16.596  0.251E-05  0.251E-05
 -16.586  0.246E-05  0.246E-05
 -16.576  0.241E-05  0.241E-05
 -16.566  0.236E-05  0.236E-05
 -16.556  0.231E-05  0.231E-05
 -16.546  0.226E-05  0.226E-05
 -16.536  0.221E-05  0.221E-05
 -16.526  0.216E-05  0.216E-05
 -16.516  0.210E-05  0.210E-05
 -16.506  0.205E-05  0.205E-05
 -16.496  0.200E-05  0.200E-05
 -16.486  0.195E-05  0.195E-05
 -16.476  0.189E-05  0.189E-05
 -16.466  0.184E-05  0.184E-05
 -16.456  0.179E-05  0.179E-05
 -16.446  0.173E-05  0.173E-05
 -16.436  0.168E-05  0.168E-05
 -16.426  0.163E-05  0.163E-05
 -16.416  0.158E-05  0.158E-05
 -16.406  0.152E-05  0.152E-05
 -16.396  0.147E-05  0.147E-05
 -16.386  0.142E-05  0.142E-05
 -16.376  0.137E-05  0.137E-05
 -16.366  0.132E-05  0.132E-05
 -16.356  0.127E-05  0.127E-05
 -16.346  0.122E-05  0.122E-05
 -16.336  0.118E-05  0.118E-05
 -16.326  0.113E-05  0.113E-05
 -16.316  0.108E-05  0.108E-05
 -16.306  0.104E-05  0.104E-05
 -16.296  0.995E-06  0.995E-06
 -16.286  0.951E-06  0.951E-06
 -16.276  0.909E-06  0.909E-06
 -16.266  0.867E-06  0.867E-06
 -16.256  0.826E-06  0.826E-06
 -16.246  0.787E-06  0.787E-06
 -16.236  0.748E-06  0.748E-06
 -16.226  0.711E-06  0.711E-06
 -16.216  0.674E-06  0.674E-06
 -16.206  0.638E-06  0.638E-06
 -16.196  0.604E-06  0.604E-06
 -16.186  0.571E-06  0.571E-06
 -16.176  0.538E-06  0.538E-06
 -16.166  0.507E-06  0.507E-06
 -16.156  0.477E-06  0.477E-06
 -16.146  0.448E-06  0.448E-06
 -16.136  0.420E-06  0.420E-06
 -16.126  0.392E-06  0.392E-06
 -16.116  0.366E-06  0.366E-06
 -16.106  0.341E-06  0.341E-06
 -16.096  0.317E-06  0.317E-06
 -16.086  0.294E-06  0.294E-06
 -16.076  0.272E-06  0.272E-06
 -16.066  0.251E-06  0.251E-06
 -16.056  0.231E-06  0.231E-06
 -16.046  0.212E-06  0.212E-06
 -16.036  0.194E-06  0.194E-06
 -16.026  0.176E-06  0.176E-06
 -16.016  0.160E-06  0.160E-06
 -16.006  0.144E-06  0.144E-06
 -15.996  0.129E-06  0.129E-06
 -15.986  0.115E-06  0.115E-06
 -15.976  0.102E-06  0.102E-06
 -15.966  0.891E-07  0.891E-07
 -15.956  0.773E-07  0.773E-07
 -15.946  0.661E-07  0.661E-07
 -15.936  0.557E-07  0.557E-07
 -15.926  0.458E-07  0.458E-07
 -15.916  0.366E-07  0.366E-07
 -15.906  0.280E-07  0.280E-07
 -15.896  0.200E-07  0.200E-07
 -15.886  0.125E-07  0.125E-07
 -15.876  0.559E-08  0.559E-08
 -15.866 -0.848E-09 -0.848E-09
 -15.856 -0.681E-08 -0.681E-08
 -15.846 -0.123E-07 -0.123E-07
 -15.836 -0.174E-07 -0.174E-07
 -15.826 -0.221E-07 -0.221E-07
 -15.816 -0.263E-07 -0.263E-07
 -15.806 -0.302E-07 -0.302E-07
 -15.796 -0.338E-07 -0.338E-07
 -15.786 -0.370E-07 -0.370E-07
 -15.776 -0.399E-07 -0.399E-07
 -15.766 -0.426E-07 -0.426E-07
 -15.756 -0.449E-07 -0.449E-07
 -15.746 -0.470E-07 -0.470E-07
 -15.736 -0.489E-07 -0.489E-07
 -15.726 -0.506E-07 -0.506E-07
 -15.716 -0.520E-07 -0.520E-07
 -15.706 -0.533E-07 -0.533E-07
 -15.696 -0.544E-07 -0.544E-07
 -15.686 -0.553E-07 -0.553E-07
 -15.676 -0.561E-07 -0.561E-07
 -15.666 -0.568E-07 -0.568E-07
 -15.656 -0.573E-07 -0.573E-07
 -15.646 -0.577E-07 -0.577E-07
 -15.636 -0.580E-07 -0.580E-07
 -15.626 -0.583E-07 -0.583E-07
 -15.616 -0.584E-07 -0.584E-07
 -15.606 -0.585E-07 -0.585E-07
 -15.596 -0.585E-07 -0.585E-07
 -15.586 -0.585E-07 -0.585E-07
 -15.576 -0.584E-07 -0.584E-07
 -15.566 -0.583E-07 -0.583E-07
 -15.556 -0.582E-07 -0.582E-07
 -15.546 -0.580E-07 -0.580E-07
 -15.536 -0.579E-07 -0.579E-07
 -15.526 -0.577E-07 -0.577E-07
 -15.516 -0.575E-07 -0.575E-07
 -15.506 -0.573E-07 -0.573E-07
 -15.496 -0.571E-07 -0.571E-07
 -15.486 -0.569E-07 -0.569E-07
 -15.476 -0.567E-07 -0.567E-07
 -15.466 -0.565E-07 -0.565E-07
 -15.456 -0.564E-07 -0.564E-07
 -15.446 -0.562E-07 -0.562E-07
 -15.436 -0.561E-07 -0.561E-07
 -15.426 -0.560E-07 -0.560E-07
 -15.416 -0.560E-07 -0.560E-07
 -15.406 -0.560E-07 -0.560E-07
 -15.396 -0.560E-07 -0.560E-07
 -15.386 -0.561E-07 -0.561E-07
 -15.376 -0.562E-07 -0.562E-07
 -15.366 -0.563E-07 -0.563E-07
 -15.356 -0.565E-07 -0.565E-07
 -15.346 -0.567E-07 -0.567E-07
 -15.336 -0.570E-07 -0.570E-07
 -15.326 -0.573E-07 -0.573E-07
 -15.316 -0.577E-07 -0.577E-07
 -15.306 -0.581E-07 -0.581E-07
 -15.296 -0.586E-07 -0.586E-07
 -15.286 -0.591E-07 -0.591E-07
 -15.276 -0.597E-07 -0.597E-07
 -15.266 -0.603E-07 -0.603E-07
 -15.256 -0.610E-07 -0.610E-07
 -15.246 -0.617E-07 -0.617E-07
 -15.236 -0.625E-07 -0.625E-07
 -15.226 -0.634E-07 -0.634E-07
 -15.216 -0.643E-07 -0.643E-07
 -15.206 -0.653E-07 -0.653E-07
 -15.196 -0.664E-07 -0.664E-07
 -15.186 -0.675E-07 -0.675E-07
 -15.176 -0.687E-07 -0.687E-07
 -15.166 -0.699E-07 -0.699E-07
 -15.156 -0.712E-07 -0.712E-07
 -15.146 -0.726E-07 -0.726E-07
 -15.136 -0.740E-07 -0.740E-07
 -15.126 -0.755E-07 -0.755E-07
 -15.116 -0.770E-07 -0.770E-07
 -15.106 -0.786E-07 -0.786E-07
 -15.096 -0.803E-07 -0.803E-07
 -15.086 -0.820E-07 -0.820E-07
 -15.076 -0.838E-07 -0.838E-07
 -15.066 -0.857E-07 -0.857E-07
 -15.056 -0.876E-07 -0.876E-07
 -15.046 -0.895E-07 -0.895E-07
 -15.036 -0.915E-07 -0.915E-07
 -15.026 -0.936E-07 -0.936E-07
 -15.016 -0.957E-07 -0.957E-07
 -15.006 -0.979E-07 -0.979E-07
 -14.996 -0.100E-06 -0.100E-06
 -14.986 -0.102E-06 -0.102E-06
 -14.976 -0.105E-06 -0.105E-06
 -14.966 -0.107E-06 -0.107E-06
 -14.956 -0.109E-06 -0.109E-06
 -14.946 -0.112E-06 -0.112E-06
 -14.936 -0.114E-06 -0.114E-06
 -14.926 -0.116E-06 -0.116E-06
 -14.916 -0.119E-06 -0.119E-06
 -14.906 -0.121E-06 -0.121E-06
 -14.896 -0.124E-06 -0.124E-06
 -14.886 -0.126E-06 -0.126E-06
 -14.876 -0.128E-06 -0.128E-06
 -14.866 -0.131E-06 -0.131E-06
 -14.856 -0.133E-06 -0.133E-06
 -14.846 -0.135E-06 -0.135E-06
 -14.836 -0.137E-06 -0.137E-06
 -14.826 -0.140E-06 -0.140E-06
 -14.816 -0.142E-06 -0.142E-06
 -14.806 -0.144E-06 -0.144E-06
 -14.796 -0.146E-06 -0.146E-06
 -14.786 -0.147E-06 -0.147E-06
 -14.776 -0.149E-06 -0.149E-06
 -14.766 -0.151E-06 -0.151E-06
 -14.756 -0.152E-06 -0.152E-06
 -14.746 -0.153E-06 -0.153E-06
 -14.736 -0.154E-06 -0.154E-06
 -14.726 -0.155E-06 -0.155E-06
 -14.716 -0.156E-06 -0.156E-06
 -14.706 -0.156E-06 -0.156E-06
 -14.696 -0.157E-06 -0.157E-06
 -14.686 -0.157E-06 -0.157E-06
 -14.676 -0.157E-06 -0.157E-06
 -14.666 -0.156E-06 -0.156E-06
 -14.656 -0.155E-06 -0.155E-06
 -14.646 -0.154E-06 -0.154E-06
 -14.636 -0.153E-06 -0.153E-06
 -14.626 -0.151E-06 -0.151E-06
 -14.616 -0.149E-06 -0.149E-06
 -14.606 -0.146E-06 -0.146E-06
 -14.596 -0.143E-06 -0.143E-06
 -14.586 -0.140E-06 -0.140E-06
 -14.576 -0.136E-06 -0.136E-06
 -14.566 -0.132E-06 -0.132E-06
 -14.556 -0.127E-06 -0.127E-06
 -14.546 -0.122E-06 -0.122E-06
 -14.536 -0.116E-06 -0.116E-06
 -14.526 -0.110E-06 -0.110E-06
 -14.516 -0.103E-06 -0.103E-06
 -14.506 -0.953E-07 -0.953E-07
 -14.496 -0.872E-07 -0.872E-07
 -14.486 -0.785E-07 -0.785E-07
 -14.476 -0.691E-07 -0.691E-07
 -14.466 -0.591E-07 -0.591E-07
 -14.456 -0.484E-07 -0.484E-07
 -14.446 -0.369E-07 -0.369E-07
 -14.436 -0.247E-07 -0.247E-07
 -14.426 -0.118E-07 -0.118E-07
 -14.416  0.195E-08  0.195E-08
 -14.406  0.165E-07  0.165E-07
 -14.396  0.318E-07  0.318E-07
 -14.386  0.480E-07  0.480E-07
 -14.376  0.650E-07  0.650E-07
 -14.366  0.828E-07  0.828E-07
 -14.356  0.102E-06  0.102E-06
 -14.346  0.121E-06  0.121E-06
 -14.336  0.142E-06  0.142E-06
 -14.326  0.163E-06  0.163E-06
 -14.316  0.186E-06  0.186E-06
 -14.306  0.209E-06  0.209E-06
 -14.296  0.234E-06  0.234E-06
 -14.286  0.259E-06  0.259E-06
 -14.276  0.285E-06  0.285E-06
 -14.266  0.313E-06  0.313E-06
 -14.256  0.341E-06  0.341E-06
 -14.246  0.371E-06  0.371E-06
 -14.236  0.401E-06  0.401E-06
 -14.226  0.433E-06  0.433E-06
 -14.216  0.465E-06  0.465E-06
 -14.206  0.499E-06  0.499E-06
 -14.196  0.534E-06  0.534E-06
 -14.186  0.569E-06  0.569E-06
 -14.176  0.606E-06  0.606E-06
 -14.166  0.644E-06  0.644E-06
 -14.156  0.683E-06  0.683E-06
 -14.146  0.723E-06  0.723E-06
 -14.136  0.764E-06  0.764E-06
 -14.126  0.806E-06  0.806E-06
 -14.116  0.849E-06  0.849E-06
 -14.106  0.893E-06  0.893E-06
 -14.096  0.938E-06  0.938E-06
 -14.086  0.984E-06  0.984E-06
 -14.076  0.103E-05  0.103E-05
 -14.066  0.108E-05  0.108E-05
 -14.056  0.113E-05  0.113E-05
 -14.046  0.118E-05  0.118E-05
 -14.036  0.123E-05  0.123E-05
 -14.026  0.128E-05  0.128E-05
 -14.016  0.133E-05  0.133E-05
 -14.006  0.139E-05  0.139E-05
 -13.996  0.144E-05  0.144E-05
 -13.986  0.150E-05  0.150E-05
 -13.976  0.155E-05  0.155E-05
 -13.966  0.161E-05  0.161E-05
 -13.956  0.166E-05  0.166E-05
 -13.946  0.172E-05  0.172E-05
 -13.936  0.178E-05  0.178E-05
 -13.926  0.184E-05  0.184E-05
 -13.916  0.190E-05  0.190E-05
 -13.906  0.196E-05  0.196E-05
 -13.896  0.202E-05  0.202E-05
 -13.886  0.208E-05  0.208E-05
 -13.876  0.214E-05  0.214E-05
 -13.866  0.220E-05  0.220E-05
 -13.856  0.226E-05  0.226E-05
 -13.846  0.232E-05  0.232E-05
 -13.836  0.239E-05  0.239E-05
 -13.826  0.245E-05  0.245E-05
 -13.816  0.251E-05  0.251E-05
 -13.806  0.257E-05  0.257E-05
 -13.796  0.264E-05  0.264E-05
 -13.786  0.270E-05  0.270E-05
 -13.776  0.276E-05  0.276E-05
 -13.766  0.282E-05  0.282E-05
 -13.756  0.288E-05  0.288E-05
 -13.746  0.294E-05  0.294E-05
 -13.736  0.300E-05  0.300E-05
 -13.726  0.307E-05  0.307E-05
 -13.716  0.313E-05  0.313E-05
 -13.706  0.318E-05  0.318E-05
 -13.696  0.324E-05  0.324E-05
 -13.686  0.330E-05  0.330E-05
 -13.676  0.336E-05  0.336E-05
 -13.666  0.342E-05  0.342E-05
 -13.656  0.347E-05  0.347E-05
 -13.646  0.353E-05  0.353E-05
 -13.636  0.358E-05  0.358E-05
 -13.626  0.363E-05  0.363E-05
 -13.616  0.369E-05  0.369E-05
 -13.606  0.374E-05  0.374E-05
 -13.596  0.379E-05  0.379E-05
 -13.586  0.384E-05  0.384E-05
 -13.576  0.388E-05  0.388E-05
 -13.566  0.393E-05  0.393E-05
 -13.556  0.397E-05  0.397E-05
 -13.546  0.402E-05  0.402E-05
 -13.536  0.406E-05  0.406E-05
 -13.526  0.410E-05  0.410E-05
 -13.516  0.414E-05  0.414E-05
 -13.506  0.418E-05  0.418E-05
 -13.496  0.421E-05  0.421E-05
 -13.486  0.425E-05  0.425E-05
 -13.476  0.428E-05  0.428E-05
 -13.466  0.431E-05  0.431E-05
 -13.456  0.434E-05  0.434E-05
 -13.446  0.437E-05  0.437E-05
 -13.436  0.440E-05  0.440E-05
 -13.426  0.442E-05  0.442E-05
 -13.416  0.444E-05  0.444E-05
 -13.406  0.446E-05  0.446E-05
 -13.396  0.448E-05  0.448E-05
 -13.386  0.450E-05  0.450E-05
 -13.376  0.451E-05  0.451E-05
 -13.366  0.453E-05  0.453E-05
 -13.356  0.454E-05  0.454E-05
 -13.346  0.455E-05  0.455E-05
 -13.336  0.455E-05  0.455E-05
 -13.326  0.456E-05  0.456E-05
 -13.316  0.456E-05  0.456E-05
 -13.306  0.456E-05  0.456E-05
 -13.296  0.456E-05  0.456E-05
 -13.286  0.456E-05  0.456E-05
 -13.276  0.455E-05  0.455E-05
 -13.266  0.455E-05  0.455E-05
 -13.256  0.454E-05  0.454E-05
 -13.246  0.453E-05  0.453E-05
 -13.236  0.452E-05  0.452E-05
 -13.226  0.450E-05  0.450E-05
 -13.216  0.448E-05  0.448E-05
 -13.206  0.447E-05  0.447E-05
 -13.196  0.445E-05  0.445E-05
 -13.186  0.442E-05  0.442E-05
 -13.176  0.440E-05  0.440E-05
 -13.166  0.437E-05  0.437E-05
 -13.156  0.435E-05  0.435E-05
 -13.146  0.432E-05  0.432E-05
 -13.136  0.428E-05  0.428E-05
 -13.126  0.425E-05  0.425E-05
 -13.116  0.422E-05  0.422E-05
 -13.106  0.418E-05  0.418E-05
 -13.096  0.414E-05  0.414E-05
 -13.086  0.410E-05  0.410E-05
 -13.076  0.406E-05  0.406E-05
 -13.066  0.402E-05  0.402E-05
 -13.056  0.397E-05  0.397E-05
 -13.046  0.393E-05  0.393E-05
 -13.036  0.388E-05  0.388E-05
 -13.026  0.383E-05  0.383E-05
 -13.016  0.378E-05  0.378E-05
 -13.006  0.373E-05  0.373E-05
 -12.996  0.367E-05  0.367E-05
 -12.986  0.362E-05  0.362E-05
 -12.976  0.356E-05  0.356E-05
 -12.966  0.351E-05  0.351E-05
 -12.956  0.345E-05  0.345E-05
 -12.946  0.339E-05  0.339E-05
 -12.936  0.333E-05  0.333E-05
 -12.926  0.327E-05  0.327E-05
 -12.916  0.321E-05  0.321E-05
 -12.906  0.314E-05  0.314E-05
 -12.896  0.308E-05  0.308E-05
 -12.886  0.302E-05  0.302E-05
 -12.876  0.295E-05  0.295E-05
 -12.866  0.288E-05  0.288E-05
 -12.856  0.282E-05  0.282E-05
 -12.846  0.275E-05  0.275E-05
 -12.836  0.268E-05  0.268E-05
 -12.826  0.261E-05  0.261E-05
 -12.816  0.254E-05  0.254E-05
 -12.806  0.247E-05  0.247E-05
 -12.796  0.240E-05  0.240E-05
 -12.786  0.233E-05  0.233E-05
 -12.776  0.226E-05  0.226E-05
 -12.766  0.219E-05  0.219E-05
 -12.756  0.212E-05  0.212E-05
 -12.746  0.204E-05  0.204E-05
 -12.736  0.197E-05  0.197E-05
 -12.726  0.190E-05  0.190E-05
 -12.716  0.183E-05  0.183E-05
 -12.706  0.175E-05  0.175E-05
 -12.696  0.168E-05  0.168E-05
 -12.686  0.161E-05  0.161E-05
 -12.676  0.153E-05  0.153E-05
 -12.666  0.146E-05  0.146E-05
 -12.656  0.139E-05  0.139E-05
 -12.646  0.132E-05  0.132E-05
 -12.636  0.124E-05  0.124E-05
 -12.626  0.117E-05  0.117E-05
 -12.616  0.110E-05  0.110E-05
 -12.606  0.103E-05  0.103E-05
 -12.596  0.956E-06  0.956E-06
 -12.586  0.885E-06  0.885E-06
 -12.576  0.815E-06  0.815E-06
 -12.566  0.745E-06  0.745E-06
 -12.556  0.676E-06  0.676E-06
 -12.546  0.607E-06  0.607E-06
 -12.536  0.539E-06  0.539E-06
 -12.526  0.471E-06  0.471E-06
 -12.516  0.404E-06  0.404E-06
 -12.506  0.338E-06  0.338E-06
 -12.496  0.273E-06  0.273E-06
 -12.486  0.208E-06  0.208E-06
 -12.476  0.145E-06  0.145E-06
 -12.466  0.820E-07  0.820E-07
 -12.456  0.204E-07  0.204E-07
 -12.446 -0.402E-07 -0.402E-07
 -12.436 -0.996E-07 -0.996E-07
 -12.426 -0.158E-06 -0.158E-06
 -12.416 -0.215E-06 -0.215E-06
 -12.406 -0.270E-06 -0.270E-06
 -12.396 -0.325E-06 -0.325E-06
 -12.386 -0.377E-06 -0.377E-06
 -12.376 -0.429E-06 -0.429E-06
 -12.366 -0.478E-06 -0.478E-06
 -12.356 -0.526E-06 -0.526E-06
 -12.346 -0.572E-06 -0.572E-06
 -12.336 -0.616E-06 -0.616E-06
 -12.326 -0.659E-06 -0.659E-06
 -12.316 -0.699E-06 -0.699E-06
 -12.306 -0.737E-06 -0.737E-06
 -12.296 -0.773E-06 -0.773E-06
 -12.286 -0.807E-06 -0.807E-06
 -12.276 -0.838E-06 -0.838E-06
 -12.266 -0.866E-06 -0.866E-06
 -12.256 -0.892E-06 -0.892E-06
 -12.246 -0.916E-06 -0.916E-06
 -12.236 -0.936E-06 -0.936E-06
 -12.226 -0.954E-06 -0.954E-06
 -12.216 -0.968E-06 -0.968E-06
 -12.206 -0.979E-06 -0.979E-06
 -12.196 -0.987E-06 -0.987E-06
 -12.186 -0.991E-06 -0.991E-06
 -12.176 -0.992E-06 -0.992E-06
 -12.166 -0.989E-06 -0.989E-06
 -12.156 -0.982E-06 -0.982E-06
 -12.146 -0.971E-06 -0.971E-06
 -12.136 -0.956E-06 -0.956E-06
 -12.126 -0.937E-06 -0.937E-06
 -12.116 -0.914E-06 -0.914E-06
 -12.106 -0.886E-06 -0.886E-06
 -12.096 -0.854E-06 -0.854E-06
 -12.086 -0.816E-06 -0.816E-06
 -12.076 -0.774E-06 -0.774E-06
 -12.066 -0.727E-06 -0.727E-06
 -12.056 -0.675E-06 -0.675E-06
 -12.046 -0.617E-06 -0.617E-06
 -12.036 -0.555E-06 -0.555E-06
 -12.026 -0.486E-06 -0.486E-06
 -12.016 -0.412E-06 -0.412E-06
 -12.006 -0.333E-06 -0.333E-06
 -11.996 -0.248E-06 -0.248E-06
 -11.986 -0.156E-06 -0.156E-06
 -11.976 -0.593E-07 -0.593E-07
 -11.966  0.439E-07  0.439E-07
 -11.956  0.153E-06  0.153E-06
 -11.946  0.269E-06  0.269E-06
 -11.936  0.390E-06  0.390E-06
 -11.926  0.518E-06  0.518E-06
 -11.916  0.653E-06  0.653E-06
 -11.906  0.793E-06  0.793E-06
 -11.896  0.940E-06  0.940E-06
 -11.886  0.109E-05  0.109E-05
 -11.876  0.125E-05  0.125E-05
 -11.866  0.142E-05  0.142E-05
 -11.856  0.159E-05  0.159E-05
 -11.846  0.177E-05  0.177E-05
 -11.836  0.196E-05  0.196E-05
 -11.826  0.215E-05  0.215E-05
 -11.816  0.234E-05  0.234E-05
 -11.806  0.255E-05  0.255E-05
 -11.796  0.275E-05  0.275E-05
 -11.786  0.297E-05  0.297E-05
 -11.776  0.319E-05  0.319E-05
 -11.766  0.341E-05  0.341E-05
 -11.756  0.364E-05  0.364E-05
 -11.746  0.388E-05  0.388E-05
 -11.736  0.411E-05  0.411E-05
 -11.726  0.436E-05  0.436E-05
 -11.716  0.460E-05  0.460E-05
 -11.706  0.485E-05  0.485E-05
 -11.696  0.511E-05  0.511E-05
 -11.686  0.536E-05  0.536E-05
 -11.676  0.562E-05  0.562E-05
 -11.666  0.588E-05  0.588E-05
 -11.656  0.614E-05  0.614E-05
 -11.646  0.640E-05  0.640E-05
 -11.636  0.667E-05  0.667E-05
 -11.626  0.693E-05  0.693E-05
 -11.616  0.719E-05  0.719E-05
 -11.606  0.745E-05  0.745E-05
 -11.596  0.770E-05  0.770E-05
 -11.586  0.796E-05  0.796E-05
 -11.576  0.821E-05  0.821E-05
 -11.566  0.845E-05  0.845E-05
 -11.556  0.869E-05  0.869E-05
 -11.546  0.892E-05  0.892E-05
 -11.536  0.914E-05  0.914E-05
 -11.526  0.936E-05  0.936E-05
 -11.516  0.956E-05  0.956E-05
 -11.506  0.976E-05  0.976E-05
 -11.496  0.994E-05  0.994E-05
 -11.486  0.101E-04  0.101E-04
 -11.476  0.103E-04  0.103E-04
 -11.466  0.104E-04  0.104E-04
 -11.456  0.105E-04  0.105E-04
 -11.446  0.106E-04  0.106E-04
 -11.436  0.107E-04  0.107E-04
 -11.426  0.107E-04  0.107E-04
 -11.416  0.108E-04  0.108E-04
 -11.406  0.107E-04  0.107E-04
 -11.396  0.107E-04  0.107E-04
 -11.386  0.106E-04  0.106E-04
 -11.376  0.105E-04  0.105E-04
 -11.366  0.104E-04  0.104E-04
 -11.356  0.102E-04  0.102E-04
 -11.346  0.999E-05  0.999E-05
 -11.336  0.972E-05  0.972E-05
 -11.326  0.939E-05  0.939E-05
 -11.316  0.901E-05  0.901E-05
 -11.306  0.858E-05  0.858E-05
 -11.296  0.808E-05  0.808E-05
 -11.286  0.751E-05  0.751E-05
 -11.276  0.687E-05  0.687E-05
 -11.266  0.615E-05  0.615E-05
 -11.256  0.535E-05  0.535E-05
 -11.246  0.447E-05  0.447E-05
 -11.236  0.348E-05  0.348E-05
 -11.226  0.240E-05  0.240E-05
 -11.216  0.122E-05  0.122E-05
 -11.206 -0.866E-07 -0.866E-07
 -11.196 -0.151E-05 -0.151E-05
 -11.186 -0.307E-05 -0.307E-05
 -11.176 -0.476E-05 -0.476E-05
 -11.166 -0.660E-05 -0.660E-05
 -11.156 -0.860E-05 -0.860E-05
 -11.146 -0.108E-04 -0.108E-04
 -11.136 -0.131E-04 -0.131E-04
 -11.126 -0.156E-04 -0.156E-04
 -11.116 -0.184E-04 -0.184E-04
 -11.106 -0.213E-04 -0.213E-04
 -11.096 -0.245E-04 -0.245E-04
 -11.086 -0.279E-04 -0.279E-04
 -11.076 -0.316E-04 -0.316E-04
 -11.066 -0.356E-04 -0.356E-04
 -11.056 -0.398E-04 -0.398E-04
 -11.046 -0.444E-04 -0.444E-04
 -11.036 -0.493E-04 -0.493E-04
 -11.026 -0.545E-04 -0.545E-04
 -11.016 -0.601E-04 -0.601E-04
 -11.006 -0.661E-04 -0.661E-04
 -10.996 -0.725E-04 -0.725E-04
 -10.986 -0.794E-04 -0.794E-04
 -10.976 -0.867E-04 -0.867E-04
 -10.966 -0.945E-04 -0.945E-04
 -10.956 -0.103E-03 -0.103E-03
 -10.946 -0.112E-03 -0.112E-03
 -10.936 -0.121E-03 -0.121E-03
 -10.926 -0.131E-03 -0.131E-03
 -10.916 -0.142E-03 -0.142E-03
 -10.906 -0.153E-03 -0.153E-03
 -10.896 -0.165E-03 -0.165E-03
 -10.886 -0.178E-03 -0.178E-03
 -10.876 -0.192E-03 -0.192E-03
 -10.866 -0.206E-03 -0.206E-03
 -10.856 -0.222E-03 -0.222E-03
 -10.846 -0.238E-03 -0.238E-03
 -10.836 -0.255E-03 -0.255E-03
 -10.826 -0.274E-03 -0.274E-03
 -10.816 -0.293E-03 -0.293E-03
 -10.806 -0.313E-03 -0.313E-03
 -10.796 -0.335E-03 -0.335E-03
 -10.786 -0.358E-03 -0.358E-03
 -10.776 -0.382E-03 -0.382E-03
 -10.766 -0.407E-03 -0.407E-03
 -10.756 -0.434E-03 -0.434E-03
 -10.746 -0.462E-03 -0.462E-03
 -10.736 -0.492E-03 -0.492E-03
 -10.726 -0.523E-03 -0.523E-03
 -10.716 -0.556E-03 -0.556E-03
 -10.706 -0.591E-03 -0.591E-03
 -10.696 -0.627E-03 -0.627E-03
 -10.686 -0.666E-03 -0.666E-03
 -10.676 -0.706E-03 -0.706E-03
 -10.666 -0.748E-03 -0.748E-03
 -10.656 -0.792E-03 -0.792E-03
 -10.646 -0.838E-03 -0.838E-03
 -10.636 -0.887E-03 -0.887E-03
 -10.626 -0.937E-03 -0.937E-03
 -10.616 -0.990E-03 -0.990E-03
 -10.606 -0.105E-02 -0.105E-02
 -10.596 -0.110E-02 -0.110E-02
 -10.586 -0.116E-02 -0.116E-02
 -10.576 -0.123E-02 -0.123E-02
 -10.566 -0.129E-02 -0.129E-02
 -10.556 -0.136E-02 -0.136E-02
 -10.546 -0.143E-02 -0.143E-02
 -10.536 -0.150E-02 -0.150E-02
 -10.526 -0.158E-02 -0.158E-02
 -10.516 -0.166E-02 -0.166E-02
 -10.506 -0.174E-02 -0.174E-02
 -10.496 -0.183E-02 -0.183E-02
 -10.486 -0.192E-02 -0.192E-02
 -10.476 -0.201E-02 -0.201E-02
 -10.466 -0.210E-02 -0.210E-02
 -10.456 -0.220E-02 -0.220E-02
 -10.446 -0.230E-02 -0.230E-02
 -10.436 -0.240E-02 -0.240E-02
 -10.426 -0.251E-02 -0.251E-02
 -10.416 -0.262E-02 -0.262E-02
 -10.406 -0.273E-02 -0.273E-02
 -10.396 -0.285E-02 -0.285E-02
 -10.386 -0.297E-02 -0.297E-02
 -10.376 -0.309E-02 -0.309E-02
 -10.366 -0.321E-02 -0.321E-02
 -10.356 -0.334E-02 -0.334E-02
 -10.346 -0.347E-02 -0.347E-02
 -10.336 -0.360E-02 -0.360E-02
 -10.326 -0.374E-02 -0.374E-02
 -10.316 -0.387E-02 -0.387E-02
 -10.306 -0.401E-02 -0.401E-02
 -10.296 -0.415E-02 -0.415E-02
 -10.286 -0.429E-02 -0.429E-02
 -10.276 -0.444E-02 -0.444E-02
 -10.266 -0.458E-02 -0.458E-02
 -10.256 -0.473E-02 -0.473E-02
 -10.246 -0.487E-02 -0.487E-02
 -10.236 -0.502E-02 -0.502E-02
 -10.226 -0.517E-02 -0.517E-02
 -10.216 -0.531E-02 -0.531E-02
 -10.206 -0.546E-02 -0.546E-02
 -10.196 -0.561E-02 -0.561E-02
 -10.186 -0.575E-02 -0.575E-02
 -10.176 -0.589E-02 -0.589E-02
 -10.166 -0.603E-02 -0.603E-02
 -10.156 -0.617E-02 -0.617E-02
 -10.146 -0.630E-02 -0.630E-02
 -10.136 -0.643E-02 -0.643E-02
 -10.126 -0.655E-02 -0.655E-02
 -10.116 -0.667E-02 -0.667E-02
 -10.106 -0.678E-02 -0.678E-02
 -10.096 -0.689E-02 -0.689E-02
 -10.086 -0.699E-02 -0.699E-02
 -10.076 -0.708E-02 -0.708E-02
 -10.066 -0.716E-02 -0.716E-02
 -10.056 -0.724E-02 -0.724E-02
 -10.046 -0.730E-02 -0.730E-02
 -10.036 -0.735E-02 -0.735E-02
 -10.026 -0.739E-02 -0.739E-02
 -10.016 -0.742E-02 -0.742E-02
 -10.006 -0.743E-02 -0.743E-02
  -9.996 -0.743E-02 -0.743E-02
  -9.986 -0.742E-02 -0.742E-02
  -9.976 -0.739E-02 -0.739E-02
  -9.966 -0.734E-02 -0.734E-02
  -9.956 -0.727E-02 -0.727E-02
  -9.946 -0.718E-02 -0.718E-02
  -9.936 -0.707E-02 -0.707E-02
  -9.926 -0.694E-02 -0.694E-02
  -9.916 -0.679E-02 -0.679E-02
  -9.906 -0.661E-02 -0.661E-02
  -9.896 -0.641E-02 -0.641E-02
  -9.886 -0.619E-02 -0.619E-02
  -9.876 -0.593E-02 -0.593E-02
  -9.866 -0.565E-02 -0.565E-02
  -9.856 -0.534E-02 -0.534E-02
  -9.846 -0.500E-02 -0.500E-02
  -9.836 -0.463E-02 -0.463E-02
  -9.826 -0.422E-02 -0.422E-02
  -9.816 -0.378E-02 -0.378E-02
  -9.806 -0.331E-02 -0.331E-02
  -9.796 -0.281E-02 -0.281E-02
  -9.786 -0.226E-02 -0.226E-02
  -9.776 -0.168E-02 -0.168E-02
  -9.766 -0.106E-02 -0.106E-02
  -9.756 -0.402E-03 -0.402E-03
  -9.746  0.296E-03  0.296E-03
  -9.736  0.104E-02  0.104E-02
  -9.726  0.182E-02  0.182E-02
  -9.716  0.264E-02  0.264E-02
  -9.706  0.351E-02  0.351E-02
  -9.696  0.442E-02  0.442E-02
  -9.686  0.538E-02  0.538E-02
  -9.676  0.638E-02  0.638E-02
  -9.666  0.742E-02  0.742E-02
  -9.656  0.852E-02  0.852E-02
  -9.646  0.966E-02  0.966E-02
  -9.636  0.108E-01  0.108E-01
  -9.626  0.121E-01  0.121E-01
  -9.616  0.134E-01  0.134E-01
  -9.606  0.147E-01  0.147E-01
  -9.596  0.161E-01  0.161E-01
  -9.586  0.175E-01  0.175E-01
  -9.576  0.189E-01  0.189E-01
  -9.566  0.205E-01  0.205E-01
  -9.556  0.220E-01  0.220E-01
  -9.546  0.236E-01  0.236E-01
  -9.536  0.253E-01  0.253E-01
  -9.526  0.270E-01  0.270E-01
  -9.516  0.287E-01  0.287E-01
  -9.506  0.305E-01  0.305E-01
  -9.496  0.324E-01  0.324E-01
  -9.486  0.342E-01  0.342E-01
  -9.476  0.361E-01  0.361E-01
  -9.466  0.381E-01  0.381E-01
  -9.456  0.401E-01  0.401E-01
  -9.446  0.421E-01  0.421E-01
  -9.436  0.442E-01  0.442E-01
  -9.426  0.463E-01  0.463E-01
  -9.416  0.484E-01  0.484E-01
  -9.406  0.506E-01  0.506E-01
  -9.396  0.528E-01  0.528E-01
  -9.386  0.550E-01  0.550E-01
  -9.376  0.573E-01  0.573E-01
  -9.366  0.596E-01  0.596E-01
  -9.356  0.619E-01  0.619E-01
  -9.346  0.642E-01  0.642E-01
  -9.336  0.665E-01  0.665E-01
  -9.326  0.689E-01  0.689E-01
  -9.316  0.713E-01  0.713E-01
  -9.306  0.737E-01  0.737E-01
  -9.296  0.761E-01  0.761E-01
  -9.286  0.785E-01  0.785E-01
  -9.276  0.809E-01  0.809E-01
  -9.266  0.833E-01  0.833E-01
  -9.256  0.857E-01  0.857E-01
  -9.246  0.881E-01  0.881E-01
  -9.236  0.906E-01  0.906E-01
  -9.226  0.930E-01  0.930E-01
  -9.216  0.954E-01  0.954E-01
  -9.206  0.978E-01  0.978E-01
  -9.196  0.100E+00  0.100E+00
  -9.186  0.103E+00  0.103E+00
  -9.176  0.105E+00  0.105E+00
  -9.166  0.107E+00  0.107E+00
  -9.156  0.109E+00  0.109E+00
  -9.146  0.112E+00  0.112E+00
  -9.136  0.114E+00  0.114E+00
  -9.126  0.116E+00  0.116E+00
  -9.116  0.118E+00  0.118E+00
  -9.106  0.121E+00  0.121E+00
  -9.096  0.123E+00  0.123E+00
  -9.086  0.125E+00  0.125E+00
  -9.076  0.127E+00  0.127E+00
  -9.066  0.129E+00  0.129E+00
  -9.056  0.131E+00  0.131E+00
  -9.046  0.133E+00  0.133E+00
  -9.036  0.135E+00  0.135E+00
  -9.026  0.137E+00  0.137E+00
  -9.016  0.138E+00  0.138E+00
  -9.006  0.140E+00  0.140E+00
  -8.996  0.142E+00  0.142E+00
  -8.986  0.144E+00  0.144E+00
  -8.976  0.145E+00  0.145E+00
  -8.966  0.147E+00  0.147E+00
  -8.956  0.148E+00  0.148E+00
  -8.946  0.150E+00  0.150E+00
  -8.936  0.151E+00  0.151E+00
  -8.926  0.152E+00  0.152E+00
  -8.916  0.154E+00  0.154E+00
  -8.906  0.155E+00  0.155E+00
  -8.896  0.156E+00  0.156E+00
  -8.886  0.157E+00  0.157E+00
  -8.876  0.158E+00  0.158E+00
  -8.866  0.159E+00  0.159E+00
  -8.856  0.160E+00  0.160E+00
  -8.846  0.161E+00  0.161E+00
  -8.836  0.162E+00  0.162E+00
  -8.826  0.163E+00  0.163E+00
  -8.816  0.164E+00  0.164E+00
  -8.806  0.164E+00  0.164E+00
  -8.796  0.165E+00  0.165E+00
  -8.786  0.166E+00  0.166E+00
  -8.776  0.166E+00  0.166E+00
  -8.766  0.167E+00  0.167E+00
  -8.756  0.167E+00  0.167E+00
  -8.746  0.167E+00  0.167E+00
  -8.736  0.168E+00  0.168E+00
  -8.726  0.168E+00  0.168E+00
  -8.716  0.168E+00  0.168E+00
  -8.706  0.168E+00  0.168E+00
  -8.696  0.168E+00  0.168E+00
  -8.686  0.168E+00  0.168E+00
  -8.676  0.168E+00  0.168E+00
  -8.666  0.168E+00  0.168E+00
  -8.656  0.168E+00  0.168E+00
  -8.646  0.168E+00  0.168E+00
  -8.636  0.168E+00  0.168E+00
  -8.626  0.168E+00  0.168E+00
  -8.616  0.168E+00  0.168E+00
  -8.606  0.167E+00  0.167E+00
  -8.596  0.167E+00  0.167E+00
  -8.586  0.167E+00  0.167E+00
  -8.576  0.166E+00  0.166E+00
  -8.566  0.166E+00  0.166E+00
  -8.556  0.165E+00  0.165E+00
  -8.546  0.165E+00  0.165E+00
  -8.536  0.164E+00  0.164E+00
  -8.526  0.164E+00  0.164E+00
  -8.516  0.163E+00  0.163E+00
  -8.506  0.162E+00  0.162E+00
  -8.496  0.162E+00  0.162E+00
  -8.486  0.161E+00  0.161E+00
  -8.476  0.160E+00  0.160E+00
  -8.466  0.160E+00  0.160E+00
  -8.456  0.159E+00  0.159E+00
  -8.446  0.158E+00  0.158E+00
  -8.436  0.157E+00  0.157E+00
  -8.426  0.156E+00  0.156E+00
  -8.416  0.155E+00  0.155E+00
  -8.406  0.154E+00  0.154E+00
  -8.396  0.153E+00  0.153E+00
  -8.386  0.152E+00  0.152E+00
  -8.376  0.151E+00  0.151E+00
  -8.366  0.150E+00  0.150E+00
  -8.356  0.149E+00  0.149E+00
  -8.346  0.148E+00  0.148E+00
  -8.336  0.147E+00  0.147E+00
  -8.326  0.145E+00  0.145E+00
  -8.316  0.144E+00  0.144E+00
  -8.306  0.143E+00  0.143E+00
  -8.296  0.142E+00  0.142E+00
  -8.286  0.141E+00  0.141E+00
  -8.276  0.139E+00  0.139E+00
  -8.266  0.138E+00  0.138E+00
  -8.256  0.137E+00  0.137E+00
  -8.246  0.135E+00  0.135E+00
  -8.236  0.134E+00  0.134E+00
  -8.226  0.132E+00  0.132E+00
  -8.216  0.131E+00  0.131E+00
  -8.206  0.130E+00  0.130E+00
  -8.196  0.128E+00  0.128E+00
  -8.186  0.127E+00  0.127E+00
  -8.176  0.125E+00  0.125E+00
  -8.166  0.124E+00  0.124E+00
  -8.156  0.122E+00  0.122E+00
  -8.146  0.121E+00  0.121E+00
  -8.136  0.119E+00  0.119E+00
  -8.126  0.118E+00  0.118E+00
  -8.116  0.116E+00  0.116E+00
  -8.106  0.115E+00  0.115E+00
  -8.096  0.113E+00  0.113E+00
  -8.086  0.111E+00  0.111E+00
  -8.076  0.110E+00  0.110E+00
  -8.066  0.108E+00  0.108E+00
  -8.056  0.107E+00  0.107E+00
  -8.046  0.105E+00  0.105E+00
  -8.036  0.104E+00  0.104E+00
  -8.026  0.102E+00  0.102E+00
  -8.016  0.101E+00  0.101E+00
  -8.006  0.990E-01  0.990E-01
  -7.996  0.975E-01  0.975E-01
  -7.986  0.960E-01  0.960E-01
  -7.976  0.945E-01  0.945E-01
  -7.966  0.929E-01  0.929E-01
  -7.956  0.915E-01  0.915E-01
  -7.946  0.900E-01  0.900E-01
  -7.936  0.885E-01  0.885E-01
  -7.926  0.871E-01  0.871E-01
  -7.916  0.857E-01  0.857E-01
  -7.906  0.842E-01  0.842E-01
  -7.896  0.829E-01  0.829E-01
  -7.886  0.815E-01  0.815E-01
  -7.876  0.802E-01  0.802E-01
  -7.866  0.789E-01  0.789E-01
  -7.856  0.776E-01  0.776E-01
  -7.846  0.763E-01  0.763E-01
  -7.836  0.751E-01  0.751E-01
  -7.826  0.739E-01  0.739E-01
  -7.816  0.728E-01  0.728E-01
  -7.806  0.716E-01  0.716E-01
  -7.796  0.705E-01  0.705E-01
  -7.786  0.695E-01  0.695E-01
  -7.776  0.684E-01  0.684E-01
  -7.766  0.674E-01  0.674E-01
  -7.756  0.665E-01  0.665E-01
  -7.746  0.656E-01  0.656E-01
  -7.736  0.647E-01  0.647E-01
  -7.726  0.638E-01  0.638E-01
  -7.716  0.630E-01  0.630E-01
  -7.706  0.622E-01  0.622E-01
  -7.696  0.615E-01  0.615E-01
  -7.686  0.608E-01  0.608E-01
  -7.676  0.602E-01  0.602E-01
  -7.666  0.595E-01  0.595E-01
  -7.656  0.590E-01  0.590E-01
  -7.646  0.584E-01  0.584E-01
  -7.636  0.579E-01  0.579E-01
  -7.626  0.574E-01  0.574E-01
  -7.616  0.570E-01  0.570E-01
  -7.606  0.566E-01  0.566E-01
  -7.596  0.562E-01  0.562E-01
  -7.586  0.559E-01  0.559E-01
  -7.576  0.556E-01  0.556E-01
  -7.566  0.553E-01  0.553E-01
  -7.556  0.551E-01  0.551E-01
  -7.546  0.549E-01  0.549E-01
  -7.536  0.548E-01  0.548E-01
  -7.526  0.546E-01  0.546E-01
  -7.516  0.545E-01  0.545E-01
  -7.506  0.544E-01  0.544E-01
  -7.496  0.544E-01  0.544E-01
  -7.486  0.543E-01  0.543E-01
  -7.476  0.543E-01  0.543E-01
  -7.466  0.543E-01  0.543E-01
  -7.456  0.543E-01  0.543E-01
  -7.446  0.544E-01  0.544E-01
  -7.436  0.545E-01  0.545E-01
  -7.426  0.545E-01  0.545E-01
  -7.416  0.546E-01  0.546E-01
  -7.406  0.547E-01  0.547E-01
  -7.396  0.548E-01  0.548E-01
  -7.386  0.550E-01  0.550E-01
  -7.376  0.551E-01  0.551E-01
  -7.366  0.552E-01  0.552E-01
  -7.356  0.554E-01  0.554E-01
  -7.346  0.555E-01  0.555E-01
  -7.336  0.556E-01  0.556E-01
  -7.326  0.558E-01  0.558E-01
  -7.316  0.559E-01  0.559E-01
  -7.306  0.561E-01  0.561E-01
  -7.296  0.562E-01  0.562E-01
  -7.286  0.563E-01  0.563E-01
  -7.276  0.564E-01  0.564E-01
  -7.266  0.565E-01  0.565E-01
  -7.256  0.566E-01  0.566E-01
  -7.246  0.567E-01  0.567E-01
  -7.236  0.567E-01  0.567E-01
  -7.226  0.568E-01  0.568E-01
  -7.216  0.568E-01  0.568E-01
  -7.206  0.568E-01  0.568E-01
  -7.196  0.568E-01  0.568E-01
  -7.186  0.567E-01  0.567E-01
  -7.176  0.567E-01  0.567E-01
  -7.166  0.566E-01  0.566E-01
  -7.156  0.565E-01  0.565E-01
  -7.146  0.564E-01  0.564E-01
  -7.136  0.562E-01  0.562E-01
  -7.126  0.560E-01  0.560E-01
  -7.116  0.558E-01  0.558E-01
  -7.106  0.556E-01  0.556E-01
  -7.096  0.553E-01  0.553E-01
  -7.086  0.550E-01  0.550E-01
  -7.076  0.547E-01  0.547E-01
  -7.066  0.544E-01  0.544E-01
  -7.056  0.540E-01  0.540E-01
  -7.046  0.536E-01  0.536E-01
  -7.036  0.531E-01  0.531E-01
  -7.026  0.527E-01  0.527E-01
  -7.016  0.522E-01  0.522E-01
  -7.006  0.517E-01  0.517E-01
  -6.996  0.511E-01  0.511E-01
  -6.986  0.505E-01  0.505E-01
  -6.976  0.499E-01  0.499E-01
  -6.966  0.493E-01  0.493E-01
  -6.956  0.487E-01  0.487E-01
  -6.946  0.480E-01  0.480E-01
  -6.936  0.473E-01  0.473E-01
  -6.926  0.466E-01  0.466E-01
  -6.916  0.458E-01  0.458E-01
  -6.906  0.450E-01  0.450E-01
  -6.896  0.443E-01  0.443E-01
  -6.886  0.435E-01  0.435E-01
  -6.876  0.426E-01  0.426E-01
  -6.866  0.418E-01  0.418E-01
  -6.856  0.409E-01  0.409E-01
  -6.846  0.401E-01  0.401E-01
  -6.836  0.392E-01  0.392E-01
  -6.826  0.383E-01  0.383E-01
  -6.816  0.374E-01  0.374E-01
  -6.806  0.365E-01  0.365E-01
  -6.796  0.356E-01  0.356E-01
  -6.786  0.347E-01  0.347E-01
  -6.776  0.338E-01  0.338E-01
  -6.766  0.329E-01  0.329E-01
  -6.756  0.320E-01  0.320E-01
  -6.746  0.311E-01  0.311E-01
  -6.736  0.302E-01  0.302E-01
  -6.726  0.293E-01  0.293E-01
  -6.716  0.284E-01  0.284E-01
  -6.706  0.275E-01  0.275E-01
  -6.696  0.267E-01  0.267E-01
  -6.686  0.258E-01  0.258E-01
  -6.676  0.250E-01  0.250E-01
  -6.666  0.242E-01  0.242E-01
  -6.656  0.234E-01  0.234E-01
  -6.646  0.227E-01  0.227E-01
  -6.636  0.220E-01  0.220E-01
  -6.626  0.213E-01  0.213E-01
  -6.616  0.206E-01  0.206E-01
  -6.606  0.199E-01  0.199E-01
  -6.596  0.193E-01  0.193E-01
  -6.586  0.188E-01  0.188E-01
  -6.576  0.182E-01  0.182E-01
  -6.566  0.177E-01  0.177E-01
  -6.556  0.173E-01  0.173E-01
  -6.546  0.169E-01  0.169E-01
  -6.536  0.165E-01  0.165E-01
  -6.526  0.162E-01  0.162E-01
  -6.516  0.159E-01  0.159E-01
  -6.506  0.157E-01  0.157E-01
  -6.496  0.155E-01  0.155E-01
  -6.486  0.153E-01  0.153E-01
  -6.476  0.153E-01  0.153E-01
  -6.466  0.152E-01  0.152E-01
  -6.456  0.153E-01  0.153E-01
  -6.446  0.154E-01  0.154E-01
  -6.436  0.155E-01  0.155E-01
  -6.426  0.157E-01  0.157E-01
  -6.416  0.159E-01  0.159E-01
  -6.406  0.162E-01  0.162E-01
  -6.396  0.166E-01  0.166E-01
  -6.386  0.170E-01  0.170E-01
  -6.376  0.175E-01  0.175E-01
  -6.366  0.181E-01  0.181E-01
  -6.356  0.187E-01  0.187E-01
  -6.346  0.193E-01  0.193E-01
  -6.336  0.201E-01  0.201E-01
  -6.326  0.209E-01  0.209E-01
  -6.316  0.217E-01  0.217E-01
  -6.306  0.226E-01  0.226E-01
  -6.296  0.236E-01  0.236E-01
  -6.286  0.246E-01  0.246E-01
  -6.276  0.257E-01  0.257E-01
  -6.266  0.268E-01  0.268E-01
  -6.256  0.280E-01  0.280E-01
  -6.246  0.292E-01  0.292E-01
  -6.236  0.305E-01  0.305E-01
  -6.226  0.319E-01  0.319E-01
  -6.216  0.333E-01  0.333E-01
  -6.206  0.347E-01  0.347E-01
  -6.196  0.362E-01  0.362E-01
  -6.186  0.378E-01  0.378E-01
  -6.176  0.394E-01  0.394E-01
  -6.166  0.410E-01  0.410E-01
  -6.156  0.427E-01  0.427E-01
  -6.146  0.444E-01  0.444E-01
  -6.136  0.462E-01  0.462E-01
  -6.126  0.479E-01  0.479E-01
  -6.116  0.498E-01  0.498E-01
  -6.106  0.516E-01  0.516E-01
  -6.096  0.535E-01  0.535E-01
  -6.086  0.554E-01  0.554E-01
  -6.076  0.574E-01  0.574E-01
  -6.066  0.594E-01  0.594E-01
  -6.056  0.614E-01  0.614E-01
  -6.046  0.634E-01  0.634E-01
  -6.036  0.654E-01  0.654E-01
  -6.026  0.674E-01  0.674E-01
  -6.016  0.695E-01  0.695E-01
  -6.006  0.715E-01  0.715E-01
  -5.996  0.736E-01  0.736E-01
  -5.986  0.757E-01  0.757E-01
  -5.976  0.778E-01  0.778E-01
  -5.966  0.798E-01  0.798E-01
  -5.956  0.819E-01  0.819E-01
  -5.946  0.840E-01  0.840E-01
  -5.936  0.861E-01  0.861E-01
  -5.926  0.881E-01  0.881E-01
  -5.916  0.902E-01  0.902E-01
  -5.906  0.922E-01  0.922E-01
  -5.896  0.942E-01  0.942E-01
  -5.886  0.962E-01  0.962E-01
  -5.876  0.982E-01  0.982E-01
  -5.866  0.100E+00  0.100E+00
  -5.856  0.102E+00  0.102E+00
  -5.846  0.104E+00  0.104E+00
  -5.836  0.106E+00  0.106E+00
  -5.826  0.108E+00  0.108E+00
  -5.816  0.109E+00  0.109E+00
  -5.806  0.111E+00  0.111E+00
  -5.796  0.113E+00  0.113E+00
  -5.786  0.115E+00  0.115E+00
  -5.776  0.116E+00  0.116E+00
  -5.766  0.118E+00  0.118E+00
  -5.756  0.120E+00  0.120E+00
  -5.746  0.121E+00  0.121E+00
  -5.736  0.123E+00  0.123E+00
  -5.726  0.124E+00  0.124E+00
  -5.716  0.126E+00  0.126E+00
  -5.706  0.127E+00  0.127E+00
  -5.696  0.128E+00  0.128E+00
  -5.686  0.130E+00  0.130E+00
  -5.676  0.131E+00  0.131E+00
  -5.666  0.132E+00  0.132E+00
  -5.656  0.133E+00  0.133E+00
  -5.646  0.134E+00  0.134E+00
  -5.636  0.135E+00  0.135E+00
  -5.626  0.137E+00  0.137E+00
  -5.616  0.138E+00  0.138E+00
  -5.606  0.138E+00  0.138E+00
  -5.596  0.139E+00  0.139E+00
  -5.586  0.140E+00  0.140E+00
  -5.576  0.141E+00  0.141E+00
  -5.566  0.142E+00  0.142E+00
  -5.556  0.143E+00  0.143E+00
  -5.546  0.143E+00  0.143E+00
  -5.536  0.144E+00  0.144E+00
  -5.526  0.145E+00  0.145E+00
  -5.516  0.145E+00  0.145E+00
  -5.506  0.146E+00  0.146E+00
  -5.496  0.146E+00  0.146E+00
  -5.486  0.147E+00  0.147E+00
  -5.476  0.147E+00  0.147E+00
  -5.466  0.148E+00  0.148E+00
  -5.456  0.148E+00  0.148E+00
  -5.446  0.148E+00  0.148E+00
  -5.436  0.149E+00  0.149E+00
  -5.426  0.149E+00  0.149E+00
  -5.416  0.149E+00  0.149E+00
  -5.406  0.149E+00  0.149E+00
  -5.396  0.150E+00  0.150E+00
  -5.386  0.150E+00  0.150E+00
  -5.376  0.150E+00  0.150E+00
  -5.366  0.150E+00  0.150E+00
  -5.356  0.150E+00  0.150E+00
  -5.346  0.151E+00  0.151E+00
  -5.336  0.151E+00  0.151E+00
  -5.326  0.151E+00  0.151E+00
  -5.316  0.151E+00  0.151E+00
  -5.306  0.151E+00  0.151E+00
  -5.296  0.151E+00  0.151E+00
  -5.286  0.151E+00  0.151E+00
  -5.276  0.151E+00  0.151E+00
  -5.266  0.151E+00  0.151E+00
  -5.256  0.151E+00  0.151E+00
  -5.246  0.151E+00  0.151E+00
  -5.236  0.151E+00  0.151E+00
  -5.226  0.151E+00  0.151E+00
  -5.216  0.151E+00  0.151E+00
  -5.206  0.151E+00  0.151E+00
  -5.196  0.151E+00  0.151E+00
  -5.186  0.151E+00  0.151E+00
  -5.176  0.151E+00  0.151E+00
  -5.166  0.151E+00  0.151E+00
  -5.156  0.151E+00  0.151E+00
  -5.146  0.151E+00  0.151E+00
  -5.136  0.151E+00  0.151E+00
  -5.126  0.151E+00  0.151E+00
  -5.116  0.151E+00  0.151E+00
  -5.106  0.151E+00  0.151E+00
  -5.096  0.151E+00  0.151E+00
  -5.086  0.151E+00  0.151E+00
  -5.076  0.151E+00  0.151E+00
  -5.066  0.150E+00  0.150E+00
  -5.056  0.150E+00  0.150E+00
  -5.046  0.150E+00  0.150E+00
  -5.036  0.150E+00  0.150E+00
  -5.026  0.150E+00  0.150E+00
  -5.016  0.150E+00  0.150E+00
  -5.006  0.150E+00  0.150E+00
  -4.996  0.149E+00  0.149E+00
  -4.986  0.149E+00  0.149E+00
  -4.976  0.149E+00  0.149E+00
  -4.966  0.149E+00  0.149E+00
  -4.956  0.148E+00  0.148E+00
  -4.946  0.148E+00  0.148E+00
  -4.936  0.148E+00  0.148E+00
  -4.926  0.147E+00  0.147E+00
  -4.916  0.147E+00  0.147E+00
  -4.906  0.147E+00  0.147E+00
  -4.896  0.146E+00  0.146E+00
  -4.886  0.146E+00  0.146E+00
  -4.876  0.145E+00  0.145E+00
  -4.866  0.145E+00  0.145E+00
  -4.856  0.144E+00  0.144E+00
  -4.846  0.144E+00  0.144E+00
  -4.836  0.143E+00  0.143E+00
  -4.826  0.143E+00  0.143E+00
  -4.816  0.142E+00  0.142E+00
  -4.806  0.142E+00  0.142E+00
  -4.796  0.141E+00  0.141E+00
  -4.786  0.140E+00  0.140E+00
  -4.776  0.139E+00  0.139E+00
  -4.766  0.139E+00  0.139E+00
  -4.756  0.138E+00  0.138E+00
  -4.746  0.137E+00  0.137E+00
  -4.736  0.136E+00  0.136E+00
  -4.726  0.135E+00  0.135E+00
  -4.716  0.134E+00  0.134E+00
  -4.706  0.134E+00  0.134E+00
  -4.696  0.133E+00  0.133E+00
  -4.686  0.132E+00  0.132E+00
  -4.676  0.131E+00  0.131E+00
  -4.666  0.129E+00  0.129E+00
  -4.656  0.128E+00  0.128E+00
  -4.646  0.127E+00  0.127E+00
  -4.636  0.126E+00  0.126E+00
  -4.626  0.125E+00  0.125E+00
  -4.616  0.124E+00  0.124E+00
  -4.606  0.123E+00  0.123E+00
  -4.596  0.121E+00  0.121E+00
  -4.586  0.120E+00  0.120E+00
  -4.576  0.119E+00  0.119E+00
  -4.566  0.118E+00  0.118E+00
  -4.556  0.116E+00  0.116E+00
  -4.546  0.115E+00  0.115E+00
  -4.536  0.114E+00  0.114E+00
  -4.526  0.112E+00  0.112E+00
  -4.516  0.111E+00  0.111E+00
  -4.506  0.109E+00  0.109E+00
  -4.496  0.108E+00  0.108E+00
  -4.486  0.107E+00  0.107E+00
  -4.476  0.105E+00  0.105E+00
  -4.466  0.104E+00  0.104E+00
  -4.456  0.102E+00  0.102E+00
  -4.446  0.101E+00  0.101E+00
  -4.436  0.994E-01  0.994E-01
  -4.426  0.980E-01  0.980E-01
  -4.416  0.965E-01  0.965E-01
  -4.406  0.951E-01  0.951E-01
  -4.396  0.937E-01  0.937E-01
  -4.386  0.922E-01  0.922E-01
  -4.376  0.908E-01  0.908E-01
  -4.366  0.894E-01  0.894E-01
  -4.356  0.880E-01  0.880E-01
  -4.346  0.865E-01  0.865E-01
  -4.336  0.852E-01  0.852E-01
  -4.326  0.838E-01  0.838E-01
  -4.316  0.824E-01  0.824E-01
  -4.306  0.811E-01  0.811E-01
  -4.296  0.797E-01  0.797E-01
  -4.286  0.784E-01  0.784E-01
  -4.276  0.771E-01  0.771E-01
  -4.266  0.758E-01  0.758E-01
  -4.256  0.745E-01  0.745E-01
  -4.246  0.733E-01  0.733E-01
  -4.236  0.721E-01  0.721E-01
  -4.226  0.709E-01  0.709E-01
  -4.216  0.697E-01  0.697E-01
  -4.206  0.686E-01  0.686E-01
  -4.196  0.674E-01  0.674E-01
  -4.186  0.663E-01  0.663E-01
  -4.176  0.653E-01  0.653E-01
  -4.166  0.642E-01  0.642E-01
  -4.156  0.632E-01  0.632E-01
  -4.146  0.622E-01  0.622E-01
  -4.136  0.613E-01  0.613E-01
  -4.126  0.603E-01  0.603E-01
  -4.116  0.594E-01  0.594E-01
  -4.106  0.586E-01  0.586E-01
  -4.096  0.577E-01  0.577E-01
  -4.086  0.569E-01  0.569E-01
  -4.076  0.562E-01  0.562E-01
  -4.066  0.554E-01  0.554E-01
  -4.056  0.547E-01  0.547E-01
  -4.046  0.540E-01  0.540E-01
  -4.036  0.534E-01  0.534E-01
  -4.026  0.528E-01  0.528E-01
  -4.016  0.522E-01  0.522E-01
  -4.006  0.516E-01  0.516E-01
  -3.996  0.511E-01  0.511E-01
  -3.986  0.506E-01  0.506E-01
  -3.976  0.501E-01  0.501E-01
  -3.966  0.497E-01  0.497E-01
  -3.956  0.493E-01  0.493E-01
  -3.946  0.490E-01  0.490E-01
  -3.936  0.486E-01  0.486E-01
  -3.926  0.483E-01  0.483E-01
  -3.916  0.481E-01  0.481E-01
  -3.906  0.478E-01  0.478E-01
  -3.896  0.476E-01  0.476E-01
  -3.886  0.474E-01  0.474E-01
  -3.876  0.473E-01  0.473E-01
  -3.866  0.471E-01  0.471E-01
  -3.856  0.470E-01  0.470E-01
  -3.846  0.470E-01  0.470E-01
  -3.836  0.469E-01  0.469E-01
  -3.826  0.469E-01  0.469E-01
  -3.816  0.469E-01  0.469E-01
  -3.806  0.470E-01  0.470E-01
  -3.796  0.470E-01  0.470E-01
  -3.786  0.471E-01  0.471E-01
  -3.776  0.472E-01  0.472E-01
  -3.766  0.474E-01  0.474E-01
  -3.756  0.476E-01  0.476E-01
  -3.746  0.477E-01  0.477E-01
  -3.736  0.479E-01  0.479E-01
  -3.726  0.482E-01  0.482E-01
  -3.716  0.484E-01  0.484E-01
  -3.706  0.487E-01  0.487E-01
  -3.696  0.490E-01  0.490E-01
  -3.686  0.493E-01  0.493E-01
  -3.676  0.497E-01  0.497E-01
  -3.666  0.500E-01  0.500E-01
  -3.656  0.504E-01  0.504E-01
  -3.646  0.508E-01  0.508E-01
  -3.636  0.512E-01  0.512E-01
  -3.626  0.517E-01  0.517E-01
  -3.616  0.521E-01  0.521E-01
  -3.606  0.526E-01  0.526E-01
  -3.596  0.531E-01  0.531E-01
  -3.586  0.536E-01  0.536E-01
  -3.576  0.541E-01  0.541E-01
  -3.566  0.546E-01  0.546E-01
  -3.556  0.552E-01  0.552E-01
  -3.546  0.557E-01  0.557E-01
  -3.536  0.563E-01  0.563E-01
  -3.526  0.569E-01  0.569E-01
  -3.516  0.575E-01  0.575E-01
  -3.506  0.581E-01  0.581E-01
  -3.496  0.587E-01  0.587E-01
  -3.486  0.594E-01  0.594E-01
  -3.476  0.600E-01  0.600E-01
  -3.466  0.607E-01  0.607E-01
  -3.456  0.613E-01  0.613E-01
  -3.446  0.620E-01  0.620E-01
  -3.436  0.627E-01  0.627E-01
  -3.426  0.634E-01  0.634E-01
  -3.416  0.640E-01  0.640E-01
  -3.406  0.647E-01  0.647E-01
  -3.396  0.655E-01  0.655E-01
  -3.386  0.662E-01  0.662E-01
  -3.376  0.669E-01  0.669E-01
  -3.366  0.676E-01  0.676E-01
  -3.356  0.683E-01  0.683E-01
  -3.346  0.690E-01  0.690E-01
  -3.336  0.698E-01  0.698E-01
  -3.326  0.705E-01  0.705E-01
  -3.316  0.712E-01  0.712E-01
  -3.306  0.719E-01  0.719E-01
  -3.296  0.727E-01  0.727E-01
  -3.286  0.734E-01  0.734E-01
  -3.276  0.741E-01  0.741E-01
  -3.266  0.748E-01  0.748E-01
  -3.256  0.755E-01  0.755E-01
  -3.246  0.763E-01  0.763E-01
  -3.236  0.770E-01  0.770E-01
  -3.226  0.777E-01  0.777E-01
  -3.216  0.783E-01  0.783E-01
  -3.206  0.790E-01  0.790E-01
  -3.196  0.797E-01  0.797E-01
  -3.186  0.804E-01  0.804E-01
  -3.176  0.810E-01  0.810E-01
  -3.166  0.817E-01  0.817E-01
  -3.156  0.823E-01  0.823E-01
  -3.146  0.829E-01  0.829E-01
  -3.136  0.835E-01  0.835E-01
  -3.126  0.841E-01  0.841E-01
  -3.116  0.847E-01  0.847E-01
  -3.106  0.853E-01  0.853E-01
  -3.096  0.858E-01  0.858E-01
  -3.086  0.864E-01  0.864E-01
  -3.076  0.869E-01  0.869E-01
  -3.066  0.874E-01  0.874E-01
  -3.056  0.879E-01  0.879E-01
  -3.046  0.883E-01  0.883E-01
  -3.036  0.888E-01  0.888E-01
  -3.026  0.892E-01  0.892E-01
  -3.016  0.896E-01  0.896E-01
  -3.006  0.900E-01  0.900E-01
  -2.996  0.903E-01  0.903E-01
  -2.986  0.907E-01  0.907E-01
  -2.976  0.910E-01  0.910E-01
  -2.966  0.913E-01  0.913E-01
  -2.956  0.915E-01  0.915E-01
  -2.946  0.918E-01  0.918E-01
  -2.936  0.920E-01  0.920E-01
  -2.926  0.922E-01  0.922E-01
  -2.916  0.924E-01  0.924E-01
  -2.906  0.925E-01  0.925E-01
  -2.896  0.926E-01  0.926E-01
  -2.886  0.927E-01  0.927E-01
  -2.876  0.928E-01  0.928E-01
  -2.866  0.929E-01  0.929E-01
  -2.856  0.929E-01  0.929E-01
  -2.846  0.929E-01  0.929E-01
  -2.836  0.929E-01  0.929E-01
  -2.826  0.928E-01  0.928E-01
  -2.816  0.928E-01  0.928E-01
  -2.806  0.927E-01  0.927E-01
  -2.796  0.926E-01  0.926E-01
  -2.786  0.925E-01  0.925E-01
  -2.776  0.923E-01  0.923E-01
  -2.766  0.921E-01  0.921E-01
  -2.756  0.919E-01  0.919E-01
  -2.746  0.917E-01  0.917E-01
  -2.736  0.915E-01  0.915E-01
  -2.726  0.912E-01  0.912E-01
  -2.716  0.909E-01  0.909E-01
  -2.706  0.907E-01  0.907E-01
  -2.696  0.903E-01  0.903E-01
  -2.686  0.900E-01  0.900E-01
  -2.676  0.897E-01  0.897E-01
  -2.666  0.893E-01  0.893E-01
  -2.656  0.890E-01  0.890E-01
  -2.646  0.886E-01  0.886E-01
  -2.636  0.882E-01  0.882E-01
  -2.626  0.878E-01  0.878E-01
  -2.616  0.874E-01  0.874E-01
  -2.606  0.870E-01  0.870E-01
  -2.596  0.865E-01  0.865E-01
  -2.586  0.861E-01  0.861E-01
  -2.576  0.857E-01  0.857E-01
  -2.566  0.852E-01  0.852E-01
  -2.556  0.848E-01  0.848E-01
  -2.546  0.843E-01  0.843E-01
  -2.536  0.839E-01  0.839E-01
  -2.526  0.834E-01  0.834E-01
  -2.516  0.830E-01  0.830E-01
  -2.506  0.825E-01  0.825E-01
  -2.496  0.821E-01  0.821E-01
  -2.486  0.816E-01  0.816E-01
  -2.476  0.812E-01  0.812E-01
  -2.466  0.807E-01  0.807E-01
  -2.456  0.803E-01  0.803E-01
  -2.446  0.799E-01  0.799E-01
  -2.436  0.794E-01  0.794E-01
  -2.426  0.790E-01  0.790E-01
  -2.416  0.786E-01  0.786E-01
  -2.406  0.782E-01  0.782E-01
  -2.396  0.778E-01  0.778E-01
  -2.386  0.774E-01  0.774E-01
  -2.376  0.770E-01  0.770E-01
  -2.366  0.766E-01  0.766E-01
  -2.356  0.763E-01  0.763E-01
  -2.346  0.759E-01  0.759E-01
  -2.336  0.756E-01  0.756E-01
  -2.326  0.753E-01  0.753E-01
  -2.316  0.749E-01  0.749E-01
  -2.306  0.746E-01  0.746E-01
  -2.296  0.743E-01  0.743E-01
  -2.286  0.740E-01  0.740E-01
  -2.276  0.738E-01  0.738E-01
  -2.266  0.735E-01  0.735E-01
  -2.256  0.732E-01  0.732E-01
  -2.246  0.730E-01  0.730E-01
  -2.236  0.727E-01  0.727E-01
  -2.226  0.725E-01  0.725E-01
  -2.216  0.723E-01  0.723E-01
  -2.206  0.720E-01  0.720E-01
  -2.196  0.718E-01  0.718E-01
  -2.186  0.716E-01  0.716E-01
  -2.176  0.714E-01  0.714E-01
  -2.166  0.712E-01  0.712E-01
  -2.156  0.710E-01  0.710E-01
  -2.146  0.709E-01  0.709E-01
  -2.136  0.707E-01  0.707E-01
  -2.126  0.705E-01  0.705E-01
  -2.116  0.703E-01  0.703E-01
  -2.106  0.701E-01  0.701E-01
  -2.096  0.700E-01  0.700E-01
  -2.086  0.698E-01  0.698E-01
  -2.076  0.696E-01  0.696E-01
  -2.066  0.694E-01  0.694E-01
  -2.056  0.692E-01  0.692E-01
  -2.046  0.691E-01  0.691E-01
  -2.036  0.689E-01  0.689E-01
  -2.026  0.687E-01  0.687E-01
  -2.016  0.685E-01  0.685E-01
  -2.006  0.682E-01  0.682E-01
  -1.996  0.680E-01  0.680E-01
  -1.986  0.678E-01  0.678E-01
  -1.976  0.676E-01  0.676E-01
  -1.966  0.673E-01  0.673E-01
  -1.956  0.671E-01  0.671E-01
  -1.946  0.668E-01  0.668E-01
  -1.936  0.665E-01  0.665E-01
  -1.926  0.662E-01  0.662E-01
  -1.916  0.659E-01  0.659E-01
  -1.906  0.656E-01  0.656E-01
  -1.896  0.653E-01  0.653E-01
  -1.886  0.649E-01  0.649E-01
  -1.876  0.646E-01  0.646E-01
  -1.866  0.642E-01  0.642E-01
  -1.856  0.638E-01  0.638E-01
  -1.846  0.634E-01  0.634E-01
  -1.836  0.630E-01  0.630E-01
  -1.826  0.626E-01  0.626E-01
  -1.816  0.622E-01  0.622E-01
  -1.806  0.617E-01  0.617E-01
  -1.796  0.613E-01  0.613E-01
  -1.786  0.608E-01  0.608E-01
  -1.776  0.604E-01  0.604E-01
  -1.766  0.599E-01  0.599E-01
  -1.756  0.594E-01  0.594E-01
  -1.746  0.589E-01  0.589E-01
  -1.736  0.584E-01  0.584E-01
  -1.726  0.578E-01  0.578E-01
  -1.716  0.573E-01  0.573E-01
  -1.706  0.568E-01  0.568E-01
  -1.696  0.562E-01  0.562E-01
  -1.686  0.557E-01  0.557E-01
  -1.676  0.552E-01  0.552E-01
  -1.666  0.546E-01  0.546E-01
  -1.656  0.541E-01  0.541E-01
  -1.646  0.535E-01  0.535E-01
  -1.636  0.530E-01  0.530E-01
  -1.626  0.525E-01  0.525E-01
  -1.616  0.519E-01  0.519E-01
  -1.606  0.514E-01  0.514E-01
  -1.596  0.509E-01  0.509E-01
  -1.586  0.504E-01  0.504E-01
  -1.576  0.499E-01  0.499E-01
  -1.566  0.494E-01  0.494E-01
  -1.556  0.490E-01  0.490E-01
  -1.546  0.485E-01  0.485E-01
  -1.536  0.481E-01  0.481E-01
  -1.526  0.477E-01  0.477E-01
  -1.516  0.473E-01  0.473E-01
  -1.506  0.469E-01  0.469E-01
  -1.496  0.466E-01  0.466E-01
  -1.486  0.463E-01  0.463E-01
  -1.476  0.460E-01  0.460E-01
  -1.466  0.457E-01  0.457E-01
  -1.456  0.455E-01  0.455E-01
  -1.446  0.453E-01  0.453E-01
  -1.436  0.451E-01  0.451E-01
  -1.426  0.450E-01  0.450E-01
  -1.416  0.449E-01  0.449E-01
  -1.406  0.448E-01  0.448E-01
  -1.396  0.448E-01  0.448E-01
  -1.386  0.448E-01  0.448E-01
  -1.376  0.448E-01  0.448E-01
  -1.366  0.449E-01  0.449E-01
  -1.356  0.450E-01  0.450E-01
  -1.346  0.452E-01  0.452E-01
  -1.336  0.454E-01  0.454E-01
  -1.326  0.456E-01  0.456E-01
  -1.316  0.459E-01  0.459E-01
  -1.306  0.462E-01  0.462E-01
  -1.296  0.466E-01  0.466E-01
  -1.286  0.470E-01  0.470E-01
  -1.276  0.475E-01  0.475E-01
  -1.266  0.480E-01  0.480E-01
  -1.256  0.485E-01  0.485E-01
  -1.246  0.491E-01  0.491E-01
  -1.236  0.497E-01  0.497E-01
  -1.226  0.504E-01  0.504E-01
  -1.216  0.511E-01  0.511E-01
  -1.206  0.518E-01  0.518E-01
  -1.196  0.526E-01  0.526E-01
  -1.186  0.534E-01  0.534E-01
  -1.176  0.542E-01  0.542E-01
  -1.166  0.551E-01  0.551E-01
  -1.156  0.560E-01  0.560E-01
  -1.146  0.570E-01  0.570E-01
  -1.136  0.579E-01  0.579E-01
  -1.126  0.589E-01  0.589E-01
  -1.116  0.600E-01  0.600E-01
  -1.106  0.610E-01  0.610E-01
  -1.096  0.621E-01  0.621E-01
  -1.086  0.632E-01  0.632E-01
  -1.076  0.643E-01  0.643E-01
  -1.066  0.654E-01  0.654E-01
  -1.056  0.666E-01  0.666E-01
  -1.046  0.677E-01  0.677E-01
  -1.036  0.689E-01  0.689E-01
  -1.026  0.701E-01  0.701E-01
  -1.016  0.713E-01  0.713E-01
  -1.006  0.725E-01  0.725E-01
  -0.996  0.736E-01  0.736E-01
  -0.986  0.748E-01  0.748E-01
  -0.976  0.760E-01  0.760E-01
  -0.966  0.772E-01  0.772E-01
  -0.956  0.783E-01  0.783E-01
  -0.946  0.795E-01  0.795E-01
  -0.936  0.806E-01  0.806E-01
  -0.926  0.818E-01  0.818E-01
  -0.916  0.829E-01  0.829E-01
  -0.906  0.840E-01  0.840E-01
  -0.896  0.850E-01  0.850E-01
  -0.886  0.861E-01  0.861E-01
  -0.876  0.871E-01  0.871E-01
  -0.866  0.880E-01  0.880E-01
  -0.856  0.890E-01  0.890E-01
  -0.846  0.899E-01  0.899E-01
  -0.836  0.908E-01  0.908E-01
  -0.826  0.916E-01  0.916E-01
  -0.816  0.924E-01  0.924E-01
  -0.806  0.932E-01  0.932E-01
  -0.796  0.939E-01  0.939E-01
  -0.786  0.946E-01  0.946E-01
  -0.776  0.952E-01  0.952E-01
  -0.766  0.958E-01  0.958E-01
  -0.756  0.963E-01  0.963E-01
  -0.746  0.968E-01  0.968E-01
  -0.736  0.972E-01  0.972E-01
  -0.726  0.976E-01  0.976E-01
  -0.716  0.979E-01  0.979E-01
  -0.706  0.982E-01  0.982E-01
  -0.696  0.984E-01  0.984E-01
  -0.686  0.986E-01  0.986E-01
  -0.676  0.987E-01  0.987E-01
  -0.666  0.988E-01  0.988E-01
  -0.656  0.988E-01  0.988E-01
  -0.646  0.988E-01  0.988E-01
  -0.636  0.987E-01  0.987E-01
  -0.626  0.985E-01  0.985E-01
  -0.616  0.983E-01  0.983E-01
  -0.606  0.981E-01  0.981E-01
  -0.596  0.978E-01  0.978E-01
  -0.586  0.974E-01  0.974E-01
  -0.576  0.970E-01  0.970E-01
  -0.566  0.966E-01  0.966E-01
  -0.556  0.961E-01  0.961E-01
  -0.546  0.955E-01  0.955E-01
  -0.536  0.949E-01  0.949E-01
  -0.526  0.943E-01  0.943E-01
  -0.516  0.937E-01  0.937E-01
  -0.506  0.930E-01  0.930E-01
  -0.496  0.922E-01  0.922E-01
  -0.486  0.914E-01  0.914E-01
  -0.476  0.906E-01  0.906E-01
  -0.466  0.898E-01  0.898E-01
  -0.456  0.889E-01  0.889E-01
  -0.446  0.880E-01  0.880E-01
  -0.436  0.871E-01  0.871E-01
  -0.426  0.861E-01  0.861E-01
  -0.416  0.852E-01  0.852E-01
  -0.406  0.842E-01  0.842E-01
  -0.396  0.832E-01  0.832E-01
  -0.386  0.821E-01  0.821E-01
  -0.376  0.811E-01  0.811E-01
  -0.366  0.800E-01  0.800E-01
  -0.356  0.790E-01  0.790E-01
  -0.346  0.779E-01  0.779E-01
  -0.336  0.769E-01  0.769E-01
  -0.326  0.758E-01  0.758E-01
  -0.316  0.747E-01  0.747E-01
  -0.306  0.736E-01  0.736E-01
  -0.296  0.726E-01  0.726E-01
  -0.286  0.715E-01  0.715E-01
  -0.276  0.704E-01  0.704E-01
  -0.266  0.694E-01  0.694E-01
  -0.256  0.683E-01  0.683E-01
  -0.246  0.673E-01  0.673E-01
  -0.236  0.663E-01  0.663E-01
  -0.226  0.653E-01  0.653E-01
  -0.216  0.643E-01  0.643E-01
  -0.206  0.633E-01  0.633E-01
  -0.196  0.624E-01  0.624E-01
  -0.186  0.615E-01  0.615E-01
  -0.176  0.605E-01  0.605E-01
  -0.166  0.597E-01  0.597E-01
  -0.156  0.588E-01  0.588E-01
  -0.146  0.579E-01  0.579E-01
  -0.136  0.571E-01  0.571E-01
  -0.126  0.563E-01  0.563E-01
  -0.116  0.556E-01  0.556E-01
  -0.106  0.548E-01  0.548E-01
  -0.096  0.541E-01  0.541E-01
  -0.086  0.534E-01  0.534E-01
  -0.076  0.527E-01  0.527E-01
  -0.066  0.521E-01  0.521E-01
  -0.056  0.515E-01  0.515E-01
  -0.046  0.509E-01  0.509E-01
  -0.036  0.503E-01  0.503E-01
  -0.026  0.498E-01  0.498E-01
  -0.016  0.493E-01  0.493E-01
  -0.006  0.488E-01  0.488E-01
   0.004  0.484E-01  0.484E-01
   0.014  0.479E-01  0.479E-01
   0.024  0.475E-01  0.475E-01
   0.034  0.472E-01  0.472E-01
   0.044  0.468E-01  0.468E-01
   0.054  0.465E-01  0.465E-01
   0.064  0.461E-01  0.461E-01
   0.074  0.458E-01  0.458E-01
   0.084  0.456E-01  0.456E-01
   0.094  0.453E-01  0.453E-01
   0.104  0.451E-01  0.451E-01
   0.114  0.449E-01  0.449E-01
   0.124  0.447E-01  0.447E-01
   0.134  0.445E-01  0.445E-01
   0.144  0.443E-01  0.443E-01
   0.154  0.442E-01  0.442E-01
   0.164  0.441E-01  0.441E-01
   0.174  0.439E-01  0.439E-01
   0.184  0.438E-01  0.438E-01
   0.194  0.437E-01  0.437E-01
   0.204  0.436E-01  0.436E-01
   0.214  0.436E-01  0.436E-01
   0.224  0.435E-01  0.435E-01
   0.234  0.434E-01  0.434E-01
   0.244  0.434E-01  0.434E-01
   0.254  0.434E-01  0.434E-01
   0.264  0.433E-01  0.433E-01
   0.274  0.433E-01  0.433E-01
   0.284  0.433E-01  0.433E-01
   0.294  0.433E-01  0.433E-01
   0.304  0.433E-01  0.433E-01
   0.314  0.433E-01  0.433E-01
   0.324  0.433E-01  0.433E-01
   0.334  0.433E-01  0.433E-01
   0.344  0.433E-01  0.433E-01
   0.354  0.433E-01  0.433E-01
   0.364  0.433E-01  0.433E-01
   0.374  0.433E-01  0.433E-01
   0.384  0.434E-01  0.434E-01
   0.394  0.434E-01  0.434E-01
   0.404  0.434E-01  0.434E-01
   0.414  0.434E-01  0.434E-01
   0.424  0.435E-01  0.435E-01
   0.434  0.435E-01  0.435E-01
   0.444  0.436E-01  0.436E-01
   0.454  0.436E-01  0.436E-01
   0.464  0.437E-01  0.437E-01
   0.474  0.437E-01  0.437E-01
   0.484  0.438E-01  0.438E-01
   0.494  0.439E-01  0.439E-01
   0.504  0.440E-01  0.440E-01
   0.514  0.440E-01  0.440E-01
   0.524  0.441E-01  0.441E-01
   0.534  0.442E-01  0.442E-01
   0.544  0.443E-01  0.443E-01
   0.554  0.445E-01  0.445E-01
   0.564  0.446E-01  0.446E-01
   0.574  0.447E-01  0.447E-01
   0.584  0.449E-01  0.449E-01
   0.594  0.451E-01  0.451E-01
   0.604  0.452E-01  0.452E-01
   0.614  0.454E-01  0.454E-01
   0.624  0.456E-01  0.456E-01
   0.634  0.458E-01  0.458E-01
   0.644  0.461E-01  0.461E-01
   0.654  0.463E-01  0.463E-01
   0.664  0.466E-01  0.466E-01
   0.674  0.469E-01  0.469E-01
   0.684  0.472E-01  0.472E-01
   0.694  0.475E-01  0.475E-01
   0.704  0.479E-01  0.479E-01
   0.714  0.483E-01  0.483E-01
   0.724  0.486E-01  0.486E-01
   0.734  0.491E-01  0.491E-01
   0.744  0.495E-01  0.495E-01
   0.754  0.500E-01  0.500E-01
   0.764  0.505E-01  0.505E-01
   0.774  0.510E-01  0.510E-01
   0.784  0.515E-01  0.515E-01
   0.794  0.521E-01  0.521E-01
   0.804  0.527E-01  0.527E-01
   0.814  0.533E-01  0.533E-01
   0.824  0.540E-01  0.540E-01
   0.834  0.547E-01  0.547E-01
   0.844  0.554E-01  0.554E-01
   0.854  0.561E-01  0.561E-01
   0.864  0.569E-01  0.569E-01
   0.874  0.577E-01  0.577E-01
   0.884  0.586E-01  0.586E-01
   0.894  0.594E-01  0.594E-01
   0.904  0.603E-01  0.603E-01
   0.914  0.613E-01  0.613E-01
   0.924  0.622E-01  0.622E-01
   0.934  0.633E-01  0.633E-01
   0.944  0.643E-01  0.643E-01
   0.954  0.654E-01  0.654E-01
   0.964  0.665E-01  0.665E-01
   0.974  0.676E-01  0.676E-01
   0.984  0.688E-01  0.688E-01
   0.994  0.700E-01  0.700E-01
   1.004  0.713E-01  0.713E-01
   1.014  0.725E-01  0.725E-01
   1.024  0.739E-01  0.739E-01
   1.034  0.752E-01  0.752E-01
   1.044  0.766E-01  0.766E-01
   1.054  0.780E-01  0.780E-01
   1.064  0.794E-01  0.794E-01
   1.074  0.809E-01  0.809E-01
   1.084  0.824E-01  0.824E-01
   1.094  0.840E-01  0.840E-01
   1.104  0.856E-01  0.856E-01
   1.114  0.872E-01  0.872E-01
   1.124  0.888E-01  0.888E-01
   1.134  0.905E-01  0.905E-01
   1.144  0.922E-01  0.922E-01
   1.154  0.939E-01  0.939E-01
   1.164  0.956E-01  0.956E-01
   1.174  0.974E-01  0.974E-01
   1.184  0.992E-01  0.992E-01
   1.194  0.101E+00  0.101E+00
   1.204  0.103E+00  0.103E+00
   1.214  0.105E+00  0.105E+00
   1.224  0.107E+00  0.107E+00
   1.234  0.109E+00  0.109E+00
   1.244  0.110E+00  0.110E+00
   1.254  0.112E+00  0.112E+00
   1.264  0.114E+00  0.114E+00
   1.274  0.116E+00  0.116E+00
   1.284  0.118E+00  0.118E+00
   1.294  0.120E+00  0.120E+00
   1.304  0.122E+00  0.122E+00
   1.314  0.124E+00  0.124E+00
   1.324  0.126E+00  0.126E+00
   1.334  0.128E+00  0.128E+00
   1.344  0.131E+00  0.131E+00
   1.354  0.133E+00  0.133E+00
   1.364  0.135E+00  0.135E+00
   1.374  0.137E+00  0.137E+00
   1.384  0.139E+00  0.139E+00
   1.394  0.141E+00  0.141E+00
   1.404  0.143E+00  0.143E+00
   1.414  0.145E+00  0.145E+00
   1.424  0.147E+00  0.147E+00
   1.434  0.149E+00  0.149E+00
   1.444  0.151E+00  0.151E+00
   1.454  0.153E+00  0.153E+00
   1.464  0.155E+00  0.155E+00
   1.474  0.157E+00  0.157E+00
   1.484  0.159E+00  0.159E+00
   1.494  0.161E+00  0.161E+00
   1.504  0.163E+00  0.163E+00
   1.514  0.164E+00  0.164E+00
   1.524  0.166E+00  0.166E+00
   1.534  0.168E+00  0.168E+00
   1.544  0.170E+00  0.170E+00
   1.554  0.172E+00  0.172E+00
   1.564  0.173E+00  0.173E+00
   1.574  0.175E+00  0.175E+00
   1.584  0.177E+00  0.177E+00
   1.594  0.178E+00  0.178E+00
   1.604  0.180E+00  0.180E+00
   1.614  0.181E+00  0.181E+00
   1.624  0.183E+00  0.183E+00
   1.634  0.184E+00  0.184E+00
   1.644  0.186E+00  0.186E+00
   1.654  0.187E+00  0.187E+00
   1.664  0.188E+00  0.188E+00
   1.674  0.189E+00  0.189E+00
   1.684  0.190E+00  0.190E+00
   1.694  0.192E+00  0.192E+00
   1.704  0.193E+00  0.193E+00
   1.714  0.194E+00  0.194E+00
   1.724  0.195E+00  0.195E+00
   1.734  0.195E+00  0.195E+00
   1.744  0.196E+00  0.196E+00
   1.754  0.197E+00  0.197E+00
   1.764  0.198E+00  0.198E+00
   1.774  0.198E+00  0.198E+00
   1.784  0.199E+00  0.199E+00
   1.794  0.199E+00  0.199E+00
   1.804  0.200E+00  0.200E+00
   1.814  0.200E+00  0.200E+00
   1.824  0.200E+00  0.200E+00
   1.834  0.201E+00  0.201E+00
   1.844  0.201E+00  0.201E+00
   1.854  0.201E+00  0.201E+00
   1.864  0.201E+00  0.201E+00
   1.874  0.201E+00  0.201E+00
   1.884  0.201E+00  0.201E+00
   1.894  0.201E+00  0.201E+00
   1.904  0.201E+00  0.201E+00
   1.914  0.200E+00  0.200E+00
   1.924  0.200E+00  0.200E+00
   1.934  0.200E+00  0.200E+00
   1.944  0.199E+00  0.199E+00
   1.954  0.199E+00  0.199E+00
   1.964  0.198E+00  0.198E+00
   1.974  0.198E+00  0.198E+00
   1.984  0.197E+00  0.197E+00
   1.994  0.196E+00  0.196E+00
   2.004  0.196E+00  0.196E+00
   2.014  0.195E+00  0.195E+00
   2.024  0.194E+00  0.194E+00
   2.034  0.193E+00  0.193E+00
   2.044  0.192E+00  0.192E+00
   2.054  0.191E+00  0.191E+00
   2.064  0.190E+00  0.190E+00
   2.074  0.189E+00  0.189E+00
   2.084  0.188E+00  0.188E+00
   2.094  0.187E+00  0.187E+00
   2.104  0.186E+00  0.186E+00
   2.114  0.185E+00  0.185E+00
   2.124  0.184E+00  0.184E+00
   2.134  0.183E+00  0.183E+00
   2.144  0.181E+00  0.181E+00
   2.154  0.180E+00  0.180E+00
   2.164  0.179E+00  0.179E+00
   2.174  0.178E+00  0.178E+00
   2.184  0.177E+00  0.177E+00
   2.194  0.175E+00  0.175E+00
   2.204  0.174E+00  0.174E+00
   2.214  0.173E+00  0.173E+00
   2.224  0.172E+00  0.172E+00
   2.234  0.170E+00  0.170E+00
   2.244  0.169E+00  0.169E+00
   2.254  0.168E+00  0.168E+00
   2.264  0.167E+00  0.167E+00
   2.274  0.165E+00  0.165E+00
   2.284  0.164E+00  0.164E+00
   2.294  0.163E+00  0.163E+00
   2.304  0.162E+00  0.162E+00
   2.314  0.161E+00  0.161E+00
   2.324  0.160E+00  0.160E+00
   2.334  0.158E+00  0.158E+00
   2.344  0.157E+00  0.157E+00
   2.354  0.156E+00  0.156E+00
   2.364  0.155E+00  0.155E+00
   2.374  0.154E+00  0.154E+00
   2.384  0.153E+00  0.153E+00
   2.394  0.152E+00  0.152E+00
   2.404  0.151E+00  0.151E+00
   2.414  0.150E+00  0.150E+00
   2.424  0.149E+00  0.149E+00
   2.434  0.149E+00  0.149E+00
   2.444  0.148E+00  0.148E+00
   2.454  0.147E+00  0.147E+00
   2.464  0.146E+00  0.146E+00
   2.474  0.145E+00  0.145E+00
   2.484  0.145E+00  0.145E+00
   2.494  0.144E+00  0.144E+00
   2.504  0.143E+00  0.143E+00
   2.514  0.143E+00  0.143E+00
   2.524  0.142E+00  0.142E+00
   2.534  0.141E+00  0.141E+00
   2.544  0.141E+00  0.141E+00
   2.554  0.140E+00  0.140E+00
   2.564  0.140E+00  0.140E+00
   2.574  0.139E+00  0.139E+00
   2.584  0.139E+00  0.139E+00
   2.594  0.138E+00  0.138E+00
   2.604  0.138E+00  0.138E+00
   2.614  0.137E+00  0.137E+00
   2.624  0.137E+00  0.137E+00
   2.634  0.137E+00  0.137E+00
   2.644  0.136E+00  0.136E+00
   2.654  0.136E+00  0.136E+00
   2.664  0.135E+00  0.135E+00
   2.674  0.135E+00  0.135E+00
   2.684  0.135E+00  0.135E+00
   2.694  0.134E+00  0.134E+00
   2.704  0.134E+00  0.134E+00
   2.714  0.133E+00  0.133E+00
   2.724  0.133E+00  0.133E+00
   2.734  0.132E+00  0.132E+00
   2.744  0.132E+00  0.132E+00
   2.754  0.132E+00  0.132E+00
   2.764  0.131E+00  0.131E+00
   2.774  0.131E+00  0.131E+00
   2.784  0.130E+00  0.130E+00
   2.794  0.130E+00  0.130E+00
   2.804  0.129E+00  0.129E+00
   2.814  0.129E+00  0.129E+00
   2.824  0.128E+00  0.128E+00
   2.834  0.127E+00  0.127E+00
   2.844  0.127E+00  0.127E+00
   2.854  0.126E+00  0.126E+00
   2.864  0.125E+00  0.125E+00
   2.874  0.125E+00  0.125E+00
   2.884  0.124E+00  0.124E+00
   2.894  0.123E+00  0.123E+00
   2.904  0.122E+00  0.122E+00
   2.914  0.122E+00  0.122E+00
   2.924  0.121E+00  0.121E+00
   2.934  0.120E+00  0.120E+00
   2.944  0.119E+00  0.119E+00
   2.954  0.118E+00  0.118E+00
   2.964  0.117E+00  0.117E+00
   2.974  0.116E+00  0.116E+00
   2.984  0.115E+00  0.115E+00
   2.994  0.114E+00  0.114E+00
   3.004  0.112E+00  0.112E+00
   3.014  0.111E+00  0.111E+00
   3.024  0.110E+00  0.110E+00
   3.034  0.109E+00  0.109E+00
   3.044  0.107E+00  0.107E+00
   3.054  0.106E+00  0.106E+00
   3.064  0.105E+00  0.105E+00
   3.074  0.103E+00  0.103E+00
   3.084  0.102E+00  0.102E+00
   3.094  0.100E+00  0.100E+00
   3.104  0.989E-01  0.989E-01
   3.114  0.974E-01  0.974E-01
   3.124  0.958E-01  0.958E-01
   3.134  0.942E-01  0.942E-01
   3.144  0.926E-01  0.926E-01
   3.154  0.909E-01  0.909E-01
   3.164  0.893E-01  0.893E-01
   3.174  0.876E-01  0.876E-01
   3.184  0.859E-01  0.859E-01
   3.194  0.841E-01  0.841E-01
   3.204  0.824E-01  0.824E-01
   3.214  0.806E-01  0.806E-01
   3.224  0.788E-01  0.788E-01
   3.234  0.770E-01  0.770E-01
   3.244  0.752E-01  0.752E-01
   3.254  0.734E-01  0.734E-01
   3.264  0.716E-01  0.716E-01
   3.274  0.698E-01  0.698E-01
   3.284  0.679E-01  0.679E-01
   3.294  0.661E-01  0.661E-01
   3.304  0.642E-01  0.642E-01
   3.314  0.624E-01  0.624E-01
   3.324  0.606E-01  0.606E-01
   3.334  0.588E-01  0.588E-01
   3.344  0.569E-01  0.569E-01
   3.354  0.551E-01  0.551E-01
   3.364  0.533E-01  0.533E-01
   3.374  0.515E-01  0.515E-01
   3.384  0.497E-01  0.497E-01
   3.394  0.480E-01  0.480E-01
   3.404  0.462E-01  0.462E-01
   3.414  0.445E-01  0.445E-01
   3.424  0.428E-01  0.428E-01
   3.434  0.411E-01  0.411E-01
   3.444  0.394E-01  0.394E-01
   3.454  0.378E-01  0.378E-01
   3.464  0.361E-01  0.361E-01
   3.474  0.345E-01  0.345E-01
   3.484  0.330E-01  0.330E-01
   3.494  0.314E-01  0.314E-01
   3.504  0.299E-01  0.299E-01
   3.514  0.284E-01  0.284E-01
   3.524  0.270E-01  0.270E-01
   3.534  0.255E-01  0.255E-01
   3.544  0.241E-01  0.241E-01
   3.554  0.228E-01  0.228E-01
   3.564  0.214E-01  0.214E-01
   3.574  0.201E-01  0.201E-01
   3.584  0.189E-01  0.189E-01
   3.594  0.177E-01  0.177E-01
   3.604  0.165E-01  0.165E-01
   3.614  0.153E-01  0.153E-01
   3.624  0.142E-01  0.142E-01
   3.634  0.131E-01  0.131E-01
   3.644  0.120E-01  0.120E-01
   3.654  0.110E-01  0.110E-01
   3.664  0.100E-01  0.100E-01
   3.674  0.907E-02  0.907E-02
   3.684  0.815E-02  0.815E-02
   3.694  0.727E-02  0.727E-02
   3.704  0.643E-02  0.643E-02
   3.714  0.561E-02  0.561E-02
   3.724  0.484E-02  0.484E-02
   3.734  0.409E-02  0.409E-02
   3.744  0.338E-02  0.338E-02
   3.754  0.270E-02  0.270E-02
   3.764  0.206E-02  0.206E-02
   3.774  0.144E-02  0.144E-02
   3.784  0.861E-03  0.861E-03
   3.794  0.309E-03  0.309E-03
   3.804 -0.213E-03 -0.213E-03
   3.814 -0.705E-03 -0.705E-03
   3.824 -0.117E-02 -0.117E-02
   3.834 -0.160E-02 -0.160E-02
   3.844 -0.201E-02 -0.201E-02
   3.854 -0.239E-02 -0.239E-02
   3.864 -0.275E-02 -0.275E-02
   3.874 -0.308E-02 -0.308E-02
   3.884 -0.339E-02 -0.339E-02
   3.894 -0.367E-02 -0.367E-02
   3.904 -0.393E-02 -0.393E-02
   3.914 -0.417E-02 -0.417E-02
   3.924 -0.438E-02 -0.438E-02
   3.934 -0.458E-02 -0.458E-02
   3.944 -0.475E-02 -0.475E-02
   3.954 -0.491E-02 -0.491E-02
   3.964 -0.505E-02 -0.505E-02
   3.974 -0.517E-02 -0.517E-02
   3.984 -0.527E-02 -0.527E-02
   3.994 -0.536E-02 -0.536E-02
   4.004 -0.543E-02 -0.543E-02
   4.014 -0.549E-02 -0.549E-02
   4.024 -0.553E-02 -0.553E-02
   4.034 -0.557E-02 -0.557E-02
   4.044 -0.558E-02 -0.558E-02
   4.054 -0.559E-02 -0.559E-02
   4.064 -0.559E-02 -0.559E-02
   4.074 -0.557E-02 -0.557E-02
   4.084 -0.555E-02 -0.555E-02
   4.094 -0.552E-02 -0.552E-02
   4.104 -0.548E-02 -0.548E-02
   4.114 -0.543E-02 -0.543E-02
   4.124 -0.537E-02 -0.537E-02
   4.134 -0.531E-02 -0.531E-02
   4.144 -0.524E-02 -0.524E-02
   4.154 -0.517E-02 -0.517E-02
   4.164 -0.509E-02 -0.509E-02
   4.174 -0.501E-02 -0.501E-02
   4.184 -0.492E-02 -0.492E-02
   4.194 -0.483E-02 -0.483E-02
   4.204 -0.473E-02 -0.473E-02
   4.214 -0.463E-02 -0.463E-02
   4.224 -0.453E-02 -0.453E-02
   4.234 -0.443E-02 -0.443E-02
   4.244 -0.433E-02 -0.433E-02
   4.254 -0.422E-02 -0.422E-02
   4.264 -0.411E-02 -0.411E-02
   4.274 -0.401E-02 -0.401E-02
   4.284 -0.390E-02 -0.390E-02
   4.294 -0.379E-02 -0.379E-02
   4.304 -0.368E-02 -0.368E-02
   4.314 -0.358E-02 -0.358E-02
   4.324 -0.347E-02 -0.347E-02
   4.334 -0.336E-02 -0.336E-02
   4.344 -0.325E-02 -0.325E-02
   4.354 -0.315E-02 -0.315E-02
   4.364 -0.305E-02 -0.305E-02
   4.374 -0.294E-02 -0.294E-02
   4.384 -0.284E-02 -0.284E-02
   4.394 -0.274E-02 -0.274E-02
   4.404 -0.264E-02 -0.264E-02
   4.414 -0.255E-02 -0.255E-02
   4.424 -0.245E-02 -0.245E-02
   4.434 -0.236E-02 -0.236E-02
   4.444 -0.227E-02 -0.227E-02
   4.454 -0.218E-02 -0.218E-02
   4.464 -0.210E-02 -0.210E-02
   4.474 -0.201E-02 -0.201E-02
   4.484 -0.193E-02 -0.193E-02
   4.494 -0.185E-02 -0.185E-02
   4.504 -0.177E-02 -0.177E-02
   4.514 -0.170E-02 -0.170E-02
   4.524 -0.162E-02 -0.162E-02
   4.534 -0.155E-02 -0.155E-02
   4.544 -0.148E-02 -0.148E-02
   4.554 -0.142E-02 -0.142E-02
   4.564 -0.135E-02 -0.135E-02
   4.574 -0.129E-02 -0.129E-02
   4.584 -0.123E-02 -0.123E-02
   4.594 -0.117E-02 -0.117E-02
   4.604 -0.112E-02 -0.112E-02
   4.614 -0.106E-02 -0.106E-02
   4.624 -0.101E-02 -0.101E-02
   4.634 -0.962E-03 -0.962E-03
   4.644 -0.914E-03 -0.914E-03
   4.654 -0.868E-03 -0.868E-03
   4.664 -0.824E-03 -0.824E-03
   4.674 -0.782E-03 -0.782E-03
   4.684 -0.741E-03 -0.741E-03
   4.694 -0.702E-03 -0.702E-03
   4.704 -0.665E-03 -0.665E-03
   4.714 -0.630E-03 -0.630E-03
   4.724 -0.596E-03 -0.596E-03
   4.734 -0.564E-03 -0.564E-03
   4.744 -0.533E-03 -0.533E-03
   4.754 -0.503E-03 -0.503E-03
   4.764 -0.475E-03 -0.475E-03
   4.774 -0.448E-03 -0.448E-03
   4.784 -0.423E-03 -0.423E-03
   4.794 -0.399E-03 -0.399E-03
   4.804 -0.376E-03 -0.376E-03
   4.814 -0.354E-03 -0.354E-03
   4.824 -0.333E-03 -0.333E-03
   4.834 -0.313E-03 -0.313E-03
   4.844 -0.295E-03 -0.295E-03
   4.854 -0.277E-03 -0.277E-03
   4.864 -0.260E-03 -0.260E-03
   4.874 -0.244E-03 -0.244E-03
   4.884 -0.229E-03 -0.229E-03
   4.894 -0.215E-03 -0.215E-03
   4.904 -0.202E-03 -0.202E-03
   4.914 -0.189E-03 -0.189E-03
   4.924 -0.177E-03 -0.177E-03
   4.934 -0.166E-03 -0.166E-03
   4.944 -0.155E-03 -0.155E-03
   4.954 -0.145E-03 -0.145E-03
   4.964 -0.135E-03 -0.135E-03
   4.974 -0.127E-03 -0.127E-03
   4.984 -0.118E-03 -0.118E-03
   4.994 -0.110E-03 -0.110E-03
   5.004 -0.103E-03 -0.103E-03
   5.014 -0.960E-04 -0.960E-04
   5.024 -0.895E-04 -0.895E-04
   5.034 -0.833E-04 -0.833E-04
   5.044 -0.776E-04 -0.776E-04
   5.054 -0.722E-04 -0.722E-04
   5.064 -0.672E-04 -0.672E-04
   5.074 -0.625E-04 -0.625E-04
   5.084 -0.581E-04 -0.581E-04
   5.094 -0.539E-04 -0.539E-04
   5.104 -0.501E-04 -0.501E-04
   5.114 -0.465E-04 -0.465E-04
   5.124 -0.431E-04 -0.431E-04
   5.134 -0.400E-04 -0.400E-04
   5.144 -0.370E-04 -0.370E-04
   5.154 -0.343E-04 -0.343E-04
   5.164 -0.318E-04 -0.318E-04
   5.174 -0.294E-04 -0.294E-04
   5.184 -0.272E-04 -0.272E-04
   5.194 -0.251E-04 -0.251E-04
   5.204 -0.232E-04 -0.232E-04
   5.214 -0.215E-04 -0.215E-04
   5.224 -0.198E-04 -0.198E-04
   5.234 -0.183E-04 -0.183E-04
   5.244 -0.169E-04 -0.169E-04
   5.254 -0.155E-04 -0.155E-04
   5.264 -0.143E-04 -0.143E-04
   5.274 -0.132E-04 -0.132E-04
   5.284 -0.121E-04 -0.121E-04
   5.294 -0.112E-04 -0.112E-04
