# E (eV)   ldos(E)   pdos(E)   
 -27.116 -0.265E-08 -0.265E-08
 -27.106 -0.286E-08 -0.286E-08
 -27.096 -0.308E-08 -0.308E-08
 -27.086 -0.332E-08 -0.332E-08
 -27.076 -0.358E-08 -0.358E-08
 -27.066 -0.386E-08 -0.386E-08
 -27.056 -0.415E-08 -0.415E-08
 -27.046 -0.447E-08 -0.447E-08
 -27.036 -0.480E-08 -0.480E-08
 -27.026 -0.516E-08 -0.516E-08
 -27.016 -0.554E-08 -0.554E-08
 -27.006 -0.595E-08 -0.595E-08
 -26.996 -0.638E-08 -0.638E-08
 -26.986 -0.685E-08 -0.685E-08
 -26.976 -0.734E-08 -0.734E-08
 -26.966 -0.786E-08 -0.786E-08
 -26.956 -0.842E-08 -0.842E-08
 -26.946 -0.901E-08 -0.901E-08
 -26.936 -0.963E-08 -0.963E-08
 -26.926 -0.103E-07 -0.103E-07
 -26.916 -0.110E-07 -0.110E-07
 -26.906 -0.118E-07 -0.118E-07
 -26.896 -0.125E-07 -0.125E-07
 -26.886 -0.134E-07 -0.134E-07
 -26.876 -0.143E-07 -0.143E-07
 -26.866 -0.152E-07 -0.152E-07
 -26.856 -0.162E-07 -0.162E-07
 -26.846 -0.172E-07 -0.172E-07
 -26.836 -0.183E-07 -0.183E-07
 -26.826 -0.195E-07 -0.195E-07
 -26.816 -0.207E-07 -0.207E-07
 -26.806 -0.220E-07 -0.220E-07
 -26.796 -0.233E-07 -0.233E-07
 -26.786 -0.247E-07 -0.247E-07
 -26.776 -0.262E-07 -0.262E-07
 -26.766 -0.278E-07 -0.278E-07
 -26.756 -0.294E-07 -0.294E-07
 -26.746 -0.311E-07 -0.311E-07
 -26.736 -0.329E-07 -0.329E-07
 -26.726 -0.348E-07 -0.348E-07
 -26.716 -0.367E-07 -0.367E-07
 -26.706 -0.388E-07 -0.388E-07
 -26.696 -0.409E-07 -0.409E-07
 -26.686 -0.432E-07 -0.432E-07
 -26.676 -0.455E-07 -0.455E-07
 -26.666 -0.479E-07 -0.479E-07
 -26.656 -0.504E-07 -0.504E-07
 -26.646 -0.530E-07 -0.530E-07
 -26.636 -0.557E-07 -0.557E-07
 -26.626 -0.585E-07 -0.585E-07
 -26.616 -0.614E-07 -0.614E-07
 -26.606 -0.645E-07 -0.645E-07
 -26.596 -0.676E-07 -0.676E-07
 -26.586 -0.708E-07 -0.708E-07
 -26.576 -0.741E-07 -0.741E-07
 -26.566 -0.776E-07 -0.776E-07
 -26.556 -0.811E-07 -0.811E-07
 -26.546 -0.847E-07 -0.847E-07
 -26.536 -0.885E-07 -0.885E-07
 -26.526 -0.923E-07 -0.923E-07
 -26.516 -0.963E-07 -0.963E-07
 -26.506 -0.100E-06 -0.100E-06
 -26.496 -0.104E-06 -0.104E-06
 -26.486 -0.109E-06 -0.109E-06
 -26.476 -0.113E-06 -0.113E-06
 -26.466 -0.117E-06 -0.117E-06
 -26.456 -0.122E-06 -0.122E-06
 -26.446 -0.126E-06 -0.126E-06
 -26.436 -0.131E-06 -0.131E-06
 -26.426 -0.136E-06 -0.136E-06
 -26.416 -0.140E-06 -0.140E-06
 -26.406 -0.145E-06 -0.145E-06
 -26.396 -0.150E-06 -0.150E-06
 -26.386 -0.155E-06 -0.155E-06
 -26.376 -0.159E-06 -0.159E-06
 -26.366 -0.164E-06 -0.164E-06
 -26.356 -0.169E-06 -0.169E-06
 -26.346 -0.174E-06 -0.174E-06
 -26.336 -0.178E-06 -0.178E-06
 -26.326 -0.183E-06 -0.183E-06
 -26.316 -0.188E-06 -0.188E-06
 -26.306 -0.192E-06 -0.192E-06
 -26.296 -0.197E-06 -0.197E-06
 -26.286 -0.201E-06 -0.201E-06
 -26.276 -0.205E-06 -0.205E-06
 -26.266 -0.209E-06 -0.209E-06
 -26.256 -0.213E-06 -0.213E-06
 -26.246 -0.216E-06 -0.216E-06
 -26.236 -0.220E-06 -0.220E-06
 -26.226 -0.223E-06 -0.223E-06
 -26.216 -0.226E-06 -0.226E-06
 -26.206 -0.228E-06 -0.228E-06
 -26.196 -0.230E-06 -0.230E-06
 -26.186 -0.232E-06 -0.232E-06
 -26.176 -0.233E-06 -0.233E-06
 -26.166 -0.234E-06 -0.234E-06
 -26.156 -0.235E-06 -0.235E-06
 -26.146 -0.235E-06 -0.235E-06
 -26.136 -0.234E-06 -0.234E-06
 -26.126 -0.233E-06 -0.233E-06
 -26.116 -0.232E-06 -0.232E-06
 -26.106 -0.229E-06 -0.229E-06
 -26.096 -0.226E-06 -0.226E-06
 -26.086 -0.223E-06 -0.223E-06
 -26.076 -0.218E-06 -0.218E-06
 -26.066 -0.213E-06 -0.213E-06
 -26.056 -0.207E-06 -0.207E-06
 -26.046 -0.201E-06 -0.201E-06
 -26.036 -0.193E-06 -0.193E-06
 -26.026 -0.184E-06 -0.184E-06
 -26.016 -0.175E-06 -0.175E-06
 -26.006 -0.164E-06 -0.164E-06
 -25.996 -0.152E-06 -0.152E-06
 -25.986 -0.140E-06 -0.140E-06
 -25.976 -0.126E-06 -0.126E-06
 -25.966 -0.111E-06 -0.111E-06
 -25.956 -0.947E-07 -0.947E-07
 -25.946 -0.773E-07 -0.773E-07
 -25.936 -0.587E-07 -0.587E-07
 -25.926 -0.387E-07 -0.387E-07
 -25.916 -0.174E-07 -0.174E-07
 -25.906  0.517E-08  0.517E-08
 -25.896  0.292E-07  0.292E-07
 -25.886  0.546E-07  0.546E-07
 -25.876  0.815E-07  0.815E-07
 -25.866  0.110E-06  0.110E-06
 -25.856  0.140E-06  0.140E-06
 -25.846  0.171E-06  0.171E-06
 -25.836  0.204E-06  0.204E-06
 -25.826  0.238E-06  0.238E-06
 -25.816  0.274E-06  0.274E-06
 -25.806  0.312E-06  0.312E-06
 -25.796  0.351E-06  0.351E-06
 -25.786  0.392E-06  0.392E-06
 -25.776  0.434E-06  0.434E-06
 -25.766  0.478E-06  0.478E-06
 -25.756  0.524E-06  0.524E-06
 -25.746  0.571E-06  0.571E-06
 -25.736  0.619E-06  0.619E-06
 -25.726  0.670E-06  0.670E-06
 -25.716  0.722E-06  0.722E-06
 -25.706  0.775E-06  0.775E-06
 -25.696  0.830E-06  0.830E-06
 -25.686  0.886E-06  0.886E-06
 -25.676  0.944E-06  0.944E-06
 -25.666  0.100E-05  0.100E-05
 -25.656  0.106E-05  0.106E-05
 -25.646  0.113E-05  0.113E-05
 -25.636  0.119E-05  0.119E-05
 -25.626  0.125E-05  0.125E-05
 -25.616  0.132E-05  0.132E-05
 -25.606  0.139E-05  0.139E-05
 -25.596  0.146E-05  0.146E-05
 -25.586  0.152E-05  0.152E-05
 -25.576  0.159E-05  0.159E-05
 -25.566  0.167E-05  0.167E-05
 -25.556  0.174E-05  0.174E-05
 -25.546  0.181E-05  0.181E-05
 -25.536  0.188E-05  0.188E-05
 -25.526  0.196E-05  0.196E-05
 -25.516  0.203E-05  0.203E-05
 -25.506  0.211E-05  0.211E-05
 -25.496  0.218E-05  0.218E-05
 -25.486  0.226E-05  0.226E-05
 -25.476  0.233E-05  0.233E-05
 -25.466  0.241E-05  0.241E-05
 -25.456  0.248E-05  0.248E-05
 -25.446  0.256E-05  0.256E-05
 -25.436  0.263E-05  0.263E-05
 -25.426  0.271E-05  0.271E-05
 -25.416  0.278E-05  0.278E-05
 -25.406  0.285E-05  0.285E-05
 -25.396  0.293E-05  0.293E-05
 -25.386  0.300E-05  0.300E-05
 -25.376  0.307E-05  0.307E-05
 -25.366  0.314E-05  0.314E-05
 -25.356  0.321E-05  0.321E-05
 -25.346  0.328E-05  0.328E-05
 -25.336  0.334E-05  0.334E-05
 -25.326  0.341E-05  0.341E-05
 -25.316  0.347E-05  0.347E-05
 -25.306  0.353E-05  0.353E-05
 -25.296  0.359E-05  0.359E-05
 -25.286  0.365E-05  0.365E-05
 -25.276  0.371E-05  0.371E-05
 -25.266  0.376E-05  0.376E-05
 -25.256  0.381E-05  0.381E-05
 -25.246  0.386E-05  0.386E-05
 -25.236  0.391E-05  0.391E-05
 -25.226  0.395E-05  0.395E-05
 -25.216  0.400E-05  0.400E-05
 -25.206  0.404E-05  0.404E-05
 -25.196  0.407E-05  0.407E-05
 -25.186  0.411E-05  0.411E-05
 -25.176  0.414E-05  0.414E-05
 -25.166  0.417E-05  0.417E-05
 -25.156  0.419E-05  0.419E-05
 -25.146  0.422E-05  0.422E-05
 -25.136  0.424E-05  0.424E-05
 -25.126  0.425E-05  0.425E-05
 -25.116  0.427E-05  0.427E-05
 -25.106  0.428E-05  0.428E-05
 -25.096  0.429E-05  0.429E-05
 -25.086  0.429E-05  0.429E-05
 -25.076  0.429E-05  0.429E-05
 -25.066  0.429E-05  0.429E-05
 -25.056  0.429E-05  0.429E-05
 -25.046  0.428E-05  0.428E-05
 -25.036  0.427E-05  0.427E-05
 -25.026  0.426E-05  0.426E-05
 -25.016  0.424E-05  0.424E-05
 -25.006  0.422E-05  0.422E-05
 -24.996  0.420E-05  0.420E-05
 -24.986  0.417E-05  0.417E-05
 -24.976  0.414E-05  0.414E-05
 -24.966  0.411E-05  0.411E-05
 -24.956  0.408E-05  0.408E-05
 -24.946  0.404E-05  0.404E-05
 -24.936  0.400E-05  0.400E-05
 -24.926  0.396E-05  0.396E-05
 -24.916  0.392E-05  0.392E-05
 -24.906  0.387E-05  0.387E-05
 -24.896  0.382E-05  0.382E-05
 -24.886  0.377E-05  0.377E-05
 -24.876  0.372E-05  0.372E-05
 -24.866  0.366E-05  0.366E-05
 -24.856  0.360E-05  0.360E-05
 -24.846  0.354E-05  0.354E-05
 -24.836  0.348E-05  0.348E-05
 -24.826  0.342E-05  0.342E-05
 -24.816  0.336E-05  0.336E-05
 -24.806  0.329E-05  0.329E-05
 -24.796  0.322E-05  0.322E-05
 -24.786  0.315E-05  0.315E-05
 -24.776  0.308E-05  0.308E-05
 -24.766  0.301E-05  0.301E-05
 -24.756  0.294E-05  0.294E-05
 -24.746  0.287E-05  0.287E-05
 -24.736  0.279E-05  0.279E-05
 -24.726  0.272E-05  0.272E-05
 -24.716  0.265E-05  0.265E-05
 -24.706  0.257E-05  0.257E-05
 -24.696  0.250E-05  0.250E-05
 -24.686  0.242E-05  0.242E-05
 -24.676  0.235E-05  0.235E-05
 -24.666  0.227E-05  0.227E-05
 -24.656  0.219E-05  0.219E-05
 -24.646  0.212E-05  0.212E-05
 -24.636  0.205E-05  0.205E-05
 -24.626  0.197E-05  0.197E-05
 -24.616  0.190E-05  0.190E-05
 -24.606  0.182E-05  0.182E-05
 -24.596  0.175E-05  0.175E-05
 -24.586  0.168E-05  0.168E-05
 -24.576  0.161E-05  0.161E-05
 -24.566  0.154E-05  0.154E-05
 -24.556  0.147E-05  0.147E-05
 -24.546  0.140E-05  0.140E-05
 -24.536  0.133E-05  0.133E-05
 -24.526  0.127E-05  0.127E-05
 -24.516  0.120E-05  0.120E-05
 -24.506  0.114E-05  0.114E-05
 -24.496  0.108E-05  0.108E-05
 -24.486  0.101E-05  0.101E-05
 -24.476  0.955E-06  0.955E-06
 -24.466  0.897E-06  0.897E-06
 -24.456  0.840E-06  0.840E-06
 -24.446  0.785E-06  0.785E-06
 -24.436  0.731E-06  0.731E-06
 -24.426  0.679E-06  0.679E-06
 -24.416  0.629E-06  0.629E-06
 -24.406  0.580E-06  0.580E-06
 -24.396  0.532E-06  0.532E-06
 -24.386  0.486E-06  0.486E-06
 -24.376  0.442E-06  0.442E-06
 -24.366  0.400E-06  0.400E-06
 -24.356  0.359E-06  0.359E-06
 -24.346  0.319E-06  0.319E-06
 -24.336  0.281E-06  0.281E-06
 -24.326  0.245E-06  0.245E-06
 -24.316  0.210E-06  0.210E-06
 -24.306  0.177E-06  0.177E-06
 -24.296  0.145E-06  0.145E-06
 -24.286  0.115E-06  0.115E-06
 -24.276  0.867E-07  0.867E-07
 -24.266  0.596E-07  0.596E-07
 -24.256  0.339E-07  0.339E-07
 -24.246  0.959E-08  0.959E-08
 -24.236 -0.133E-07 -0.133E-07
 -24.226 -0.348E-07 -0.348E-07
 -24.216 -0.550E-07 -0.550E-07
 -24.206 -0.739E-07 -0.739E-07
 -24.196 -0.915E-07 -0.915E-07
 -24.186 -0.108E-06 -0.108E-06
 -24.176 -0.123E-06 -0.123E-06
 -24.166 -0.137E-06 -0.137E-06
 -24.156 -0.150E-06 -0.150E-06
 -24.146 -0.162E-06 -0.162E-06
 -24.136 -0.173E-06 -0.173E-06
 -24.126 -0.182E-06 -0.182E-06
 -24.116 -0.191E-06 -0.191E-06
 -24.106 -0.199E-06 -0.199E-06
 -24.096 -0.206E-06 -0.206E-06
 -24.086 -0.212E-06 -0.212E-06
 -24.076 -0.218E-06 -0.218E-06
 -24.066 -0.222E-06 -0.222E-06
 -24.056 -0.226E-06 -0.226E-06
 -24.046 -0.229E-06 -0.229E-06
 -24.036 -0.231E-06 -0.231E-06
 -24.026 -0.233E-06 -0.233E-06
 -24.016 -0.234E-06 -0.234E-06
 -24.006 -0.235E-06 -0.235E-06
 -23.996 -0.235E-06 -0.235E-06
 -23.986 -0.235E-06 -0.235E-06
 -23.976 -0.234E-06 -0.234E-06
 -23.966 -0.232E-06 -0.232E-06
 -23.956 -0.231E-06 -0.231E-06
 -23.946 -0.229E-06 -0.229E-06
 -23.936 -0.226E-06 -0.226E-06
 -23.926 -0.223E-06 -0.223E-06
 -23.916 -0.220E-06 -0.220E-06
 -23.906 -0.217E-06 -0.217E-06
 -23.896 -0.214E-06 -0.214E-06
 -23.886 -0.210E-06 -0.210E-06
 -23.876 -0.206E-06 -0.206E-06
 -23.866 -0.202E-06 -0.202E-06
 -23.856 -0.197E-06 -0.197E-06
 -23.846 -0.193E-06 -0.193E-06
 -23.836 -0.189E-06 -0.189E-06
 -23.826 -0.184E-06 -0.184E-06
 -23.816 -0.179E-06 -0.179E-06
 -23.806 -0.175E-06 -0.175E-06
 -23.796 -0.170E-06 -0.170E-06
 -23.786 -0.165E-06 -0.165E-06
 -23.776 -0.160E-06 -0.160E-06
 -23.766 -0.155E-06 -0.155E-06
 -23.756 -0.151E-06 -0.151E-06
 -23.746 -0.146E-06 -0.146E-06
 -23.736 -0.141E-06 -0.141E-06
 -23.726 -0.136E-06 -0.136E-06
 -23.716 -0.132E-06 -0.132E-06
 -23.706 -0.127E-06 -0.127E-06
 -23.696 -0.123E-06 -0.123E-06
 -23.686 -0.118E-06 -0.118E-06
 -23.676 -0.114E-06 -0.114E-06
 -23.666 -0.109E-06 -0.109E-06
 -23.656 -0.105E-06 -0.105E-06
 -23.646 -0.101E-06 -0.101E-06
 -23.636 -0.970E-07 -0.970E-07
 -23.626 -0.931E-07 -0.931E-07
 -23.616 -0.892E-07 -0.892E-07
 -23.606 -0.854E-07 -0.854E-07
 -23.596 -0.818E-07 -0.818E-07
 -23.586 -0.782E-07 -0.782E-07
 -23.576 -0.748E-07 -0.748E-07
 -23.566 -0.714E-07 -0.714E-07
 -23.556 -0.682E-07 -0.682E-07
 -23.546 -0.650E-07 -0.650E-07
 -23.536 -0.620E-07 -0.620E-07
 -23.526 -0.591E-07 -0.591E-07
 -23.516 -0.562E-07 -0.562E-07
 -23.506 -0.535E-07 -0.535E-07
 -23.496 -0.509E-07 -0.509E-07
 -23.486 -0.484E-07 -0.484E-07
 -23.476 -0.459E-07 -0.459E-07
 -23.466 -0.436E-07 -0.436E-07
 -23.456 -0.413E-07 -0.413E-07
 -23.446 -0.392E-07 -0.392E-07
 -23.436 -0.371E-07 -0.371E-07
 -23.426 -0.352E-07 -0.352E-07
 -23.416 -0.333E-07 -0.333E-07
 -23.406 -0.315E-07 -0.315E-07
 -23.396 -0.297E-07 -0.297E-07
 -23.386 -0.281E-07 -0.281E-07
 -23.376 -0.265E-07 -0.265E-07
 -23.366 -0.250E-07 -0.250E-07
 -23.356 -0.236E-07 -0.236E-07
 -23.346 -0.222E-07 -0.222E-07
 -23.336 -0.209E-07 -0.209E-07
 -23.326 -0.197E-07 -0.197E-07
 -23.316 -0.185E-07 -0.185E-07
 -23.306 -0.174E-07 -0.174E-07
 -23.296 -0.164E-07 -0.164E-07
 -23.286 -0.154E-07 -0.154E-07
 -23.276 -0.144E-07 -0.144E-07
 -23.266 -0.135E-07 -0.135E-07
 -23.256 -0.127E-07 -0.127E-07
 -23.246 -0.119E-07 -0.119E-07
 -23.236 -0.111E-07 -0.111E-07
 -23.226 -0.104E-07 -0.104E-07
 -23.216 -0.976E-08 -0.976E-08
 -23.206 -0.912E-08 -0.912E-08
 -23.196 -0.853E-08 -0.853E-08
 -23.186 -0.796E-08 -0.796E-08
 -23.176 -0.744E-08 -0.744E-08
 -23.166 -0.694E-08 -0.694E-08
 -23.156 -0.647E-08 -0.647E-08
 -23.146 -0.603E-08 -0.603E-08
 -23.136 -0.562E-08 -0.562E-08
 -23.126 -0.523E-08 -0.523E-08
 -23.116 -0.487E-08 -0.487E-08
 -23.106 -0.453E-08 -0.453E-08
 -23.096 -0.421E-08 -0.421E-08
 -23.086 -0.391E-08 -0.391E-08
 -23.076 -0.363E-08 -0.363E-08
 -23.066 -0.337E-08 -0.337E-08
 -23.056 -0.313E-08 -0.313E-08
 -23.046 -0.290E-08 -0.290E-08
 -23.036 -0.269E-08 -0.269E-08
 -23.026 -0.249E-08 -0.249E-08
 -23.016 -0.231E-08 -0.231E-08
 -23.006 -0.213E-08 -0.213E-08
 -22.996 -0.197E-08 -0.197E-08
 -22.986 -0.182E-08 -0.182E-08
 -22.976 -0.169E-08 -0.169E-08
 -22.966 -0.156E-08 -0.156E-08
 -22.956 -0.144E-08 -0.144E-08
 -22.946 -0.133E-08 -0.133E-08
 -22.936 -0.123E-08 -0.123E-08
 -22.926 -0.113E-08 -0.113E-08
 -22.916 -0.104E-08 -0.104E-08
 -22.906 -0.960E-09 -0.960E-09
 -22.896 -0.885E-09 -0.885E-09
 -22.886 -0.815E-09 -0.815E-09
 -22.876 -0.751E-09 -0.751E-09
 -22.866 -0.691E-09 -0.691E-09
 -22.856 -0.637E-09 -0.637E-09
 -22.846 -0.586E-09 -0.586E-09
 -22.836 -0.540E-09 -0.540E-09
 -22.826 -0.498E-09 -0.498E-09
 -22.816 -0.459E-09 -0.459E-09
 -22.806 -0.423E-09 -0.423E-09
 -22.796 -0.391E-09 -0.391E-09
 -22.786 -0.362E-09 -0.362E-09
 -22.776 -0.335E-09 -0.335E-09
 -22.766 -0.311E-09 -0.311E-09
 -22.756 -0.289E-09 -0.289E-09
 -22.746 -0.269E-09 -0.269E-09
 -22.736 -0.252E-09 -0.252E-09
 -22.726 -0.236E-09 -0.236E-09
 -22.716 -0.223E-09 -0.223E-09
 -22.706 -0.211E-09 -0.211E-09
 -22.696 -0.201E-09 -0.201E-09
 -22.686 -0.192E-09 -0.192E-09
 -22.676 -0.186E-09 -0.186E-09
 -22.666 -0.181E-09 -0.181E-09
 -22.656 -0.177E-09 -0.177E-09
 -22.646 -0.175E-09 -0.175E-09
 -22.636 -0.174E-09 -0.174E-09
 -22.626 -0.175E-09 -0.175E-09
 -22.616 -0.177E-09 -0.177E-09
 -22.606 -0.180E-09 -0.180E-09
 -22.596 -0.185E-09 -0.185E-09
 -22.586 -0.192E-09 -0.192E-09
 -22.576 -0.200E-09 -0.200E-09
 -22.566 -0.210E-09 -0.210E-09
 -22.556 -0.221E-09 -0.221E-09
 -22.546 -0.234E-09 -0.234E-09
 -22.536 -0.249E-09 -0.249E-09
 -22.526 -0.265E-09 -0.265E-09
 -22.516 -0.284E-09 -0.284E-09
 -22.506 -0.305E-09 -0.305E-09
 -22.496 -0.327E-09 -0.327E-09
 -22.486 -0.352E-09 -0.352E-09
 -22.476 -0.380E-09 -0.380E-09
 -22.466 -0.409E-09 -0.409E-09
 -22.456 -0.442E-09 -0.442E-09
 -22.446 -0.478E-09 -0.478E-09
 -22.436 -0.516E-09 -0.516E-09
 -22.426 -0.558E-09 -0.558E-09
 -22.416 -0.603E-09 -0.603E-09
 -22.406 -0.652E-09 -0.652E-09
 -22.396 -0.705E-09 -0.705E-09
 -22.386 -0.762E-09 -0.762E-09
 -22.376 -0.824E-09 -0.824E-09
 -22.366 -0.890E-09 -0.890E-09
 -22.356 -0.961E-09 -0.961E-09
 -22.346 -0.104E-08 -0.104E-08
 -22.336 -0.112E-08 -0.112E-08
 -22.326 -0.121E-08 -0.121E-08
 -22.316 -0.130E-08 -0.130E-08
 -22.306 -0.140E-08 -0.140E-08
 -22.296 -0.151E-08 -0.151E-08
 -22.286 -0.163E-08 -0.163E-08
 -22.276 -0.176E-08 -0.176E-08
 -22.266 -0.189E-08 -0.189E-08
 -22.256 -0.203E-08 -0.203E-08
 -22.246 -0.218E-08 -0.218E-08
 -22.236 -0.235E-08 -0.235E-08
 -22.226 -0.252E-08 -0.252E-08
 -22.216 -0.270E-08 -0.270E-08
 -22.206 -0.290E-08 -0.290E-08
 -22.196 -0.311E-08 -0.311E-08
 -22.186 -0.333E-08 -0.333E-08
 -22.176 -0.357E-08 -0.357E-08
 -22.166 -0.382E-08 -0.382E-08
 -22.156 -0.409E-08 -0.409E-08
 -22.146 -0.437E-08 -0.437E-08
 -22.136 -0.467E-08 -0.467E-08
 -22.126 -0.499E-08 -0.499E-08
 -22.116 -0.533E-08 -0.533E-08
 -22.106 -0.569E-08 -0.569E-08
 -22.096 -0.607E-08 -0.607E-08
 -22.086 -0.646E-08 -0.646E-08
 -22.076 -0.689E-08 -0.689E-08
 -22.066 -0.733E-08 -0.733E-08
 -22.056 -0.780E-08 -0.780E-08
 -22.046 -0.830E-08 -0.830E-08
 -22.036 -0.882E-08 -0.882E-08
 -22.026 -0.937E-08 -0.937E-08
 -22.016 -0.995E-08 -0.995E-08
 -22.006 -0.106E-07 -0.106E-07
 -21.996 -0.112E-07 -0.112E-07
 -21.986 -0.119E-07 -0.119E-07
 -21.976 -0.126E-07 -0.126E-07
 -21.966 -0.133E-07 -0.133E-07
 -21.956 -0.141E-07 -0.141E-07
 -21.946 -0.149E-07 -0.149E-07
 -21.936 -0.157E-07 -0.157E-07
 -21.926 -0.166E-07 -0.166E-07
 -21.916 -0.175E-07 -0.175E-07
 -21.906 -0.185E-07 -0.185E-07
 -21.896 -0.195E-07 -0.195E-07
 -21.886 -0.205E-07 -0.205E-07
 -21.876 -0.216E-07 -0.216E-07
 -21.866 -0.228E-07 -0.228E-07
 -21.856 -0.239E-07 -0.239E-07
 -21.846 -0.252E-07 -0.252E-07
 -21.836 -0.264E-07 -0.264E-07
 -21.826 -0.277E-07 -0.277E-07
 -21.816 -0.291E-07 -0.291E-07
 -21.806 -0.305E-07 -0.305E-07
 -21.796 -0.319E-07 -0.319E-07
 -21.786 -0.334E-07 -0.334E-07
 -21.776 -0.350E-07 -0.350E-07
 -21.766 -0.366E-07 -0.366E-07
 -21.756 -0.382E-07 -0.382E-07
 -21.746 -0.399E-07 -0.399E-07
 -21.736 -0.416E-07 -0.416E-07
 -21.726 -0.434E-07 -0.434E-07
 -21.716 -0.452E-07 -0.452E-07
 -21.706 -0.470E-07 -0.470E-07
 -21.696 -0.489E-07 -0.489E-07
 -21.686 -0.508E-07 -0.508E-07
 -21.676 -0.528E-07 -0.528E-07
 -21.666 -0.548E-07 -0.548E-07
 -21.656 -0.568E-07 -0.568E-07
 -21.646 -0.589E-07 -0.589E-07
 -21.636 -0.609E-07 -0.609E-07
 -21.626 -0.630E-07 -0.630E-07
 -21.616 -0.651E-07 -0.651E-07
 -21.606 -0.673E-07 -0.673E-07
 -21.596 -0.694E-07 -0.694E-07
 -21.586 -0.715E-07 -0.715E-07
 -21.576 -0.737E-07 -0.737E-07
 -21.566 -0.758E-07 -0.758E-07
 -21.556 -0.779E-07 -0.779E-07
 -21.546 -0.800E-07 -0.800E-07
 -21.536 -0.821E-07 -0.821E-07
 -21.526 -0.841E-07 -0.841E-07
 -21.516 -0.861E-07 -0.861E-07
 -21.506 -0.881E-07 -0.881E-07
 -21.496 -0.900E-07 -0.900E-07
 -21.486 -0.918E-07 -0.918E-07
 -21.476 -0.935E-07 -0.935E-07
 -21.466 -0.952E-07 -0.952E-07
 -21.456 -0.968E-07 -0.968E-07
 -21.446 -0.982E-07 -0.982E-07
 -21.436 -0.995E-07 -0.995E-07
 -21.426 -0.101E-06 -0.101E-06
 -21.416 -0.102E-06 -0.102E-06
 -21.406 -0.103E-06 -0.103E-06
 -21.396 -0.103E-06 -0.103E-06
 -21.386 -0.104E-06 -0.104E-06
 -21.376 -0.104E-06 -0.104E-06
 -21.366 -0.105E-06 -0.105E-06
 -21.356 -0.105E-06 -0.105E-06
 -21.346 -0.104E-06 -0.104E-06
 -21.336 -0.104E-06 -0.104E-06
 -21.326 -0.103E-06 -0.103E-06
 -21.316 -0.102E-06 -0.102E-06
 -21.306 -0.100E-06 -0.100E-06
 -21.296 -0.987E-07 -0.987E-07
 -21.286 -0.966E-07 -0.966E-07
 -21.276 -0.942E-07 -0.942E-07
 -21.266 -0.915E-07 -0.915E-07
 -21.256 -0.884E-07 -0.884E-07
 -21.246 -0.848E-07 -0.848E-07
 -21.236 -0.809E-07 -0.809E-07
 -21.226 -0.765E-07 -0.765E-07
 -21.216 -0.716E-07 -0.716E-07
 -21.206 -0.663E-07 -0.663E-07
 -21.196 -0.605E-07 -0.605E-07
 -21.186 -0.543E-07 -0.543E-07
 -21.176 -0.475E-07 -0.475E-07
 -21.166 -0.401E-07 -0.401E-07
 -21.156 -0.322E-07 -0.322E-07
 -21.146 -0.238E-07 -0.238E-07
 -21.136 -0.148E-07 -0.148E-07
 -21.126 -0.516E-08 -0.516E-08
 -21.116  0.506E-08  0.506E-08
 -21.106  0.159E-07  0.159E-07
 -21.096  0.274E-07  0.274E-07
 -21.086  0.395E-07  0.395E-07
 -21.076  0.523E-07  0.523E-07
 -21.066  0.657E-07  0.657E-07
 -21.056  0.798E-07  0.798E-07
 -21.046  0.946E-07  0.946E-07
 -21.036  0.110E-06  0.110E-06
 -21.026  0.126E-06  0.126E-06
 -21.016  0.143E-06  0.143E-06
 -21.006  0.161E-06  0.161E-06
 -20.996  0.179E-06  0.179E-06
 -20.986  0.198E-06  0.198E-06
 -20.976  0.218E-06  0.218E-06
 -20.966  0.238E-06  0.238E-06
 -20.956  0.259E-06  0.259E-06
 -20.946  0.281E-06  0.281E-06
 -20.936  0.303E-06  0.303E-06
 -20.926  0.327E-06  0.327E-06
 -20.916  0.351E-06  0.351E-06
 -20.906  0.375E-06  0.375E-06
 -20.896  0.400E-06  0.400E-06
 -20.886  0.426E-06  0.426E-06
 -20.876  0.452E-06  0.452E-06
 -20.866  0.480E-06  0.480E-06
 -20.856  0.507E-06  0.507E-06
 -20.846  0.535E-06  0.535E-06
 -20.836  0.564E-06  0.564E-06
 -20.826  0.593E-06  0.593E-06
 -20.816  0.623E-06  0.623E-06
 -20.806  0.653E-06  0.653E-06
 -20.796  0.684E-06  0.684E-06
 -20.786  0.715E-06  0.715E-06
 -20.776  0.747E-06  0.747E-06
 -20.766  0.779E-06  0.779E-06
 -20.756  0.811E-06  0.811E-06
 -20.746  0.843E-06  0.843E-06
 -20.736  0.876E-06  0.876E-06
 -20.726  0.909E-06  0.909E-06
 -20.716  0.942E-06  0.942E-06
 -20.706  0.975E-06  0.975E-06
 -20.696  0.101E-05  0.101E-05
 -20.686  0.104E-05  0.104E-05
 -20.676  0.107E-05  0.107E-05
 -20.666  0.111E-05  0.111E-05
 -20.656  0.114E-05  0.114E-05
 -20.646  0.117E-05  0.117E-05
 -20.636  0.121E-05  0.121E-05
 -20.626  0.124E-05  0.124E-05
 -20.616  0.127E-05  0.127E-05
 -20.606  0.130E-05  0.130E-05
 -20.596  0.133E-05  0.133E-05
 -20.586  0.136E-05  0.136E-05
 -20.576  0.140E-05  0.140E-05
 -20.566  0.143E-05  0.143E-05
 -20.556  0.145E-05  0.145E-05
 -20.546  0.148E-05  0.148E-05
 -20.536  0.151E-05  0.151E-05
 -20.526  0.154E-05  0.154E-05
 -20.516  0.157E-05  0.157E-05
 -20.506  0.159E-05  0.159E-05
 -20.496  0.162E-05  0.162E-05
 -20.486  0.164E-05  0.164E-05
 -20.476  0.166E-05  0.166E-05
 -20.466  0.168E-05  0.168E-05
 -20.456  0.171E-05  0.171E-05
 -20.446  0.173E-05  0.173E-05
 -20.436  0.174E-05  0.174E-05
 -20.426  0.176E-05  0.176E-05
 -20.416  0.178E-05  0.178E-05
 -20.406  0.179E-05  0.179E-05
 -20.396  0.181E-05  0.181E-05
 -20.386  0.182E-05  0.182E-05
 -20.376  0.183E-05  0.183E-05
 -20.366  0.184E-05  0.184E-05
 -20.356  0.185E-05  0.185E-05
 -20.346  0.186E-05  0.186E-05
 -20.336  0.186E-05  0.186E-05
 -20.326  0.187E-05  0.187E-05
 -20.316  0.187E-05  0.187E-05
 -20.306  0.188E-05  0.188E-05
 -20.296  0.188E-05  0.188E-05
 -20.286  0.188E-05  0.188E-05
 -20.276  0.187E-05  0.187E-05
 -20.266  0.187E-05  0.187E-05
 -20.256  0.187E-05  0.187E-05
 -20.246  0.186E-05  0.186E-05
 -20.236  0.185E-05  0.185E-05
 -20.226  0.184E-05  0.184E-05
 -20.216  0.183E-05  0.183E-05
 -20.206  0.182E-05  0.182E-05
 -20.196  0.181E-05  0.181E-05
 -20.186  0.180E-05  0.180E-05
 -20.176  0.178E-05  0.178E-05
 -20.166  0.177E-05  0.177E-05
 -20.156  0.175E-05  0.175E-05
 -20.146  0.173E-05  0.173E-05
 -20.136  0.171E-05  0.171E-05
 -20.126  0.169E-05  0.169E-05
 -20.116  0.167E-05  0.167E-05
 -20.106  0.165E-05  0.165E-05
 -20.096  0.162E-05  0.162E-05
 -20.086  0.160E-05  0.160E-05
 -20.076  0.157E-05  0.157E-05
 -20.066  0.155E-05  0.155E-05
 -20.056  0.152E-05  0.152E-05
 -20.046  0.149E-05  0.149E-05
 -20.036  0.147E-05  0.147E-05
 -20.026  0.144E-05  0.144E-05
 -20.016  0.141E-05  0.141E-05
 -20.006  0.138E-05  0.138E-05
 -19.996  0.135E-05  0.135E-05
 -19.986  0.132E-05  0.132E-05
 -19.976  0.129E-05  0.129E-05
 -19.966  0.126E-05  0.126E-05
 -19.956  0.123E-05  0.123E-05
 -19.946  0.120E-05  0.120E-05
 -19.936  0.117E-05  0.117E-05
 -19.926  0.114E-05  0.114E-05
 -19.916  0.111E-05  0.111E-05
 -19.906  0.107E-05  0.107E-05
 -19.896  0.104E-05  0.104E-05
 -19.886  0.101E-05  0.101E-05
 -19.876  0.984E-06  0.984E-06
 -19.866  0.955E-06  0.955E-06
 -19.856  0.925E-06  0.925E-06
 -19.846  0.896E-06  0.896E-06
 -19.836  0.868E-06  0.868E-06
 -19.826  0.840E-06  0.840E-06
 -19.816  0.813E-06  0.813E-06
 -19.806  0.786E-06  0.786E-06
 -19.796  0.760E-06  0.760E-06
 -19.786  0.735E-06  0.735E-06
 -19.776  0.710E-06  0.710E-06
 -19.766  0.686E-06  0.686E-06
 -19.756  0.663E-06  0.663E-06
 -19.746  0.641E-06  0.641E-06
 -19.736  0.619E-06  0.619E-06
 -19.726  0.599E-06  0.599E-06
 -19.716  0.579E-06  0.579E-06
 -19.706  0.560E-06  0.560E-06
 -19.696  0.542E-06  0.542E-06
 -19.686  0.525E-06  0.525E-06
 -19.676  0.509E-06  0.509E-06
 -19.666  0.494E-06  0.494E-06
 -19.656  0.480E-06  0.480E-06
 -19.646  0.467E-06  0.467E-06
 -19.636  0.455E-06  0.455E-06
 -19.626  0.444E-06  0.444E-06
 -19.616  0.434E-06  0.434E-06
 -19.606  0.425E-06  0.425E-06
 -19.596  0.417E-06  0.417E-06
 -19.586  0.411E-06  0.411E-06
 -19.576  0.405E-06  0.405E-06
 -19.566  0.400E-06  0.400E-06
 -19.556  0.396E-06  0.396E-06
 -19.546  0.393E-06  0.393E-06
 -19.536  0.390E-06  0.390E-06
 -19.526  0.389E-06  0.389E-06
 -19.516  0.389E-06  0.389E-06
 -19.506  0.390E-06  0.390E-06
 -19.496  0.391E-06  0.391E-06
 -19.486  0.393E-06  0.393E-06
 -19.476  0.396E-06  0.396E-06
 -19.466  0.400E-06  0.400E-06
 -19.456  0.405E-06  0.405E-06
 -19.446  0.410E-06  0.410E-06
 -19.436  0.416E-06  0.416E-06
 -19.426  0.423E-06  0.423E-06
 -19.416  0.430E-06  0.430E-06
 -19.406  0.438E-06  0.438E-06
 -19.396  0.447E-06  0.447E-06
 -19.386  0.456E-06  0.456E-06
 -19.376  0.465E-06  0.465E-06
 -19.366  0.475E-06  0.475E-06
 -19.356  0.485E-06  0.485E-06
 -19.346  0.496E-06  0.496E-06
 -19.336  0.507E-06  0.507E-06
 -19.326  0.518E-06  0.518E-06
 -19.316  0.530E-06  0.530E-06
 -19.306  0.541E-06  0.541E-06
 -19.296  0.553E-06  0.553E-06
 -19.286  0.565E-06  0.565E-06
 -19.276  0.577E-06  0.577E-06
 -19.266  0.589E-06  0.589E-06
 -19.256  0.602E-06  0.602E-06
 -19.246  0.614E-06  0.614E-06
 -19.236  0.626E-06  0.626E-06
 -19.226  0.638E-06  0.638E-06
 -19.216  0.649E-06  0.649E-06
 -19.206  0.661E-06  0.661E-06
 -19.196  0.672E-06  0.672E-06
 -19.186  0.684E-06  0.684E-06
 -19.176  0.694E-06  0.694E-06
 -19.166  0.705E-06  0.705E-06
 -19.156  0.715E-06  0.715E-06
 -19.146  0.725E-06  0.725E-06
 -19.136  0.735E-06  0.735E-06
 -19.126  0.744E-06  0.744E-06
 -19.116  0.752E-06  0.752E-06
 -19.106  0.760E-06  0.760E-06
 -19.096  0.768E-06  0.768E-06
 -19.086  0.775E-06  0.775E-06
 -19.076  0.782E-06  0.782E-06
 -19.066  0.788E-06  0.788E-06
 -19.056  0.793E-06  0.793E-06
 -19.046  0.798E-06  0.798E-06
 -19.036  0.803E-06  0.803E-06
 -19.026  0.807E-06  0.807E-06
 -19.016  0.810E-06  0.810E-06
 -19.006  0.812E-06  0.812E-06
 -18.996  0.814E-06  0.814E-06
 -18.986  0.815E-06  0.815E-06
 -18.976  0.816E-06  0.816E-06
 -18.966  0.816E-06  0.816E-06
 -18.956  0.815E-06  0.815E-06
 -18.946  0.814E-06  0.814E-06
 -18.936  0.812E-06  0.812E-06
 -18.926  0.809E-06  0.809E-06
 -18.916  0.806E-06  0.806E-06
 -18.906  0.802E-06  0.802E-06
 -18.896  0.798E-06  0.798E-06
 -18.886  0.793E-06  0.793E-06
 -18.876  0.787E-06  0.787E-06
 -18.866  0.781E-06  0.781E-06
 -18.856  0.774E-06  0.774E-06
 -18.846  0.766E-06  0.766E-06
 -18.836  0.758E-06  0.758E-06
 -18.826  0.750E-06  0.750E-06
 -18.816  0.741E-06  0.741E-06
 -18.806  0.731E-06  0.731E-06
 -18.796  0.721E-06  0.721E-06
 -18.786  0.711E-06  0.711E-06
 -18.776  0.700E-06  0.700E-06
 -18.766  0.689E-06  0.689E-06
 -18.756  0.677E-06  0.677E-06
 -18.746  0.665E-06  0.665E-06
 -18.736  0.652E-06  0.652E-06
 -18.726  0.640E-06  0.640E-06
 -18.716  0.626E-06  0.626E-06
 -18.706  0.613E-06  0.613E-06
 -18.696  0.599E-06  0.599E-06
 -18.686  0.585E-06  0.585E-06
 -18.676  0.571E-06  0.571E-06
 -18.666  0.557E-06  0.557E-06
 -18.656  0.542E-06  0.542E-06
 -18.646  0.528E-06  0.528E-06
 -18.636  0.513E-06  0.513E-06
 -18.626  0.498E-06  0.498E-06
 -18.616  0.483E-06  0.483E-06
 -18.606  0.468E-06  0.468E-06
 -18.596  0.453E-06  0.453E-06
 -18.586  0.437E-06  0.437E-06
 -18.576  0.422E-06  0.422E-06
 -18.566  0.407E-06  0.407E-06
 -18.556  0.392E-06  0.392E-06
 -18.546  0.377E-06  0.377E-06
 -18.536  0.362E-06  0.362E-06
 -18.526  0.347E-06  0.347E-06
 -18.516  0.332E-06  0.332E-06
 -18.506  0.317E-06  0.317E-06
 -18.496  0.303E-06  0.303E-06
 -18.486  0.289E-06  0.289E-06
 -18.476  0.274E-06  0.274E-06
 -18.466  0.260E-06  0.260E-06
 -18.456  0.246E-06  0.246E-06
 -18.446  0.233E-06  0.233E-06
 -18.436  0.219E-06  0.219E-06
 -18.426  0.206E-06  0.206E-06
 -18.416  0.193E-06  0.193E-06
 -18.406  0.181E-06  0.181E-06
 -18.396  0.168E-06  0.168E-06
 -18.386  0.156E-06  0.156E-06
 -18.376  0.144E-06  0.144E-06
 -18.366  0.132E-06  0.132E-06
 -18.356  0.121E-06  0.121E-06
 -18.346  0.110E-06  0.110E-06
 -18.336  0.993E-07  0.993E-07
 -18.326  0.889E-07  0.889E-07
 -18.316  0.787E-07  0.787E-07
 -18.306  0.689E-07  0.689E-07
 -18.296  0.593E-07  0.593E-07
 -18.286  0.500E-07  0.500E-07
 -18.276  0.411E-07  0.411E-07
 -18.266  0.324E-07  0.324E-07
 -18.256  0.241E-07  0.241E-07
 -18.246  0.160E-07  0.160E-07
 -18.236  0.829E-08  0.829E-08
 -18.226  0.841E-09  0.841E-09
 -18.216 -0.631E-08 -0.631E-08
 -18.206 -0.132E-07 -0.132E-07
 -18.196 -0.197E-07 -0.197E-07
 -18.186 -0.260E-07 -0.260E-07
 -18.176 -0.320E-07 -0.320E-07
 -18.166 -0.377E-07 -0.377E-07
 -18.156 -0.431E-07 -0.431E-07
 -18.146 -0.482E-07 -0.482E-07
 -18.136 -0.531E-07 -0.531E-07
 -18.126 -0.577E-07 -0.577E-07
 -18.116 -0.621E-07 -0.621E-07
 -18.106 -0.661E-07 -0.661E-07
 -18.096 -0.699E-07 -0.699E-07
 -18.086 -0.735E-07 -0.735E-07
 -18.076 -0.768E-07 -0.768E-07
 -18.066 -0.799E-07 -0.799E-07
 -18.056 -0.827E-07 -0.827E-07
 -18.046 -0.853E-07 -0.853E-07
 -18.036 -0.876E-07 -0.876E-07
 -18.026 -0.897E-07 -0.897E-07
 -18.016 -0.916E-07 -0.916E-07
 -18.006 -0.932E-07 -0.932E-07
 -17.996 -0.946E-07 -0.946E-07
 -17.986 -0.958E-07 -0.958E-07
 -17.976 -0.967E-07 -0.967E-07
 -17.966 -0.975E-07 -0.975E-07
 -17.956 -0.980E-07 -0.980E-07
 -17.946 -0.982E-07 -0.982E-07
 -17.936 -0.983E-07 -0.983E-07
 -17.926 -0.981E-07 -0.981E-07
 -17.916 -0.977E-07 -0.977E-07
 -17.906 -0.971E-07 -0.971E-07
 -17.896 -0.963E-07 -0.963E-07
 -17.886 -0.952E-07 -0.952E-07
 -17.876 -0.939E-07 -0.939E-07
 -17.866 -0.924E-07 -0.924E-07
 -17.856 -0.906E-07 -0.906E-07
 -17.846 -0.886E-07 -0.886E-07
 -17.836 -0.864E-07 -0.864E-07
 -17.826 -0.839E-07 -0.839E-07
 -17.816 -0.812E-07 -0.812E-07
 -17.806 -0.782E-07 -0.782E-07
 -17.796 -0.750E-07 -0.750E-07
 -17.786 -0.715E-07 -0.715E-07
 -17.776 -0.678E-07 -0.678E-07
 -17.766 -0.638E-07 -0.638E-07
 -17.756 -0.596E-07 -0.596E-07
 -17.746 -0.551E-07 -0.551E-07
 -17.736 -0.503E-07 -0.503E-07
 -17.726 -0.452E-07 -0.452E-07
 -17.716 -0.399E-07 -0.399E-07
 -17.706 -0.342E-07 -0.342E-07
 -17.696 -0.283E-07 -0.283E-07
 -17.686 -0.221E-07 -0.221E-07
 -17.676 -0.156E-07 -0.156E-07
 -17.666 -0.883E-08 -0.883E-08
 -17.656 -0.174E-08 -0.174E-08
 -17.646  0.566E-08  0.566E-08
 -17.636  0.134E-07  0.134E-07
 -17.626  0.214E-07  0.214E-07
 -17.616  0.297E-07  0.297E-07
 -17.606  0.383E-07  0.383E-07
 -17.596  0.473E-07  0.473E-07
 -17.586  0.565E-07  0.565E-07
 -17.576  0.661E-07  0.661E-07
 -17.566  0.760E-07  0.760E-07
 -17.556  0.862E-07  0.862E-07
 -17.546  0.967E-07  0.967E-07
 -17.536  0.107E-06  0.107E-06
 -17.526  0.119E-06  0.119E-06
 -17.516  0.130E-06  0.130E-06
 -17.506  0.142E-06  0.142E-06
 -17.496  0.154E-06  0.154E-06
 -17.486  0.166E-06  0.166E-06
 -17.476  0.179E-06  0.179E-06
 -17.466  0.191E-06  0.191E-06
 -17.456  0.205E-06  0.205E-06
 -17.446  0.218E-06  0.218E-06
 -17.436  0.232E-06  0.232E-06
 -17.426  0.246E-06  0.246E-06
 -17.416  0.260E-06  0.260E-06
 -17.406  0.274E-06  0.274E-06
 -17.396  0.289E-06  0.289E-06
 -17.386  0.303E-06  0.303E-06
 -17.376  0.318E-06  0.318E-06
 -17.366  0.333E-06  0.333E-06
 -17.356  0.349E-06  0.349E-06
 -17.346  0.364E-06  0.364E-06
 -17.336  0.380E-06  0.380E-06
 -17.326  0.395E-06  0.395E-06
 -17.316  0.411E-06  0.411E-06
 -17.306  0.427E-06  0.427E-06
 -17.296  0.443E-06  0.443E-06
 -17.286  0.459E-06  0.459E-06
 -17.276  0.475E-06  0.475E-06
 -17.266  0.491E-06  0.491E-06
 -17.256  0.506E-06  0.506E-06
 -17.246  0.522E-06  0.522E-06
 -17.236  0.538E-06  0.538E-06
 -17.226  0.554E-06  0.554E-06
 -17.216  0.570E-06  0.570E-06
 -17.206  0.585E-06  0.585E-06
 -17.196  0.601E-06  0.601E-06
 -17.186  0.616E-06  0.616E-06
 -17.176  0.631E-06  0.631E-06
 -17.166  0.646E-06  0.646E-06
 -17.156  0.660E-06  0.660E-06
 -17.146  0.675E-06  0.675E-06
 -17.136  0.689E-06  0.689E-06
 -17.126  0.703E-06  0.703E-06
 -17.116  0.716E-06  0.716E-06
 -17.106  0.730E-06  0.730E-06
 -17.096  0.743E-06  0.743E-06
 -17.086  0.755E-06  0.755E-06
 -17.076  0.767E-06  0.767E-06
 -17.066  0.779E-06  0.779E-06
 -17.056  0.790E-06  0.790E-06
 -17.046  0.801E-06  0.801E-06
 -17.036  0.812E-06  0.812E-06
 -17.026  0.822E-06  0.822E-06
 -17.016  0.831E-06  0.831E-06
 -17.006  0.840E-06  0.840E-06
 -16.996  0.849E-06  0.849E-06
 -16.986  0.857E-06  0.857E-06
 -16.976  0.864E-06  0.864E-06
 -16.966  0.871E-06  0.871E-06
 -16.956  0.877E-06  0.877E-06
 -16.946  0.883E-06  0.883E-06
 -16.936  0.888E-06  0.888E-06
 -16.926  0.893E-06  0.893E-06
 -16.916  0.897E-06  0.897E-06
 -16.906  0.901E-06  0.901E-06
 -16.896  0.903E-06  0.903E-06
 -16.886  0.906E-06  0.906E-06
 -16.876  0.907E-06  0.907E-06
 -16.866  0.909E-06  0.909E-06
 -16.856  0.909E-06  0.909E-06
 -16.846  0.909E-06  0.909E-06
 -16.836  0.909E-06  0.909E-06
 -16.826  0.907E-06  0.907E-06
 -16.816  0.906E-06  0.906E-06
 -16.806  0.903E-06  0.903E-06
 -16.796  0.901E-06  0.901E-06
 -16.786  0.897E-06  0.897E-06
 -16.776  0.893E-06  0.893E-06
 -16.766  0.889E-06  0.889E-06
 -16.756  0.884E-06  0.884E-06
 -16.746  0.878E-06  0.878E-06
 -16.736  0.872E-06  0.872E-06
 -16.726  0.866E-06  0.866E-06
 -16.716  0.859E-06  0.859E-06
 -16.706  0.851E-06  0.851E-06
 -16.696  0.844E-06  0.844E-06
 -16.686  0.835E-06  0.835E-06
 -16.676  0.827E-06  0.827E-06
 -16.666  0.818E-06  0.818E-06
 -16.656  0.808E-06  0.808E-06
 -16.646  0.799E-06  0.799E-06
 -16.636  0.789E-06  0.789E-06
 -16.626  0.778E-06  0.778E-06
 -16.616  0.768E-06  0.768E-06
 -16.606  0.757E-06  0.757E-06
 -16.596  0.746E-06  0.746E-06
 -16.586  0.734E-06  0.734E-06
 -16.576  0.723E-06  0.723E-06
 -16.566  0.711E-06  0.711E-06
 -16.556  0.699E-06  0.699E-06
 -16.546  0.687E-06  0.687E-06
 -16.536  0.674E-06  0.674E-06
 -16.526  0.662E-06  0.662E-06
 -16.516  0.649E-06  0.649E-06
 -16.506  0.637E-06  0.637E-06
 -16.496  0.624E-06  0.624E-06
 -16.486  0.612E-06  0.612E-06
 -16.476  0.599E-06  0.599E-06
 -16.466  0.586E-06  0.586E-06
 -16.456  0.573E-06  0.573E-06
 -16.446  0.561E-06  0.561E-06
 -16.436  0.548E-06  0.548E-06
 -16.426  0.535E-06  0.535E-06
 -16.416  0.523E-06  0.523E-06
 -16.406  0.511E-06  0.511E-06
 -16.396  0.498E-06  0.498E-06
 -16.386  0.486E-06  0.486E-06
 -16.376  0.474E-06  0.474E-06
 -16.366  0.462E-06  0.462E-06
 -16.356  0.450E-06  0.450E-06
 -16.346  0.438E-06  0.438E-06
 -16.336  0.427E-06  0.427E-06
 -16.326  0.415E-06  0.415E-06
 -16.316  0.404E-06  0.404E-06
 -16.306  0.393E-06  0.393E-06
 -16.296  0.382E-06  0.382E-06
 -16.286  0.372E-06  0.372E-06
 -16.276  0.361E-06  0.361E-06
 -16.266  0.351E-06  0.351E-06
 -16.256  0.341E-06  0.341E-06
 -16.246  0.331E-06  0.331E-06
 -16.236  0.321E-06  0.321E-06
 -16.226  0.312E-06  0.312E-06
 -16.216  0.303E-06  0.303E-06
 -16.206  0.294E-06  0.294E-06
 -16.196  0.285E-06  0.285E-06
 -16.186  0.276E-06  0.276E-06
 -16.176  0.268E-06  0.268E-06
 -16.166  0.260E-06  0.260E-06
 -16.156  0.252E-06  0.252E-06
 -16.146  0.244E-06  0.244E-06
 -16.136  0.237E-06  0.237E-06
 -16.126  0.230E-06  0.230E-06
 -16.116  0.223E-06  0.223E-06
 -16.106  0.216E-06  0.216E-06
 -16.096  0.209E-06  0.209E-06
 -16.086  0.202E-06  0.202E-06
 -16.076  0.196E-06  0.196E-06
 -16.066  0.190E-06  0.190E-06
 -16.056  0.184E-06  0.184E-06
 -16.046  0.178E-06  0.178E-06
 -16.036  0.173E-06  0.173E-06
 -16.026  0.167E-06  0.167E-06
 -16.016  0.162E-06  0.162E-06
 -16.006  0.157E-06  0.157E-06
 -15.996  0.152E-06  0.152E-06
 -15.986  0.147E-06  0.147E-06
 -15.976  0.142E-06  0.142E-06
 -15.966  0.137E-06  0.137E-06
 -15.956  0.133E-06  0.133E-06
 -15.946  0.129E-06  0.129E-06
 -15.936  0.124E-06  0.124E-06
 -15.926  0.120E-06  0.120E-06
 -15.916  0.116E-06  0.116E-06
 -15.906  0.112E-06  0.112E-06
 -15.896  0.109E-06  0.109E-06
 -15.886  0.105E-06  0.105E-06
 -15.876  0.101E-06  0.101E-06
 -15.866  0.979E-07  0.979E-07
 -15.856  0.944E-07  0.944E-07
 -15.846  0.911E-07  0.911E-07
 -15.836  0.878E-07  0.878E-07
 -15.826  0.846E-07  0.846E-07
 -15.816  0.815E-07  0.815E-07
 -15.806  0.784E-07  0.784E-07
 -15.796  0.754E-07  0.754E-07
 -15.786  0.725E-07  0.725E-07
 -15.776  0.696E-07  0.696E-07
 -15.766  0.668E-07  0.668E-07
 -15.756  0.640E-07  0.640E-07
 -15.746  0.613E-07  0.613E-07
 -15.736  0.586E-07  0.586E-07
 -15.726  0.560E-07  0.560E-07
 -15.716  0.535E-07  0.535E-07
 -15.706  0.509E-07  0.509E-07
 -15.696  0.485E-07  0.485E-07
 -15.686  0.461E-07  0.461E-07
 -15.676  0.437E-07  0.437E-07
 -15.666  0.413E-07  0.413E-07
 -15.656  0.390E-07  0.390E-07
 -15.646  0.368E-07  0.368E-07
 -15.636  0.346E-07  0.346E-07
 -15.626  0.324E-07  0.324E-07
 -15.616  0.302E-07  0.302E-07
 -15.606  0.281E-07  0.281E-07
 -15.596  0.260E-07  0.260E-07
 -15.586  0.240E-07  0.240E-07
 -15.576  0.220E-07  0.220E-07
 -15.566  0.200E-07  0.200E-07
 -15.556  0.181E-07  0.181E-07
 -15.546  0.162E-07  0.162E-07
 -15.536  0.143E-07  0.143E-07
 -15.526  0.125E-07  0.125E-07
 -15.516  0.107E-07  0.107E-07
 -15.506  0.893E-08  0.893E-08
 -15.496  0.719E-08  0.719E-08
 -15.486  0.548E-08  0.548E-08
 -15.476  0.379E-08  0.379E-08
 -15.466  0.213E-08  0.213E-08
 -15.456  0.499E-09  0.499E-09
 -15.446 -0.111E-08 -0.111E-08
 -15.436 -0.269E-08 -0.269E-08
 -15.426 -0.425E-08 -0.425E-08
 -15.416 -0.579E-08 -0.579E-08
 -15.406 -0.730E-08 -0.730E-08
 -15.396 -0.880E-08 -0.880E-08
 -15.386 -0.103E-07 -0.103E-07
 -15.376 -0.117E-07 -0.117E-07
 -15.366 -0.132E-07 -0.132E-07
 -15.356 -0.146E-07 -0.146E-07
 -15.346 -0.161E-07 -0.161E-07
 -15.336 -0.175E-07 -0.175E-07
 -15.326 -0.189E-07 -0.189E-07
 -15.316 -0.203E-07 -0.203E-07
 -15.306 -0.217E-07 -0.217E-07
 -15.296 -0.231E-07 -0.231E-07
 -15.286 -0.245E-07 -0.245E-07
 -15.276 -0.259E-07 -0.259E-07
 -15.266 -0.273E-07 -0.273E-07
 -15.256 -0.287E-07 -0.287E-07
 -15.246 -0.301E-07 -0.301E-07
 -15.236 -0.316E-07 -0.316E-07
 -15.226 -0.330E-07 -0.330E-07
 -15.216 -0.345E-07 -0.345E-07
 -15.206 -0.360E-07 -0.360E-07
 -15.196 -0.375E-07 -0.375E-07
 -15.186 -0.391E-07 -0.391E-07
 -15.176 -0.406E-07 -0.406E-07
 -15.166 -0.422E-07 -0.422E-07
 -15.156 -0.439E-07 -0.439E-07
 -15.146 -0.455E-07 -0.455E-07
 -15.136 -0.473E-07 -0.473E-07
 -15.126 -0.490E-07 -0.490E-07
 -15.116 -0.508E-07 -0.508E-07
 -15.106 -0.526E-07 -0.526E-07
 -15.096 -0.545E-07 -0.545E-07
 -15.086 -0.565E-07 -0.565E-07
 -15.076 -0.585E-07 -0.585E-07
 -15.066 -0.605E-07 -0.605E-07
 -15.056 -0.626E-07 -0.626E-07
 -15.046 -0.648E-07 -0.648E-07
 -15.036 -0.670E-07 -0.670E-07
 -15.026 -0.693E-07 -0.693E-07
 -15.016 -0.716E-07 -0.716E-07
 -15.006 -0.740E-07 -0.740E-07
 -14.996 -0.765E-07 -0.765E-07
 -14.986 -0.790E-07 -0.790E-07
 -14.976 -0.816E-07 -0.816E-07
 -14.966 -0.843E-07 -0.843E-07
 -14.956 -0.870E-07 -0.870E-07
 -14.946 -0.898E-07 -0.898E-07
 -14.936 -0.927E-07 -0.927E-07
 -14.926 -0.956E-07 -0.956E-07
 -14.916 -0.986E-07 -0.986E-07
 -14.906 -0.102E-06 -0.102E-06
 -14.896 -0.105E-06 -0.105E-06
 -14.886 -0.108E-06 -0.108E-06
 -14.876 -0.111E-06 -0.111E-06
 -14.866 -0.115E-06 -0.115E-06
 -14.856 -0.118E-06 -0.118E-06
 -14.846 -0.121E-06 -0.121E-06
 -14.836 -0.125E-06 -0.125E-06
 -14.826 -0.128E-06 -0.128E-06
 -14.816 -0.132E-06 -0.132E-06
 -14.806 -0.135E-06 -0.135E-06
 -14.796 -0.139E-06 -0.139E-06
 -14.786 -0.142E-06 -0.142E-06
 -14.776 -0.146E-06 -0.146E-06
 -14.766 -0.149E-06 -0.149E-06
 -14.756 -0.153E-06 -0.153E-06
 -14.746 -0.156E-06 -0.156E-06
 -14.736 -0.160E-06 -0.160E-06
 -14.726 -0.163E-06 -0.163E-06
 -14.716 -0.167E-06 -0.167E-06
 -14.706 -0.170E-06 -0.170E-06
 -14.696 -0.173E-06 -0.173E-06
 -14.686 -0.176E-06 -0.176E-06
 -14.676 -0.179E-06 -0.179E-06
 -14.666 -0.182E-06 -0.182E-06
 -14.656 -0.185E-06 -0.185E-06
 -14.646 -0.188E-06 -0.188E-06
 -14.636 -0.190E-06 -0.190E-06
 -14.626 -0.193E-06 -0.193E-06
 -14.616 -0.195E-06 -0.195E-06
 -14.606 -0.197E-06 -0.197E-06
 -14.596 -0.198E-06 -0.198E-06
 -14.586 -0.200E-06 -0.200E-06
 -14.576 -0.201E-06 -0.201E-06
 -14.566 -0.202E-06 -0.202E-06
 -14.556 -0.202E-06 -0.202E-06
 -14.546 -0.202E-06 -0.202E-06
 -14.536 -0.202E-06 -0.202E-06
 -14.526 -0.202E-06 -0.202E-06
 -14.516 -0.201E-06 -0.201E-06
 -14.506 -0.199E-06 -0.199E-06
 -14.496 -0.197E-06 -0.197E-06
 -14.486 -0.195E-06 -0.195E-06
 -14.476 -0.192E-06 -0.192E-06
 -14.466 -0.188E-06 -0.188E-06
 -14.456 -0.184E-06 -0.184E-06
 -14.446 -0.179E-06 -0.179E-06
 -14.436 -0.174E-06 -0.174E-06
 -14.426 -0.168E-06 -0.168E-06
 -14.416 -0.161E-06 -0.161E-06
 -14.406 -0.154E-06 -0.154E-06
 -14.396 -0.145E-06 -0.145E-06
 -14.386 -0.136E-06 -0.136E-06
 -14.376 -0.126E-06 -0.126E-06
 -14.366 -0.116E-06 -0.116E-06
 -14.356 -0.104E-06 -0.104E-06
 -14.346 -0.915E-07 -0.915E-07
 -14.336 -0.780E-07 -0.780E-07
 -14.326 -0.634E-07 -0.634E-07
 -14.316 -0.479E-07 -0.479E-07
 -14.306 -0.313E-07 -0.313E-07
 -14.296 -0.136E-07 -0.136E-07
 -14.286  0.516E-08  0.516E-08
 -14.276  0.251E-07  0.251E-07
 -14.266  0.462E-07  0.462E-07
 -14.256  0.685E-07  0.685E-07
 -14.246  0.920E-07  0.920E-07
 -14.236  0.117E-06  0.117E-06
 -14.226  0.143E-06  0.143E-06
 -14.216  0.170E-06  0.170E-06
 -14.206  0.199E-06  0.199E-06
 -14.196  0.229E-06  0.229E-06
 -14.186  0.260E-06  0.260E-06
 -14.176  0.293E-06  0.293E-06
 -14.166  0.327E-06  0.327E-06
 -14.156  0.363E-06  0.363E-06
 -14.146  0.400E-06  0.400E-06
 -14.136  0.439E-06  0.439E-06
 -14.126  0.479E-06  0.479E-06
 -14.116  0.520E-06  0.520E-06
 -14.106  0.563E-06  0.563E-06
 -14.096  0.608E-06  0.608E-06
 -14.086  0.654E-06  0.654E-06
 -14.076  0.701E-06  0.701E-06
 -14.066  0.750E-06  0.750E-06
 -14.056  0.800E-06  0.800E-06
 -14.046  0.852E-06  0.852E-06
 -14.036  0.906E-06  0.906E-06
 -14.026  0.961E-06  0.961E-06
 -14.016  0.102E-05  0.102E-05
 -14.006  0.107E-05  0.107E-05
 -13.996  0.113E-05  0.113E-05
 -13.986  0.119E-05  0.119E-05
 -13.976  0.126E-05  0.126E-05
 -13.966  0.132E-05  0.132E-05
 -13.956  0.138E-05  0.138E-05
 -13.946  0.145E-05  0.145E-05
 -13.936  0.152E-05  0.152E-05
 -13.926  0.159E-05  0.159E-05
 -13.916  0.166E-05  0.166E-05
 -13.906  0.173E-05  0.173E-05
 -13.896  0.180E-05  0.180E-05
 -13.886  0.187E-05  0.187E-05
 -13.876  0.194E-05  0.194E-05
 -13.866  0.202E-05  0.202E-05
 -13.856  0.209E-05  0.209E-05
 -13.846  0.217E-05  0.217E-05
 -13.836  0.225E-05  0.225E-05
 -13.826  0.233E-05  0.233E-05
 -13.816  0.240E-05  0.240E-05
 -13.806  0.248E-05  0.248E-05
 -13.796  0.256E-05  0.256E-05
 -13.786  0.264E-05  0.264E-05
 -13.776  0.272E-05  0.272E-05
 -13.766  0.280E-05  0.280E-05
 -13.756  0.288E-05  0.288E-05
 -13.746  0.297E-05  0.297E-05
 -13.736  0.305E-05  0.305E-05
 -13.726  0.313E-05  0.313E-05
 -13.716  0.321E-05  0.321E-05
 -13.706  0.329E-05  0.329E-05
 -13.696  0.337E-05  0.337E-05
 -13.686  0.345E-05  0.345E-05
 -13.676  0.353E-05  0.353E-05
 -13.666  0.361E-05  0.361E-05
 -13.656  0.369E-05  0.369E-05
 -13.646  0.376E-05  0.376E-05
 -13.636  0.384E-05  0.384E-05
 -13.626  0.391E-05  0.391E-05
 -13.616  0.399E-05  0.399E-05
 -13.606  0.406E-05  0.406E-05
 -13.596  0.414E-05  0.414E-05
 -13.586  0.421E-05  0.421E-05
 -13.576  0.428E-05  0.428E-05
 -13.566  0.434E-05  0.434E-05
 -13.556  0.441E-05  0.441E-05
 -13.546  0.448E-05  0.448E-05
 -13.536  0.454E-05  0.454E-05
 -13.526  0.460E-05  0.460E-05
 -13.516  0.466E-05  0.466E-05
 -13.506  0.472E-05  0.472E-05
 -13.496  0.478E-05  0.478E-05
 -13.486  0.483E-05  0.483E-05
 -13.476  0.488E-05  0.488E-05
 -13.466  0.493E-05  0.493E-05
 -13.456  0.498E-05  0.498E-05
 -13.446  0.503E-05  0.503E-05
 -13.436  0.507E-05  0.507E-05
 -13.426  0.511E-05  0.511E-05
 -13.416  0.515E-05  0.515E-05
 -13.406  0.518E-05  0.518E-05
 -13.396  0.522E-05  0.522E-05
 -13.386  0.525E-05  0.525E-05
 -13.376  0.528E-05  0.528E-05
 -13.366  0.530E-05  0.530E-05
 -13.356  0.533E-05  0.533E-05
 -13.346  0.535E-05  0.535E-05
 -13.336  0.536E-05  0.536E-05
 -13.326  0.538E-05  0.538E-05
 -13.316  0.539E-05  0.539E-05
 -13.306  0.540E-05  0.540E-05
 -13.296  0.541E-05  0.541E-05
 -13.286  0.541E-05  0.541E-05
 -13.276  0.541E-05  0.541E-05
 -13.266  0.541E-05  0.541E-05
 -13.256  0.541E-05  0.541E-05
 -13.246  0.540E-05  0.540E-05
 -13.236  0.539E-05  0.539E-05
 -13.226  0.538E-05  0.538E-05
 -13.216  0.536E-05  0.536E-05
 -13.206  0.534E-05  0.534E-05
 -13.196  0.532E-05  0.532E-05
 -13.186  0.530E-05  0.530E-05
 -13.176  0.528E-05  0.528E-05
 -13.166  0.525E-05  0.525E-05
 -13.156  0.522E-05  0.522E-05
 -13.146  0.518E-05  0.518E-05
 -13.136  0.515E-05  0.515E-05
 -13.126  0.511E-05  0.511E-05
 -13.116  0.507E-05  0.507E-05
 -13.106  0.503E-05  0.503E-05
 -13.096  0.498E-05  0.498E-05
 -13.086  0.494E-05  0.494E-05
 -13.076  0.489E-05  0.489E-05
 -13.066  0.484E-05  0.484E-05
 -13.056  0.478E-05  0.478E-05
 -13.046  0.473E-05  0.473E-05
 -13.036  0.467E-05  0.467E-05
 -13.026  0.461E-05  0.461E-05
 -13.016  0.455E-05  0.455E-05
 -13.006  0.449E-05  0.449E-05
 -12.996  0.443E-05  0.443E-05
 -12.986  0.436E-05  0.436E-05
 -12.976  0.430E-05  0.430E-05
 -12.966  0.423E-05  0.423E-05
 -12.956  0.416E-05  0.416E-05
 -12.946  0.409E-05  0.409E-05
 -12.936  0.402E-05  0.402E-05
 -12.926  0.395E-05  0.395E-05
 -12.916  0.387E-05  0.387E-05
 -12.906  0.380E-05  0.380E-05
 -12.896  0.372E-05  0.372E-05
 -12.886  0.365E-05  0.365E-05
 -12.876  0.357E-05  0.357E-05
 -12.866  0.349E-05  0.349E-05
 -12.856  0.341E-05  0.341E-05
 -12.846  0.334E-05  0.334E-05
 -12.836  0.326E-05  0.326E-05
 -12.826  0.318E-05  0.318E-05
 -12.816  0.310E-05  0.310E-05
 -12.806  0.302E-05  0.302E-05
 -12.796  0.294E-05  0.294E-05
 -12.786  0.286E-05  0.286E-05
 -12.776  0.278E-05  0.278E-05
 -12.766  0.270E-05  0.270E-05
 -12.756  0.262E-05  0.262E-05
 -12.746  0.254E-05  0.254E-05
 -12.736  0.246E-05  0.246E-05
 -12.726  0.238E-05  0.238E-05
 -12.716  0.230E-05  0.230E-05
 -12.706  0.222E-05  0.222E-05
 -12.696  0.214E-05  0.214E-05
 -12.686  0.206E-05  0.206E-05
 -12.676  0.199E-05  0.199E-05
 -12.666  0.191E-05  0.191E-05
 -12.656  0.183E-05  0.183E-05
 -12.646  0.176E-05  0.176E-05
 -12.636  0.168E-05  0.168E-05
 -12.626  0.161E-05  0.161E-05
 -12.616  0.154E-05  0.154E-05
 -12.606  0.147E-05  0.147E-05
 -12.596  0.139E-05  0.139E-05
 -12.586  0.132E-05  0.132E-05
 -12.576  0.125E-05  0.125E-05
 -12.566  0.119E-05  0.119E-05
 -12.556  0.112E-05  0.112E-05
 -12.546  0.105E-05  0.105E-05
 -12.536  0.987E-06  0.987E-06
 -12.526  0.923E-06  0.923E-06
 -12.516  0.860E-06  0.860E-06
 -12.506  0.798E-06  0.798E-06
 -12.496  0.737E-06  0.737E-06
 -12.486  0.678E-06  0.678E-06
 -12.476  0.620E-06  0.620E-06
 -12.466  0.563E-06  0.563E-06
 -12.456  0.507E-06  0.507E-06
 -12.446  0.453E-06  0.453E-06
 -12.436  0.400E-06  0.400E-06
 -12.426  0.349E-06  0.349E-06
 -12.416  0.299E-06  0.299E-06
 -12.406  0.250E-06  0.250E-06
 -12.396  0.203E-06  0.203E-06
 -12.386  0.157E-06  0.157E-06
 -12.376  0.112E-06  0.112E-06
 -12.366  0.694E-07  0.694E-07
 -12.356  0.279E-07  0.279E-07
 -12.346 -0.120E-07 -0.120E-07
 -12.336 -0.504E-07 -0.504E-07
 -12.326 -0.872E-07 -0.872E-07
 -12.316 -0.122E-06 -0.122E-06
 -12.306 -0.156E-06 -0.156E-06
 -12.296 -0.188E-06 -0.188E-06
 -12.286 -0.219E-06 -0.219E-06
 -12.276 -0.248E-06 -0.248E-06
 -12.266 -0.275E-06 -0.275E-06
 -12.256 -0.300E-06 -0.300E-06
 -12.246 -0.324E-06 -0.324E-06
 -12.236 -0.346E-06 -0.346E-06
 -12.226 -0.366E-06 -0.366E-06
 -12.216 -0.385E-06 -0.385E-06
 -12.206 -0.402E-06 -0.402E-06
 -12.196 -0.417E-06 -0.417E-06
 -12.186 -0.430E-06 -0.430E-06
 -12.176 -0.441E-06 -0.441E-06
 -12.166 -0.451E-06 -0.451E-06
 -12.156 -0.458E-06 -0.458E-06
 -12.146 -0.464E-06 -0.464E-06
 -12.136 -0.468E-06 -0.468E-06
 -12.126 -0.469E-06 -0.469E-06
 -12.116 -0.469E-06 -0.469E-06
 -12.106 -0.467E-06 -0.467E-06
 -12.096 -0.463E-06 -0.463E-06
 -12.086 -0.457E-06 -0.457E-06
 -12.076 -0.448E-06 -0.448E-06
 -12.066 -0.438E-06 -0.438E-06
 -12.056 -0.425E-06 -0.425E-06
 -12.046 -0.411E-06 -0.411E-06
 -12.036 -0.394E-06 -0.394E-06
 -12.026 -0.375E-06 -0.375E-06
 -12.016 -0.354E-06 -0.354E-06
 -12.006 -0.330E-06 -0.330E-06
 -11.996 -0.305E-06 -0.305E-06
 -11.986 -0.277E-06 -0.277E-06
 -11.976 -0.247E-06 -0.247E-06
 -11.966 -0.214E-06 -0.214E-06
 -11.956 -0.180E-06 -0.180E-06
 -11.946 -0.143E-06 -0.143E-06
 -11.936 -0.104E-06 -0.104E-06
 -11.926 -0.622E-07 -0.622E-07
 -11.916 -0.185E-07 -0.185E-07
 -11.906  0.275E-07  0.275E-07
 -11.896  0.758E-07  0.758E-07
 -11.886  0.126E-06  0.126E-06
 -11.876  0.179E-06  0.179E-06
 -11.866  0.234E-06  0.234E-06
 -11.856  0.291E-06  0.291E-06
 -11.846  0.351E-06  0.351E-06
 -11.836  0.412E-06  0.412E-06
 -11.826  0.476E-06  0.476E-06
 -11.816  0.542E-06  0.542E-06
 -11.806  0.609E-06  0.609E-06
 -11.796  0.679E-06  0.679E-06
 -11.786  0.751E-06  0.751E-06
 -11.776  0.824E-06  0.824E-06
 -11.766  0.900E-06  0.900E-06
 -11.756  0.977E-06  0.977E-06
 -11.746  0.106E-05  0.106E-05
 -11.736  0.114E-05  0.114E-05
 -11.726  0.122E-05  0.122E-05
 -11.716  0.130E-05  0.130E-05
 -11.706  0.139E-05  0.139E-05
 -11.696  0.147E-05  0.147E-05
 -11.686  0.156E-05  0.156E-05
 -11.676  0.165E-05  0.165E-05
 -11.666  0.173E-05  0.173E-05
 -11.656  0.182E-05  0.182E-05
 -11.646  0.191E-05  0.191E-05
 -11.636  0.200E-05  0.200E-05
 -11.626  0.209E-05  0.209E-05
 -11.616  0.218E-05  0.218E-05
 -11.606  0.227E-05  0.227E-05
 -11.596  0.236E-05  0.236E-05
 -11.586  0.245E-05  0.245E-05
 -11.576  0.254E-05  0.254E-05
 -11.566  0.262E-05  0.262E-05
 -11.556  0.271E-05  0.271E-05
 -11.546  0.279E-05  0.279E-05
 -11.536  0.287E-05  0.287E-05
 -11.526  0.295E-05  0.295E-05
 -11.516  0.303E-05  0.303E-05
 -11.506  0.310E-05  0.310E-05
 -11.496  0.317E-05  0.317E-05
 -11.486  0.324E-05  0.324E-05
 -11.476  0.330E-05  0.330E-05
 -11.466  0.335E-05  0.335E-05
 -11.456  0.341E-05  0.341E-05
 -11.446  0.345E-05  0.345E-05
 -11.436  0.349E-05  0.349E-05
 -11.426  0.352E-05  0.352E-05
 -11.416  0.355E-05  0.355E-05
 -11.406  0.357E-05  0.357E-05
 -11.396  0.358E-05  0.358E-05
 -11.386  0.357E-05  0.357E-05
 -11.376  0.356E-05  0.356E-05
 -11.366  0.354E-05  0.354E-05
 -11.356  0.351E-05  0.351E-05
 -11.346  0.346E-05  0.346E-05
 -11.336  0.340E-05  0.340E-05
 -11.326  0.332E-05  0.332E-05
 -11.316  0.323E-05  0.323E-05
 -11.306  0.312E-05  0.312E-05
 -11.296  0.299E-05  0.299E-05
 -11.286  0.284E-05  0.284E-05
 -11.276  0.267E-05  0.267E-05
 -11.266  0.248E-05  0.248E-05
 -11.256  0.226E-05  0.226E-05
 -11.246  0.202E-05  0.202E-05
 -11.236  0.174E-05  0.174E-05
 -11.226  0.144E-05  0.144E-05
 -11.216  0.110E-05  0.110E-05
 -11.206  0.734E-06  0.734E-06
 -11.196  0.326E-06  0.326E-06
 -11.186 -0.122E-06 -0.122E-06
 -11.176 -0.612E-06 -0.612E-06
 -11.166 -0.115E-05 -0.115E-05
 -11.156 -0.173E-05 -0.173E-05
 -11.146 -0.237E-05 -0.237E-05
 -11.136 -0.306E-05 -0.306E-05
 -11.126 -0.381E-05 -0.381E-05
 -11.116 -0.462E-05 -0.462E-05
 -11.106 -0.550E-05 -0.550E-05
 -11.096 -0.646E-05 -0.646E-05
 -11.086 -0.748E-05 -0.748E-05
 -11.076 -0.859E-05 -0.859E-05
 -11.066 -0.979E-05 -0.979E-05
 -11.056 -0.111E-04 -0.111E-04
 -11.046 -0.125E-04 -0.125E-04
 -11.036 -0.139E-04 -0.139E-04
 -11.026 -0.155E-04 -0.155E-04
 -11.016 -0.173E-04 -0.173E-04
 -11.006 -0.191E-04 -0.191E-04
 -10.996 -0.211E-04 -0.211E-04
 -10.986 -0.232E-04 -0.232E-04
 -10.976 -0.254E-04 -0.254E-04
 -10.966 -0.278E-04 -0.278E-04
 -10.956 -0.304E-04 -0.304E-04
 -10.946 -0.332E-04 -0.332E-04
 -10.936 -0.361E-04 -0.361E-04
 -10.926 -0.392E-04 -0.392E-04
 -10.916 -0.425E-04 -0.425E-04
 -10.906 -0.461E-04 -0.461E-04
 -10.896 -0.499E-04 -0.499E-04
 -10.886 -0.539E-04 -0.539E-04
 -10.876 -0.582E-04 -0.582E-04
 -10.866 -0.627E-04 -0.627E-04
 -10.856 -0.675E-04 -0.675E-04
 -10.846 -0.726E-04 -0.726E-04
 -10.836 -0.781E-04 -0.781E-04
 -10.826 -0.838E-04 -0.838E-04
 -10.816 -0.899E-04 -0.899E-04
 -10.806 -0.963E-04 -0.963E-04
 -10.796 -0.103E-03 -0.103E-03
 -10.786 -0.110E-03 -0.110E-03
 -10.776 -0.118E-03 -0.118E-03
 -10.766 -0.126E-03 -0.126E-03
 -10.756 -0.135E-03 -0.135E-03
 -10.746 -0.143E-03 -0.143E-03
 -10.736 -0.153E-03 -0.153E-03
 -10.726 -0.163E-03 -0.163E-03
 -10.716 -0.173E-03 -0.173E-03
 -10.706 -0.184E-03 -0.184E-03
 -10.696 -0.196E-03 -0.196E-03
 -10.686 -0.208E-03 -0.208E-03
 -10.676 -0.221E-03 -0.221E-03
 -10.666 -0.234E-03 -0.234E-03
 -10.656 -0.248E-03 -0.248E-03
 -10.646 -0.263E-03 -0.263E-03
 -10.636 -0.278E-03 -0.278E-03
 -10.626 -0.295E-03 -0.295E-03
 -10.616 -0.311E-03 -0.311E-03
 -10.606 -0.329E-03 -0.329E-03
 -10.596 -0.348E-03 -0.348E-03
 -10.586 -0.367E-03 -0.367E-03
 -10.576 -0.387E-03 -0.387E-03
 -10.566 -0.408E-03 -0.408E-03
 -10.556 -0.430E-03 -0.430E-03
 -10.546 -0.452E-03 -0.452E-03
 -10.536 -0.476E-03 -0.476E-03
 -10.526 -0.500E-03 -0.500E-03
 -10.516 -0.526E-03 -0.526E-03
 -10.506 -0.552E-03 -0.552E-03
 -10.496 -0.579E-03 -0.579E-03
 -10.486 -0.608E-03 -0.608E-03
 -10.476 -0.637E-03 -0.637E-03
 -10.466 -0.667E-03 -0.667E-03
 -10.456 -0.698E-03 -0.698E-03
 -10.446 -0.730E-03 -0.730E-03
 -10.436 -0.764E-03 -0.764E-03
 -10.426 -0.798E-03 -0.798E-03
 -10.416 -0.833E-03 -0.833E-03
 -10.406 -0.869E-03 -0.869E-03
 -10.396 -0.906E-03 -0.906E-03
 -10.386 -0.944E-03 -0.944E-03
 -10.376 -0.983E-03 -0.983E-03
 -10.366 -0.102E-02 -0.102E-02
 -10.356 -0.106E-02 -0.106E-02
 -10.346 -0.111E-02 -0.111E-02
 -10.336 -0.115E-02 -0.115E-02
 -10.326 -0.119E-02 -0.119E-02
 -10.316 -0.124E-02 -0.124E-02
 -10.306 -0.128E-02 -0.128E-02
 -10.296 -0.133E-02 -0.133E-02
 -10.286 -0.137E-02 -0.137E-02
 -10.276 -0.142E-02 -0.142E-02
 -10.266 -0.146E-02 -0.146E-02
 -10.256 -0.151E-02 -0.151E-02
 -10.246 -0.156E-02 -0.156E-02
 -10.236 -0.161E-02 -0.161E-02
 -10.226 -0.165E-02 -0.165E-02
 -10.216 -0.170E-02 -0.170E-02
 -10.206 -0.175E-02 -0.175E-02
 -10.196 -0.180E-02 -0.180E-02
 -10.186 -0.184E-02 -0.184E-02
 -10.176 -0.189E-02 -0.189E-02
 -10.166 -0.193E-02 -0.193E-02
 -10.156 -0.198E-02 -0.198E-02
 -10.146 -0.202E-02 -0.202E-02
 -10.136 -0.206E-02 -0.206E-02
 -10.126 -0.210E-02 -0.210E-02
 -10.116 -0.214E-02 -0.214E-02
 -10.106 -0.218E-02 -0.218E-02
 -10.096 -0.222E-02 -0.222E-02
 -10.086 -0.225E-02 -0.225E-02
 -10.076 -0.228E-02 -0.228E-02
 -10.066 -0.231E-02 -0.231E-02
 -10.056 -0.233E-02 -0.233E-02
 -10.046 -0.235E-02 -0.235E-02
 -10.036 -0.237E-02 -0.237E-02
 -10.026 -0.239E-02 -0.239E-02
 -10.016 -0.240E-02 -0.240E-02
 -10.006 -0.240E-02 -0.240E-02
  -9.996 -0.241E-02 -0.241E-02
  -9.986 -0.240E-02 -0.240E-02
  -9.976 -0.240E-02 -0.240E-02
  -9.966 -0.238E-02 -0.238E-02
  -9.956 -0.236E-02 -0.236E-02
  -9.946 -0.234E-02 -0.234E-02
  -9.936 -0.231E-02 -0.231E-02
  -9.926 -0.227E-02 -0.227E-02
  -9.916 -0.222E-02 -0.222E-02
  -9.906 -0.217E-02 -0.217E-02
  -9.896 -0.211E-02 -0.211E-02
  -9.886 -0.204E-02 -0.204E-02
  -9.876 -0.196E-02 -0.196E-02
  -9.866 -0.188E-02 -0.188E-02
  -9.856 -0.178E-02 -0.178E-02
  -9.846 -0.168E-02 -0.168E-02
  -9.836 -0.156E-02 -0.156E-02
  -9.826 -0.144E-02 -0.144E-02
  -9.816 -0.131E-02 -0.131E-02
  -9.806 -0.116E-02 -0.116E-02
  -9.796 -0.101E-02 -0.101E-02
  -9.786 -0.837E-03 -0.837E-03
  -9.776 -0.658E-03 -0.658E-03
  -9.766 -0.467E-03 -0.467E-03
  -9.756 -0.263E-03 -0.263E-03
  -9.746 -0.472E-04 -0.472E-04
  -9.736  0.182E-03  0.182E-03
  -9.726  0.423E-03  0.423E-03
  -9.716  0.679E-03  0.679E-03
  -9.706  0.947E-03  0.947E-03
  -9.696  0.123E-02  0.123E-02
  -9.686  0.153E-02  0.153E-02
  -9.676  0.184E-02  0.184E-02
  -9.666  0.216E-02  0.216E-02
  -9.656  0.250E-02  0.250E-02
  -9.646  0.285E-02  0.285E-02
  -9.636  0.322E-02  0.322E-02
  -9.626  0.360E-02  0.360E-02
  -9.616  0.400E-02  0.400E-02
  -9.606  0.441E-02  0.441E-02
  -9.596  0.484E-02  0.484E-02
  -9.586  0.528E-02  0.528E-02
  -9.576  0.574E-02  0.574E-02
  -9.566  0.621E-02  0.621E-02
  -9.556  0.670E-02  0.670E-02
  -9.546  0.720E-02  0.720E-02
  -9.536  0.771E-02  0.771E-02
  -9.526  0.824E-02  0.824E-02
  -9.516  0.878E-02  0.878E-02
  -9.506  0.934E-02  0.934E-02
  -9.496  0.991E-02  0.991E-02
  -9.486  0.105E-01  0.105E-01
  -9.476  0.111E-01  0.111E-01
  -9.466  0.117E-01  0.117E-01
  -9.456  0.123E-01  0.123E-01
  -9.446  0.129E-01  0.129E-01
  -9.436  0.136E-01  0.136E-01
  -9.426  0.142E-01  0.142E-01
  -9.416  0.149E-01  0.149E-01
  -9.406  0.156E-01  0.156E-01
  -9.396  0.163E-01  0.163E-01
  -9.386  0.170E-01  0.170E-01
  -9.376  0.177E-01  0.177E-01
  -9.366  0.184E-01  0.184E-01
  -9.356  0.191E-01  0.191E-01
  -9.346  0.198E-01  0.198E-01
  -9.336  0.205E-01  0.205E-01
  -9.326  0.213E-01  0.213E-01
  -9.316  0.220E-01  0.220E-01
  -9.306  0.227E-01  0.227E-01
  -9.296  0.235E-01  0.235E-01
  -9.286  0.242E-01  0.242E-01
  -9.276  0.250E-01  0.250E-01
  -9.266  0.257E-01  0.257E-01
  -9.256  0.265E-01  0.265E-01
  -9.246  0.272E-01  0.272E-01
  -9.236  0.280E-01  0.280E-01
  -9.226  0.287E-01  0.287E-01
  -9.216  0.295E-01  0.295E-01
  -9.206  0.302E-01  0.302E-01
  -9.196  0.310E-01  0.310E-01
  -9.186  0.317E-01  0.317E-01
  -9.176  0.324E-01  0.324E-01
  -9.166  0.332E-01  0.332E-01
  -9.156  0.339E-01  0.339E-01
  -9.146  0.346E-01  0.346E-01
  -9.136  0.353E-01  0.353E-01
  -9.126  0.360E-01  0.360E-01
  -9.116  0.367E-01  0.367E-01
  -9.106  0.374E-01  0.374E-01
  -9.096  0.380E-01  0.380E-01
  -9.086  0.387E-01  0.387E-01
  -9.076  0.393E-01  0.393E-01
  -9.066  0.399E-01  0.399E-01
  -9.056  0.406E-01  0.406E-01
  -9.046  0.412E-01  0.412E-01
  -9.036  0.418E-01  0.418E-01
  -9.026  0.423E-01  0.423E-01
  -9.016  0.429E-01  0.429E-01
  -9.006  0.435E-01  0.435E-01
  -8.996  0.440E-01  0.440E-01
  -8.986  0.445E-01  0.445E-01
  -8.976  0.450E-01  0.450E-01
  -8.966  0.455E-01  0.455E-01
  -8.956  0.460E-01  0.460E-01
  -8.946  0.464E-01  0.464E-01
  -8.936  0.469E-01  0.469E-01
  -8.926  0.473E-01  0.473E-01
  -8.916  0.477E-01  0.477E-01
  -8.906  0.481E-01  0.481E-01
  -8.896  0.485E-01  0.485E-01
  -8.886  0.488E-01  0.488E-01
  -8.876  0.492E-01  0.492E-01
  -8.866  0.495E-01  0.495E-01
  -8.856  0.498E-01  0.498E-01
  -8.846  0.501E-01  0.501E-01
  -8.836  0.504E-01  0.504E-01
  -8.826  0.507E-01  0.507E-01
  -8.816  0.509E-01  0.509E-01
  -8.806  0.511E-01  0.511E-01
  -8.796  0.513E-01  0.513E-01
  -8.786  0.515E-01  0.515E-01
  -8.776  0.517E-01  0.517E-01
  -8.766  0.519E-01  0.519E-01
  -8.756  0.520E-01  0.520E-01
  -8.746  0.522E-01  0.522E-01
  -8.736  0.523E-01  0.523E-01
  -8.726  0.524E-01  0.524E-01
  -8.716  0.525E-01  0.525E-01
  -8.706  0.526E-01  0.526E-01
  -8.696  0.527E-01  0.527E-01
  -8.686  0.527E-01  0.527E-01
  -8.676  0.528E-01  0.528E-01
  -8.666  0.528E-01  0.528E-01
  -8.656  0.528E-01  0.528E-01
  -8.646  0.529E-01  0.529E-01
  -8.636  0.529E-01  0.529E-01
  -8.626  0.529E-01  0.529E-01
  -8.616  0.528E-01  0.528E-01
  -8.606  0.528E-01  0.528E-01
  -8.596  0.528E-01  0.528E-01
  -8.586  0.527E-01  0.527E-01
  -8.576  0.527E-01  0.527E-01
  -8.566  0.526E-01  0.526E-01
  -8.556  0.526E-01  0.526E-01
  -8.546  0.525E-01  0.525E-01
  -8.536  0.524E-01  0.524E-01
  -8.526  0.524E-01  0.524E-01
  -8.516  0.523E-01  0.523E-01
  -8.506  0.522E-01  0.522E-01
  -8.496  0.521E-01  0.521E-01
  -8.486  0.520E-01  0.520E-01
  -8.476  0.519E-01  0.519E-01
  -8.466  0.518E-01  0.518E-01
  -8.456  0.518E-01  0.518E-01
  -8.446  0.517E-01  0.517E-01
  -8.436  0.516E-01  0.516E-01
  -8.426  0.515E-01  0.515E-01
  -8.416  0.514E-01  0.514E-01
  -8.406  0.513E-01  0.513E-01
  -8.396  0.512E-01  0.512E-01
  -8.386  0.511E-01  0.511E-01
  -8.376  0.511E-01  0.511E-01
  -8.366  0.510E-01  0.510E-01
  -8.356  0.509E-01  0.509E-01
  -8.346  0.509E-01  0.509E-01
  -8.336  0.508E-01  0.508E-01
  -8.326  0.508E-01  0.508E-01
  -8.316  0.508E-01  0.508E-01
  -8.306  0.508E-01  0.508E-01
  -8.296  0.508E-01  0.508E-01
  -8.286  0.508E-01  0.508E-01
  -8.276  0.508E-01  0.508E-01
  -8.266  0.508E-01  0.508E-01
  -8.256  0.509E-01  0.509E-01
  -8.246  0.510E-01  0.510E-01
  -8.236  0.510E-01  0.510E-01
  -8.226  0.512E-01  0.512E-01
  -8.216  0.513E-01  0.513E-01
  -8.206  0.514E-01  0.514E-01
  -8.196  0.516E-01  0.516E-01
  -8.186  0.518E-01  0.518E-01
  -8.176  0.520E-01  0.520E-01
  -8.166  0.523E-01  0.523E-01
  -8.156  0.525E-01  0.525E-01
  -8.146  0.528E-01  0.528E-01
  -8.136  0.532E-01  0.532E-01
  -8.126  0.535E-01  0.535E-01
  -8.116  0.539E-01  0.539E-01
  -8.106  0.543E-01  0.543E-01
  -8.096  0.548E-01  0.548E-01
  -8.086  0.553E-01  0.553E-01
  -8.076  0.558E-01  0.558E-01
  -8.066  0.564E-01  0.564E-01
  -8.056  0.570E-01  0.570E-01
  -8.046  0.577E-01  0.577E-01
  -8.036  0.583E-01  0.583E-01
  -8.026  0.591E-01  0.591E-01
  -8.016  0.598E-01  0.598E-01
  -8.006  0.607E-01  0.607E-01
  -7.996  0.615E-01  0.615E-01
  -7.986  0.624E-01  0.624E-01
  -7.976  0.634E-01  0.634E-01
  -7.966  0.644E-01  0.644E-01
  -7.956  0.655E-01  0.655E-01
  -7.946  0.666E-01  0.666E-01
  -7.936  0.677E-01  0.677E-01
  -7.926  0.689E-01  0.689E-01
  -7.916  0.702E-01  0.702E-01
  -7.906  0.715E-01  0.715E-01
  -7.896  0.729E-01  0.729E-01
  -7.886  0.743E-01  0.743E-01
  -7.876  0.758E-01  0.758E-01
  -7.866  0.773E-01  0.773E-01
  -7.856  0.789E-01  0.789E-01
  -7.846  0.805E-01  0.805E-01
  -7.836  0.822E-01  0.822E-01
  -7.826  0.839E-01  0.839E-01
  -7.816  0.857E-01  0.857E-01
  -7.806  0.875E-01  0.875E-01
  -7.796  0.894E-01  0.894E-01
  -7.786  0.914E-01  0.914E-01
  -7.776  0.934E-01  0.934E-01
  -7.766  0.954E-01  0.954E-01
  -7.756  0.975E-01  0.975E-01
  -7.746  0.997E-01  0.997E-01
  -7.736  0.102E+00  0.102E+00
  -7.726  0.104E+00  0.104E+00
  -7.716  0.106E+00  0.106E+00
  -7.706  0.109E+00  0.109E+00
  -7.696  0.111E+00  0.111E+00
  -7.686  0.113E+00  0.113E+00
  -7.676  0.116E+00  0.116E+00
  -7.666  0.118E+00  0.118E+00
  -7.656  0.121E+00  0.121E+00
  -7.646  0.123E+00  0.123E+00
  -7.636  0.126E+00  0.126E+00
  -7.626  0.128E+00  0.128E+00
  -7.616  0.131E+00  0.131E+00
  -7.606  0.134E+00  0.134E+00
  -7.596  0.136E+00  0.136E+00
  -7.586  0.139E+00  0.139E+00
  -7.576  0.142E+00  0.142E+00
  -7.566  0.144E+00  0.144E+00
  -7.556  0.147E+00  0.147E+00
  -7.546  0.150E+00  0.150E+00
  -7.536  0.152E+00  0.152E+00
  -7.526  0.155E+00  0.155E+00
  -7.516  0.158E+00  0.158E+00
  -7.506  0.160E+00  0.160E+00
  -7.496  0.163E+00  0.163E+00
  -7.486  0.165E+00  0.165E+00
  -7.476  0.168E+00  0.168E+00
  -7.466  0.171E+00  0.171E+00
  -7.456  0.173E+00  0.173E+00
  -7.446  0.176E+00  0.176E+00
  -7.436  0.178E+00  0.178E+00
  -7.426  0.180E+00  0.180E+00
  -7.416  0.183E+00  0.183E+00
  -7.406  0.185E+00  0.185E+00
  -7.396  0.187E+00  0.187E+00
  -7.386  0.190E+00  0.190E+00
  -7.376  0.192E+00  0.192E+00
  -7.366  0.194E+00  0.194E+00
  -7.356  0.196E+00  0.196E+00
  -7.346  0.198E+00  0.198E+00
  -7.336  0.199E+00  0.199E+00
  -7.326  0.201E+00  0.201E+00
  -7.316  0.203E+00  0.203E+00
  -7.306  0.204E+00  0.204E+00
  -7.296  0.206E+00  0.206E+00
  -7.286  0.207E+00  0.207E+00
  -7.276  0.209E+00  0.209E+00
  -7.266  0.210E+00  0.210E+00
  -7.256  0.211E+00  0.211E+00
  -7.246  0.212E+00  0.212E+00
  -7.236  0.213E+00  0.213E+00
  -7.226  0.214E+00  0.214E+00
  -7.216  0.214E+00  0.214E+00
  -7.206  0.215E+00  0.215E+00
  -7.196  0.215E+00  0.215E+00
  -7.186  0.216E+00  0.216E+00
  -7.176  0.216E+00  0.216E+00
  -7.166  0.216E+00  0.216E+00
  -7.156  0.216E+00  0.216E+00
  -7.146  0.216E+00  0.216E+00
  -7.136  0.216E+00  0.216E+00
  -7.126  0.215E+00  0.215E+00
  -7.116  0.215E+00  0.215E+00
  -7.106  0.214E+00  0.214E+00
  -7.096  0.214E+00  0.214E+00
  -7.086  0.213E+00  0.213E+00
  -7.076  0.212E+00  0.212E+00
  -7.066  0.211E+00  0.211E+00
  -7.056  0.209E+00  0.209E+00
  -7.046  0.208E+00  0.208E+00
  -7.036  0.207E+00  0.207E+00
  -7.026  0.205E+00  0.205E+00
  -7.016  0.203E+00  0.203E+00
  -7.006  0.202E+00  0.202E+00
  -6.996  0.200E+00  0.200E+00
  -6.986  0.198E+00  0.198E+00
  -6.976  0.196E+00  0.196E+00
  -6.966  0.193E+00  0.193E+00
  -6.956  0.191E+00  0.191E+00
  -6.946  0.189E+00  0.189E+00
  -6.936  0.186E+00  0.186E+00
  -6.926  0.184E+00  0.184E+00
  -6.916  0.181E+00  0.181E+00
  -6.906  0.178E+00  0.178E+00
  -6.896  0.175E+00  0.175E+00
  -6.886  0.172E+00  0.172E+00
  -6.876  0.169E+00  0.169E+00
  -6.866  0.166E+00  0.166E+00
  -6.856  0.163E+00  0.163E+00
  -6.846  0.160E+00  0.160E+00
  -6.836  0.157E+00  0.157E+00
  -6.826  0.153E+00  0.153E+00
  -6.816  0.150E+00  0.150E+00
  -6.806  0.147E+00  0.147E+00
  -6.796  0.143E+00  0.143E+00
  -6.786  0.140E+00  0.140E+00
  -6.776  0.136E+00  0.136E+00
  -6.766  0.133E+00  0.133E+00
  -6.756  0.129E+00  0.129E+00
  -6.746  0.126E+00  0.126E+00
  -6.736  0.122E+00  0.122E+00
  -6.726  0.118E+00  0.118E+00
  -6.716  0.115E+00  0.115E+00
  -6.706  0.111E+00  0.111E+00
  -6.696  0.108E+00  0.108E+00
  -6.686  0.104E+00  0.104E+00
  -6.676  0.101E+00  0.101E+00
  -6.666  0.970E-01  0.970E-01
  -6.656  0.935E-01  0.935E-01
  -6.646  0.900E-01  0.900E-01
  -6.636  0.866E-01  0.866E-01
  -6.626  0.832E-01  0.832E-01
  -6.616  0.798E-01  0.798E-01
  -6.606  0.765E-01  0.765E-01
  -6.596  0.733E-01  0.733E-01
  -6.586  0.701E-01  0.701E-01
  -6.576  0.669E-01  0.669E-01
  -6.566  0.639E-01  0.639E-01
  -6.556  0.609E-01  0.609E-01
  -6.546  0.579E-01  0.579E-01
  -6.536  0.551E-01  0.551E-01
  -6.526  0.523E-01  0.523E-01
  -6.516  0.497E-01  0.497E-01
  -6.506  0.471E-01  0.471E-01
  -6.496  0.446E-01  0.446E-01
  -6.486  0.422E-01  0.422E-01
  -6.476  0.399E-01  0.399E-01
  -6.466  0.377E-01  0.377E-01
  -6.456  0.356E-01  0.356E-01
  -6.446  0.336E-01  0.336E-01
  -6.436  0.317E-01  0.317E-01
  -6.426  0.300E-01  0.300E-01
  -6.416  0.283E-01  0.283E-01
  -6.406  0.268E-01  0.268E-01
  -6.396  0.254E-01  0.254E-01
  -6.386  0.242E-01  0.242E-01
  -6.376  0.230E-01  0.230E-01
  -6.366  0.220E-01  0.220E-01
  -6.356  0.211E-01  0.211E-01
  -6.346  0.204E-01  0.204E-01
  -6.336  0.198E-01  0.198E-01
  -6.326  0.193E-01  0.193E-01
  -6.316  0.189E-01  0.189E-01
  -6.306  0.187E-01  0.187E-01
  -6.296  0.187E-01  0.187E-01
  -6.286  0.187E-01  0.187E-01
  -6.276  0.189E-01  0.189E-01
  -6.266  0.193E-01  0.193E-01
  -6.256  0.198E-01  0.198E-01
  -6.246  0.204E-01  0.204E-01
  -6.236  0.212E-01  0.212E-01
  -6.226  0.222E-01  0.222E-01
  -6.216  0.232E-01  0.232E-01
  -6.206  0.244E-01  0.244E-01
  -6.196  0.258E-01  0.258E-01
  -6.186  0.273E-01  0.273E-01
  -6.176  0.289E-01  0.289E-01
  -6.166  0.307E-01  0.307E-01
  -6.156  0.326E-01  0.326E-01
  -6.146  0.347E-01  0.347E-01
  -6.136  0.368E-01  0.368E-01
  -6.126  0.392E-01  0.392E-01
  -6.116  0.416E-01  0.416E-01
  -6.106  0.442E-01  0.442E-01
  -6.096  0.469E-01  0.469E-01
  -6.086  0.497E-01  0.497E-01
  -6.076  0.527E-01  0.527E-01
  -6.066  0.558E-01  0.558E-01
  -6.056  0.590E-01  0.590E-01
  -6.046  0.623E-01  0.623E-01
  -6.036  0.657E-01  0.657E-01
  -6.026  0.693E-01  0.693E-01
  -6.016  0.729E-01  0.729E-01
  -6.006  0.767E-01  0.767E-01
  -5.996  0.805E-01  0.805E-01
  -5.986  0.845E-01  0.845E-01
  -5.976  0.885E-01  0.885E-01
  -5.966  0.926E-01  0.926E-01
  -5.956  0.968E-01  0.968E-01
  -5.946  0.101E+00  0.101E+00
  -5.936  0.105E+00  0.105E+00
  -5.926  0.110E+00  0.110E+00
  -5.916  0.114E+00  0.114E+00
  -5.906  0.119E+00  0.119E+00
  -5.896  0.123E+00  0.123E+00
  -5.886  0.128E+00  0.128E+00
  -5.876  0.133E+00  0.133E+00
  -5.866  0.137E+00  0.137E+00
  -5.856  0.142E+00  0.142E+00
  -5.846  0.147E+00  0.147E+00
  -5.836  0.152E+00  0.152E+00
  -5.826  0.156E+00  0.156E+00
  -5.816  0.161E+00  0.161E+00
  -5.806  0.166E+00  0.166E+00
  -5.796  0.171E+00  0.171E+00
  -5.786  0.176E+00  0.176E+00
  -5.776  0.180E+00  0.180E+00
  -5.766  0.185E+00  0.185E+00
  -5.756  0.190E+00  0.190E+00
  -5.746  0.194E+00  0.194E+00
  -5.736  0.199E+00  0.199E+00
  -5.726  0.204E+00  0.204E+00
  -5.716  0.208E+00  0.208E+00
  -5.706  0.213E+00  0.213E+00
  -5.696  0.217E+00  0.217E+00
  -5.686  0.221E+00  0.221E+00
  -5.676  0.225E+00  0.225E+00
  -5.666  0.230E+00  0.230E+00
  -5.656  0.234E+00  0.234E+00
  -5.646  0.237E+00  0.237E+00
  -5.636  0.241E+00  0.241E+00
  -5.626  0.245E+00  0.245E+00
  -5.616  0.249E+00  0.249E+00
  -5.606  0.252E+00  0.252E+00
  -5.596  0.255E+00  0.255E+00
  -5.586  0.259E+00  0.259E+00
  -5.576  0.262E+00  0.262E+00
  -5.566  0.265E+00  0.265E+00
  -5.556  0.267E+00  0.267E+00
  -5.546  0.270E+00  0.270E+00
  -5.536  0.272E+00  0.272E+00
  -5.526  0.275E+00  0.275E+00
  -5.516  0.277E+00  0.277E+00
  -5.506  0.279E+00  0.279E+00
  -5.496  0.281E+00  0.281E+00
  -5.486  0.282E+00  0.282E+00
  -5.476  0.284E+00  0.284E+00
  -5.466  0.285E+00  0.285E+00
  -5.456  0.286E+00  0.286E+00
  -5.446  0.287E+00  0.287E+00
  -5.436  0.288E+00  0.288E+00
  -5.426  0.288E+00  0.288E+00
  -5.416  0.289E+00  0.289E+00
  -5.406  0.289E+00  0.289E+00
  -5.396  0.289E+00  0.289E+00
  -5.386  0.289E+00  0.289E+00
  -5.376  0.289E+00  0.289E+00
  -5.366  0.288E+00  0.288E+00
  -5.356  0.287E+00  0.287E+00
  -5.346  0.287E+00  0.287E+00
  -5.336  0.286E+00  0.286E+00
  -5.326  0.284E+00  0.284E+00
  -5.316  0.283E+00  0.283E+00
  -5.306  0.281E+00  0.281E+00
  -5.296  0.280E+00  0.280E+00
  -5.286  0.278E+00  0.278E+00
  -5.276  0.276E+00  0.276E+00
  -5.266  0.274E+00  0.274E+00
  -5.256  0.271E+00  0.271E+00
  -5.246  0.269E+00  0.269E+00
  -5.236  0.266E+00  0.266E+00
  -5.226  0.263E+00  0.263E+00
  -5.216  0.260E+00  0.260E+00
  -5.206  0.257E+00  0.257E+00
  -5.196  0.254E+00  0.254E+00
  -5.186  0.251E+00  0.251E+00
  -5.176  0.248E+00  0.248E+00
  -5.166  0.244E+00  0.244E+00
  -5.156  0.240E+00  0.240E+00
  -5.146  0.237E+00  0.237E+00
  -5.136  0.233E+00  0.233E+00
  -5.126  0.229E+00  0.229E+00
  -5.116  0.225E+00  0.225E+00
  -5.106  0.221E+00  0.221E+00
  -5.096  0.217E+00  0.217E+00
  -5.086  0.213E+00  0.213E+00
  -5.076  0.209E+00  0.209E+00
  -5.066  0.204E+00  0.204E+00
  -5.056  0.200E+00  0.200E+00
  -5.046  0.196E+00  0.196E+00
  -5.036  0.191E+00  0.191E+00
  -5.026  0.187E+00  0.187E+00
  -5.016  0.182E+00  0.182E+00
  -5.006  0.178E+00  0.178E+00
  -4.996  0.174E+00  0.174E+00
  -4.986  0.169E+00  0.169E+00
  -4.976  0.165E+00  0.165E+00
  -4.966  0.160E+00  0.160E+00
  -4.956  0.156E+00  0.156E+00
  -4.946  0.151E+00  0.151E+00
  -4.936  0.147E+00  0.147E+00
  -4.926  0.143E+00  0.143E+00
  -4.916  0.139E+00  0.139E+00
  -4.906  0.134E+00  0.134E+00
  -4.896  0.130E+00  0.130E+00
  -4.886  0.126E+00  0.126E+00
  -4.876  0.122E+00  0.122E+00
  -4.866  0.118E+00  0.118E+00
  -4.856  0.114E+00  0.114E+00
  -4.846  0.110E+00  0.110E+00
  -4.836  0.106E+00  0.106E+00
  -4.826  0.102E+00  0.102E+00
  -4.816  0.988E-01  0.988E-01
  -4.806  0.952E-01  0.952E-01
  -4.796  0.917E-01  0.917E-01
  -4.786  0.883E-01  0.883E-01
  -4.776  0.850E-01  0.850E-01
  -4.766  0.817E-01  0.817E-01
  -4.756  0.786E-01  0.786E-01
  -4.746  0.755E-01  0.755E-01
  -4.736  0.726E-01  0.726E-01
  -4.726  0.697E-01  0.697E-01
  -4.716  0.669E-01  0.669E-01
  -4.706  0.643E-01  0.643E-01
  -4.696  0.617E-01  0.617E-01
  -4.686  0.592E-01  0.592E-01
  -4.676  0.568E-01  0.568E-01
  -4.666  0.546E-01  0.546E-01
  -4.656  0.524E-01  0.524E-01
  -4.646  0.503E-01  0.503E-01
  -4.636  0.484E-01  0.484E-01
  -4.626  0.465E-01  0.465E-01
  -4.616  0.447E-01  0.447E-01
  -4.606  0.430E-01  0.430E-01
  -4.596  0.415E-01  0.415E-01
  -4.586  0.400E-01  0.400E-01
  -4.576  0.386E-01  0.386E-01
  -4.566  0.373E-01  0.373E-01
  -4.556  0.361E-01  0.361E-01
  -4.546  0.350E-01  0.350E-01
  -4.536  0.340E-01  0.340E-01
  -4.526  0.330E-01  0.330E-01
  -4.516  0.322E-01  0.322E-01
  -4.506  0.314E-01  0.314E-01
  -4.496  0.308E-01  0.308E-01
  -4.486  0.302E-01  0.302E-01
  -4.476  0.297E-01  0.297E-01
  -4.466  0.292E-01  0.292E-01
  -4.456  0.289E-01  0.289E-01
  -4.446  0.286E-01  0.286E-01
  -4.436  0.284E-01  0.284E-01
  -4.426  0.283E-01  0.283E-01
  -4.416  0.282E-01  0.282E-01
  -4.406  0.282E-01  0.282E-01
  -4.396  0.283E-01  0.283E-01
  -4.386  0.284E-01  0.284E-01
  -4.376  0.286E-01  0.286E-01
  -4.366  0.288E-01  0.288E-01
  -4.356  0.292E-01  0.292E-01
  -4.346  0.295E-01  0.295E-01
  -4.336  0.299E-01  0.299E-01
  -4.326  0.304E-01  0.304E-01
  -4.316  0.310E-01  0.310E-01
  -4.306  0.315E-01  0.315E-01
  -4.296  0.322E-01  0.322E-01
  -4.286  0.328E-01  0.328E-01
  -4.276  0.335E-01  0.335E-01
  -4.266  0.343E-01  0.343E-01
  -4.256  0.351E-01  0.351E-01
  -4.246  0.359E-01  0.359E-01
  -4.236  0.368E-01  0.368E-01
  -4.226  0.377E-01  0.377E-01
  -4.216  0.387E-01  0.387E-01
  -4.206  0.397E-01  0.397E-01
  -4.196  0.407E-01  0.407E-01
  -4.186  0.417E-01  0.417E-01
  -4.176  0.428E-01  0.428E-01
  -4.166  0.439E-01  0.439E-01
  -4.156  0.450E-01  0.450E-01
  -4.146  0.462E-01  0.462E-01
  -4.136  0.474E-01  0.474E-01
  -4.126  0.486E-01  0.486E-01
  -4.116  0.498E-01  0.498E-01
  -4.106  0.511E-01  0.511E-01
  -4.096  0.523E-01  0.523E-01
  -4.086  0.536E-01  0.536E-01
  -4.076  0.549E-01  0.549E-01
  -4.066  0.562E-01  0.562E-01
  -4.056  0.576E-01  0.576E-01
  -4.046  0.589E-01  0.589E-01
  -4.036  0.603E-01  0.603E-01
  -4.026  0.617E-01  0.617E-01
  -4.016  0.631E-01  0.631E-01
  -4.006  0.645E-01  0.645E-01
  -3.996  0.659E-01  0.659E-01
  -3.986  0.673E-01  0.673E-01
  -3.976  0.687E-01  0.687E-01
  -3.966  0.702E-01  0.702E-01
  -3.956  0.716E-01  0.716E-01
  -3.946  0.730E-01  0.730E-01
  -3.936  0.745E-01  0.745E-01
  -3.926  0.759E-01  0.759E-01
  -3.916  0.774E-01  0.774E-01
  -3.906  0.788E-01  0.788E-01
  -3.896  0.803E-01  0.803E-01
  -3.886  0.817E-01  0.817E-01
  -3.876  0.831E-01  0.831E-01
  -3.866  0.846E-01  0.846E-01
  -3.856  0.860E-01  0.860E-01
  -3.846  0.874E-01  0.874E-01
  -3.836  0.888E-01  0.888E-01
  -3.826  0.902E-01  0.902E-01
  -3.816  0.916E-01  0.916E-01
  -3.806  0.929E-01  0.929E-01
  -3.796  0.943E-01  0.943E-01
  -3.786  0.956E-01  0.956E-01
  -3.776  0.969E-01  0.969E-01
  -3.766  0.982E-01  0.982E-01
  -3.756  0.995E-01  0.995E-01
  -3.746  0.101E+00  0.101E+00
  -3.736  0.102E+00  0.102E+00
  -3.726  0.103E+00  0.103E+00
  -3.716  0.104E+00  0.104E+00
  -3.706  0.106E+00  0.106E+00
  -3.696  0.107E+00  0.107E+00
  -3.686  0.108E+00  0.108E+00
  -3.676  0.109E+00  0.109E+00
  -3.666  0.110E+00  0.110E+00
  -3.656  0.111E+00  0.111E+00
  -3.646  0.112E+00  0.112E+00
  -3.636  0.113E+00  0.113E+00
  -3.626  0.114E+00  0.114E+00
  -3.616  0.115E+00  0.115E+00
  -3.606  0.115E+00  0.115E+00
  -3.596  0.116E+00  0.116E+00
  -3.586  0.117E+00  0.117E+00
  -3.576  0.118E+00  0.118E+00
  -3.566  0.118E+00  0.118E+00
  -3.556  0.119E+00  0.119E+00
  -3.546  0.120E+00  0.120E+00
  -3.536  0.120E+00  0.120E+00
  -3.526  0.121E+00  0.121E+00
  -3.516  0.121E+00  0.121E+00
  -3.506  0.121E+00  0.121E+00
  -3.496  0.122E+00  0.122E+00
  -3.486  0.122E+00  0.122E+00
  -3.476  0.122E+00  0.122E+00
  -3.466  0.123E+00  0.123E+00
  -3.456  0.123E+00  0.123E+00
  -3.446  0.123E+00  0.123E+00
  -3.436  0.123E+00  0.123E+00
  -3.426  0.123E+00  0.123E+00
  -3.416  0.123E+00  0.123E+00
  -3.406  0.123E+00  0.123E+00
  -3.396  0.123E+00  0.123E+00
  -3.386  0.122E+00  0.122E+00
  -3.376  0.122E+00  0.122E+00
  -3.366  0.122E+00  0.122E+00
  -3.356  0.122E+00  0.122E+00
  -3.346  0.121E+00  0.121E+00
  -3.336  0.121E+00  0.121E+00
  -3.326  0.120E+00  0.120E+00
  -3.316  0.120E+00  0.120E+00
  -3.306  0.119E+00  0.119E+00
  -3.296  0.119E+00  0.119E+00
  -3.286  0.118E+00  0.118E+00
  -3.276  0.117E+00  0.117E+00
  -3.266  0.117E+00  0.117E+00
  -3.256  0.116E+00  0.116E+00
  -3.246  0.115E+00  0.115E+00
  -3.236  0.114E+00  0.114E+00
  -3.226  0.113E+00  0.113E+00
  -3.216  0.113E+00  0.113E+00
  -3.206  0.112E+00  0.112E+00
  -3.196  0.111E+00  0.111E+00
  -3.186  0.110E+00  0.110E+00
  -3.176  0.109E+00  0.109E+00
  -3.166  0.108E+00  0.108E+00
  -3.156  0.106E+00  0.106E+00
  -3.146  0.105E+00  0.105E+00
  -3.136  0.104E+00  0.104E+00
  -3.126  0.103E+00  0.103E+00
  -3.116  0.102E+00  0.102E+00
  -3.106  0.101E+00  0.101E+00
  -3.096  0.996E-01  0.996E-01
  -3.086  0.984E-01  0.984E-01
  -3.076  0.972E-01  0.972E-01
  -3.066  0.960E-01  0.960E-01
  -3.056  0.948E-01  0.948E-01
  -3.046  0.936E-01  0.936E-01
  -3.036  0.923E-01  0.923E-01
  -3.026  0.911E-01  0.911E-01
  -3.016  0.899E-01  0.899E-01
  -3.006  0.887E-01  0.887E-01
  -2.996  0.875E-01  0.875E-01
  -2.986  0.863E-01  0.863E-01
  -2.976  0.852E-01  0.852E-01
  -2.966  0.840E-01  0.840E-01
  -2.956  0.829E-01  0.829E-01
  -2.946  0.818E-01  0.818E-01
  -2.936  0.807E-01  0.807E-01
  -2.926  0.796E-01  0.796E-01
  -2.916  0.786E-01  0.786E-01
  -2.906  0.776E-01  0.776E-01
  -2.896  0.766E-01  0.766E-01
  -2.886  0.757E-01  0.757E-01
  -2.876  0.748E-01  0.748E-01
  -2.866  0.739E-01  0.739E-01
  -2.856  0.731E-01  0.731E-01
  -2.846  0.724E-01  0.724E-01
  -2.836  0.717E-01  0.717E-01
  -2.826  0.710E-01  0.710E-01
  -2.816  0.704E-01  0.704E-01
  -2.806  0.698E-01  0.698E-01
  -2.796  0.693E-01  0.693E-01
  -2.786  0.689E-01  0.689E-01
  -2.776  0.685E-01  0.685E-01
  -2.766  0.682E-01  0.682E-01
  -2.756  0.680E-01  0.680E-01
  -2.746  0.678E-01  0.678E-01
  -2.736  0.677E-01  0.677E-01
  -2.726  0.677E-01  0.677E-01
  -2.716  0.677E-01  0.677E-01
  -2.706  0.678E-01  0.678E-01
  -2.696  0.680E-01  0.680E-01
  -2.686  0.683E-01  0.683E-01
  -2.676  0.686E-01  0.686E-01
  -2.666  0.690E-01  0.690E-01
  -2.656  0.695E-01  0.695E-01
  -2.646  0.701E-01  0.701E-01
  -2.636  0.708E-01  0.708E-01
  -2.626  0.715E-01  0.715E-01
  -2.616  0.724E-01  0.724E-01
  -2.606  0.733E-01  0.733E-01
  -2.596  0.743E-01  0.743E-01
  -2.586  0.754E-01  0.754E-01
  -2.576  0.766E-01  0.766E-01
  -2.566  0.778E-01  0.778E-01
  -2.556  0.792E-01  0.792E-01
  -2.546  0.806E-01  0.806E-01
  -2.536  0.821E-01  0.821E-01
  -2.526  0.837E-01  0.837E-01
  -2.516  0.854E-01  0.854E-01
  -2.506  0.871E-01  0.871E-01
  -2.496  0.890E-01  0.890E-01
  -2.486  0.909E-01  0.909E-01
  -2.476  0.929E-01  0.929E-01
  -2.466  0.950E-01  0.950E-01
  -2.456  0.971E-01  0.971E-01
  -2.446  0.993E-01  0.993E-01
  -2.436  0.102E+00  0.102E+00
  -2.426  0.104E+00  0.104E+00
  -2.416  0.106E+00  0.106E+00
  -2.406  0.109E+00  0.109E+00
  -2.396  0.111E+00  0.111E+00
  -2.386  0.114E+00  0.114E+00
  -2.376  0.117E+00  0.117E+00
  -2.366  0.119E+00  0.119E+00
  -2.356  0.122E+00  0.122E+00
  -2.346  0.125E+00  0.125E+00
  -2.336  0.128E+00  0.128E+00
  -2.326  0.131E+00  0.131E+00
  -2.316  0.134E+00  0.134E+00
  -2.306  0.137E+00  0.137E+00
  -2.296  0.139E+00  0.139E+00
  -2.286  0.142E+00  0.142E+00
  -2.276  0.145E+00  0.145E+00
  -2.266  0.148E+00  0.148E+00
  -2.256  0.151E+00  0.151E+00
  -2.246  0.154E+00  0.154E+00
  -2.236  0.158E+00  0.158E+00
  -2.226  0.161E+00  0.161E+00
  -2.216  0.164E+00  0.164E+00
  -2.206  0.167E+00  0.167E+00
  -2.196  0.169E+00  0.169E+00
  -2.186  0.172E+00  0.172E+00
  -2.176  0.175E+00  0.175E+00
  -2.166  0.178E+00  0.178E+00
  -2.156  0.181E+00  0.181E+00
  -2.146  0.184E+00  0.184E+00
  -2.136  0.187E+00  0.187E+00
  -2.126  0.189E+00  0.189E+00
  -2.116  0.192E+00  0.192E+00
  -2.106  0.195E+00  0.195E+00
  -2.096  0.197E+00  0.197E+00
  -2.086  0.199E+00  0.199E+00
  -2.076  0.202E+00  0.202E+00
  -2.066  0.204E+00  0.204E+00
  -2.056  0.206E+00  0.206E+00
  -2.046  0.208E+00  0.208E+00
  -2.036  0.210E+00  0.210E+00
  -2.026  0.212E+00  0.212E+00
  -2.016  0.214E+00  0.214E+00
  -2.006  0.216E+00  0.216E+00
  -1.996  0.218E+00  0.218E+00
  -1.986  0.219E+00  0.219E+00
  -1.976  0.221E+00  0.221E+00
  -1.966  0.222E+00  0.222E+00
  -1.956  0.223E+00  0.223E+00
  -1.946  0.224E+00  0.224E+00
  -1.936  0.225E+00  0.225E+00
  -1.926  0.226E+00  0.226E+00
  -1.916  0.227E+00  0.227E+00
  -1.906  0.227E+00  0.227E+00
  -1.896  0.228E+00  0.228E+00
  -1.886  0.228E+00  0.228E+00
  -1.876  0.228E+00  0.228E+00
  -1.866  0.228E+00  0.228E+00
  -1.856  0.228E+00  0.228E+00
  -1.846  0.228E+00  0.228E+00
  -1.836  0.228E+00  0.228E+00
  -1.826  0.227E+00  0.227E+00
  -1.816  0.227E+00  0.227E+00
  -1.806  0.226E+00  0.226E+00
  -1.796  0.225E+00  0.225E+00
  -1.786  0.224E+00  0.224E+00
  -1.776  0.223E+00  0.223E+00
  -1.766  0.222E+00  0.222E+00
  -1.756  0.221E+00  0.221E+00
  -1.746  0.219E+00  0.219E+00
  -1.736  0.218E+00  0.218E+00
  -1.726  0.216E+00  0.216E+00
  -1.716  0.215E+00  0.215E+00
  -1.706  0.213E+00  0.213E+00
  -1.696  0.211E+00  0.211E+00
  -1.686  0.209E+00  0.209E+00
  -1.676  0.206E+00  0.206E+00
  -1.666  0.204E+00  0.204E+00
  -1.656  0.202E+00  0.202E+00
  -1.646  0.199E+00  0.199E+00
  -1.636  0.197E+00  0.197E+00
  -1.626  0.194E+00  0.194E+00
  -1.616  0.191E+00  0.191E+00
  -1.606  0.189E+00  0.189E+00
  -1.596  0.186E+00  0.186E+00
  -1.586  0.183E+00  0.183E+00
  -1.576  0.180E+00  0.180E+00
  -1.566  0.177E+00  0.177E+00
  -1.556  0.174E+00  0.174E+00
  -1.546  0.171E+00  0.171E+00
  -1.536  0.167E+00  0.167E+00
  -1.526  0.164E+00  0.164E+00
  -1.516  0.161E+00  0.161E+00
  -1.506  0.158E+00  0.158E+00
  -1.496  0.154E+00  0.154E+00
  -1.486  0.151E+00  0.151E+00
  -1.476  0.147E+00  0.147E+00
  -1.466  0.144E+00  0.144E+00
  -1.456  0.140E+00  0.140E+00
  -1.446  0.137E+00  0.137E+00
  -1.436  0.134E+00  0.134E+00
  -1.426  0.130E+00  0.130E+00
  -1.416  0.127E+00  0.127E+00
  -1.406  0.123E+00  0.123E+00
  -1.396  0.120E+00  0.120E+00
  -1.386  0.116E+00  0.116E+00
  -1.376  0.113E+00  0.113E+00
  -1.366  0.109E+00  0.109E+00
  -1.356  0.106E+00  0.106E+00
  -1.346  0.102E+00  0.102E+00
  -1.336  0.991E-01  0.991E-01
  -1.326  0.958E-01  0.958E-01
  -1.316  0.924E-01  0.924E-01
  -1.306  0.892E-01  0.892E-01
  -1.296  0.859E-01  0.859E-01
  -1.286  0.827E-01  0.827E-01
  -1.276  0.795E-01  0.795E-01
  -1.266  0.764E-01  0.764E-01
  -1.256  0.733E-01  0.733E-01
  -1.246  0.703E-01  0.703E-01
  -1.236  0.673E-01  0.673E-01
  -1.226  0.643E-01  0.643E-01
  -1.216  0.615E-01  0.615E-01
  -1.206  0.586E-01  0.586E-01
  -1.196  0.558E-01  0.558E-01
  -1.186  0.531E-01  0.531E-01
  -1.176  0.504E-01  0.504E-01
  -1.166  0.478E-01  0.478E-01
  -1.156  0.452E-01  0.452E-01
  -1.146  0.427E-01  0.427E-01
  -1.136  0.403E-01  0.403E-01
  -1.126  0.379E-01  0.379E-01
  -1.116  0.356E-01  0.356E-01
  -1.106  0.333E-01  0.333E-01
  -1.096  0.311E-01  0.311E-01
  -1.086  0.289E-01  0.289E-01
  -1.076  0.269E-01  0.269E-01
  -1.066  0.248E-01  0.248E-01
  -1.056  0.229E-01  0.229E-01
  -1.046  0.210E-01  0.210E-01
  -1.036  0.192E-01  0.192E-01
  -1.026  0.174E-01  0.174E-01
  -1.016  0.157E-01  0.157E-01
  -1.006  0.141E-01  0.141E-01
  -0.996  0.125E-01  0.125E-01
  -0.986  0.110E-01  0.110E-01
  -0.976  0.956E-02  0.956E-02
  -0.966  0.818E-02  0.818E-02
  -0.956  0.687E-02  0.687E-02
  -0.946  0.562E-02  0.562E-02
  -0.936  0.444E-02  0.444E-02
  -0.926  0.332E-02  0.332E-02
  -0.916  0.226E-02  0.226E-02
  -0.906  0.127E-02  0.127E-02
  -0.896  0.348E-03  0.348E-03
  -0.886 -0.510E-03 -0.510E-03
  -0.876 -0.130E-02 -0.130E-02
  -0.866 -0.203E-02 -0.203E-02
  -0.856 -0.269E-02 -0.269E-02
  -0.846 -0.329E-02 -0.329E-02
  -0.836 -0.382E-02 -0.382E-02
  -0.826 -0.428E-02 -0.428E-02
  -0.816 -0.467E-02 -0.467E-02
  -0.806 -0.500E-02 -0.500E-02
  -0.796 -0.526E-02 -0.526E-02
  -0.786 -0.545E-02 -0.545E-02
  -0.776 -0.557E-02 -0.557E-02
  -0.766 -0.563E-02 -0.563E-02
  -0.756 -0.561E-02 -0.561E-02
  -0.746 -0.552E-02 -0.552E-02
  -0.736 -0.536E-02 -0.536E-02
  -0.726 -0.513E-02 -0.513E-02
  -0.716 -0.483E-02 -0.483E-02
  -0.706 -0.446E-02 -0.446E-02
  -0.696 -0.401E-02 -0.401E-02
  -0.686 -0.349E-02 -0.349E-02
  -0.676 -0.289E-02 -0.289E-02
  -0.666 -0.222E-02 -0.222E-02
  -0.656 -0.147E-02 -0.147E-02
  -0.646 -0.645E-03 -0.645E-03
  -0.636  0.256E-03  0.256E-03
  -0.626  0.123E-02  0.123E-02
  -0.616  0.229E-02  0.229E-02
  -0.606  0.343E-02  0.343E-02
  -0.596  0.464E-02  0.464E-02
  -0.586  0.593E-02  0.593E-02
  -0.576  0.731E-02  0.731E-02
  -0.566  0.876E-02  0.876E-02
  -0.556  0.103E-01  0.103E-01
  -0.546  0.119E-01  0.119E-01
  -0.536  0.136E-01  0.136E-01
  -0.526  0.154E-01  0.154E-01
  -0.516  0.172E-01  0.172E-01
  -0.506  0.192E-01  0.192E-01
  -0.496  0.212E-01  0.212E-01
  -0.486  0.233E-01  0.233E-01
  -0.476  0.255E-01  0.255E-01
  -0.466  0.277E-01  0.277E-01
  -0.456  0.300E-01  0.300E-01
  -0.446  0.324E-01  0.324E-01
  -0.436  0.349E-01  0.349E-01
  -0.426  0.375E-01  0.375E-01
  -0.416  0.401E-01  0.401E-01
  -0.406  0.428E-01  0.428E-01
  -0.396  0.456E-01  0.456E-01
  -0.386  0.484E-01  0.484E-01
  -0.376  0.514E-01  0.514E-01
  -0.366  0.543E-01  0.543E-01
  -0.356  0.574E-01  0.574E-01
  -0.346  0.605E-01  0.605E-01
  -0.336  0.636E-01  0.636E-01
  -0.326  0.669E-01  0.669E-01
  -0.316  0.701E-01  0.701E-01
  -0.306  0.734E-01  0.734E-01
  -0.296  0.768E-01  0.768E-01
  -0.286  0.802E-01  0.802E-01
  -0.276  0.837E-01  0.837E-01
  -0.266  0.872E-01  0.872E-01
  -0.256  0.907E-01  0.907E-01
  -0.246  0.943E-01  0.943E-01
  -0.236  0.979E-01  0.979E-01
  -0.226  0.101E+00  0.101E+00
  -0.216  0.105E+00  0.105E+00
  -0.206  0.109E+00  0.109E+00
  -0.196  0.112E+00  0.112E+00
  -0.186  0.116E+00  0.116E+00
  -0.176  0.120E+00  0.120E+00
  -0.166  0.123E+00  0.123E+00
  -0.156  0.127E+00  0.127E+00
  -0.146  0.131E+00  0.131E+00
  -0.136  0.134E+00  0.134E+00
  -0.126  0.138E+00  0.138E+00
  -0.116  0.141E+00  0.141E+00
  -0.106  0.145E+00  0.145E+00
  -0.096  0.148E+00  0.148E+00
  -0.086  0.152E+00  0.152E+00
  -0.076  0.155E+00  0.155E+00
  -0.066  0.159E+00  0.159E+00
  -0.056  0.162E+00  0.162E+00
  -0.046  0.165E+00  0.165E+00
  -0.036  0.168E+00  0.168E+00
  -0.026  0.171E+00  0.171E+00
  -0.016  0.174E+00  0.174E+00
  -0.006  0.177E+00  0.177E+00
   0.004  0.180E+00  0.180E+00
   0.014  0.183E+00  0.183E+00
   0.024  0.186E+00  0.186E+00
   0.034  0.188E+00  0.188E+00
   0.044  0.191E+00  0.191E+00
   0.054  0.193E+00  0.193E+00
   0.064  0.195E+00  0.195E+00
   0.074  0.197E+00  0.197E+00
   0.084  0.199E+00  0.199E+00
   0.094  0.201E+00  0.201E+00
   0.104  0.203E+00  0.203E+00
   0.114  0.205E+00  0.205E+00
   0.124  0.206E+00  0.206E+00
   0.134  0.208E+00  0.208E+00
   0.144  0.209E+00  0.209E+00
   0.154  0.210E+00  0.210E+00
   0.164  0.211E+00  0.211E+00
   0.174  0.212E+00  0.212E+00
   0.184  0.212E+00  0.212E+00
   0.194  0.213E+00  0.213E+00
   0.204  0.213E+00  0.213E+00
   0.214  0.214E+00  0.214E+00
   0.224  0.214E+00  0.214E+00
   0.234  0.214E+00  0.214E+00
   0.244  0.214E+00  0.214E+00
   0.254  0.213E+00  0.213E+00
   0.264  0.213E+00  0.213E+00
   0.274  0.212E+00  0.212E+00
   0.284  0.211E+00  0.211E+00
   0.294  0.211E+00  0.211E+00
   0.304  0.210E+00  0.210E+00
   0.314  0.208E+00  0.208E+00
   0.324  0.207E+00  0.207E+00
   0.334  0.206E+00  0.206E+00
   0.344  0.204E+00  0.204E+00
   0.354  0.203E+00  0.203E+00
   0.364  0.201E+00  0.201E+00
   0.374  0.199E+00  0.199E+00
   0.384  0.197E+00  0.197E+00
   0.394  0.195E+00  0.195E+00
   0.404  0.193E+00  0.193E+00
   0.414  0.190E+00  0.190E+00
   0.424  0.188E+00  0.188E+00
   0.434  0.185E+00  0.185E+00
   0.444  0.183E+00  0.183E+00
   0.454  0.180E+00  0.180E+00
   0.464  0.177E+00  0.177E+00
   0.474  0.174E+00  0.174E+00
   0.484  0.171E+00  0.171E+00
   0.494  0.169E+00  0.169E+00
   0.504  0.165E+00  0.165E+00
   0.514  0.162E+00  0.162E+00
   0.524  0.159E+00  0.159E+00
   0.534  0.156E+00  0.156E+00
   0.544  0.153E+00  0.153E+00
   0.554  0.149E+00  0.149E+00
   0.564  0.146E+00  0.146E+00
   0.574  0.143E+00  0.143E+00
   0.584  0.140E+00  0.140E+00
   0.594  0.136E+00  0.136E+00
   0.604  0.133E+00  0.133E+00
   0.614  0.129E+00  0.129E+00
   0.624  0.126E+00  0.126E+00
   0.634  0.123E+00  0.123E+00
   0.644  0.119E+00  0.119E+00
   0.654  0.116E+00  0.116E+00
   0.664  0.113E+00  0.113E+00
   0.674  0.109E+00  0.109E+00
   0.684  0.106E+00  0.106E+00
   0.694  0.103E+00  0.103E+00
   0.704  0.994E-01  0.994E-01
   0.714  0.962E-01  0.962E-01
   0.724  0.930E-01  0.930E-01
   0.734  0.899E-01  0.899E-01
   0.744  0.869E-01  0.869E-01
   0.754  0.838E-01  0.838E-01
   0.764  0.809E-01  0.809E-01
   0.774  0.779E-01  0.779E-01
   0.784  0.751E-01  0.751E-01
   0.794  0.723E-01  0.723E-01
   0.804  0.695E-01  0.695E-01
   0.814  0.669E-01  0.669E-01
   0.824  0.643E-01  0.643E-01
   0.834  0.617E-01  0.617E-01
   0.844  0.592E-01  0.592E-01
   0.854  0.568E-01  0.568E-01
   0.864  0.545E-01  0.545E-01
   0.874  0.522E-01  0.522E-01
   0.884  0.500E-01  0.500E-01
   0.894  0.479E-01  0.479E-01
   0.904  0.458E-01  0.458E-01
   0.914  0.439E-01  0.439E-01
   0.924  0.420E-01  0.420E-01
   0.934  0.401E-01  0.401E-01
   0.944  0.384E-01  0.384E-01
   0.954  0.367E-01  0.367E-01
   0.964  0.350E-01  0.350E-01
   0.974  0.335E-01  0.335E-01
   0.984  0.320E-01  0.320E-01
   0.994  0.306E-01  0.306E-01
   1.004  0.292E-01  0.292E-01
   1.014  0.280E-01  0.280E-01
   1.024  0.267E-01  0.267E-01
   1.034  0.256E-01  0.256E-01
   1.044  0.245E-01  0.245E-01
   1.054  0.235E-01  0.235E-01
   1.064  0.225E-01  0.225E-01
   1.074  0.216E-01  0.216E-01
   1.084  0.207E-01  0.207E-01
   1.094  0.199E-01  0.199E-01
   1.104  0.192E-01  0.192E-01
   1.114  0.184E-01  0.184E-01
   1.124  0.178E-01  0.178E-01
   1.134  0.172E-01  0.172E-01
   1.144  0.166E-01  0.166E-01
   1.154  0.161E-01  0.161E-01
   1.164  0.156E-01  0.156E-01
   1.174  0.151E-01  0.151E-01
   1.184  0.147E-01  0.147E-01
   1.194  0.144E-01  0.144E-01
   1.204  0.140E-01  0.140E-01
   1.214  0.137E-01  0.137E-01
   1.224  0.134E-01  0.134E-01
   1.234  0.131E-01  0.131E-01
   1.244  0.129E-01  0.129E-01
   1.254  0.127E-01  0.127E-01
   1.264  0.125E-01  0.125E-01
   1.274  0.123E-01  0.123E-01
   1.284  0.122E-01  0.122E-01
   1.294  0.120E-01  0.120E-01
   1.304  0.119E-01  0.119E-01
   1.314  0.118E-01  0.118E-01
   1.324  0.117E-01  0.117E-01
   1.334  0.116E-01  0.116E-01
   1.344  0.115E-01  0.115E-01
   1.354  0.115E-01  0.115E-01
   1.364  0.114E-01  0.114E-01
   1.374  0.113E-01  0.113E-01
   1.384  0.113E-01  0.113E-01
   1.394  0.112E-01  0.112E-01
   1.404  0.112E-01  0.112E-01
   1.414  0.111E-01  0.111E-01
   1.424  0.111E-01  0.111E-01
   1.434  0.110E-01  0.110E-01
   1.444  0.110E-01  0.110E-01
   1.454  0.109E-01  0.109E-01
   1.464  0.109E-01  0.109E-01
   1.474  0.108E-01  0.108E-01
   1.484  0.108E-01  0.108E-01
   1.494  0.107E-01  0.107E-01
   1.504  0.107E-01  0.107E-01
   1.514  0.106E-01  0.106E-01
   1.524  0.106E-01  0.106E-01
   1.534  0.105E-01  0.105E-01
   1.544  0.104E-01  0.104E-01
   1.554  0.104E-01  0.104E-01
   1.564  0.103E-01  0.103E-01
   1.574  0.102E-01  0.102E-01
   1.584  0.102E-01  0.102E-01
   1.594  0.101E-01  0.101E-01
   1.604  0.100E-01  0.100E-01
   1.614  0.997E-02  0.997E-02
   1.624  0.990E-02  0.990E-02
   1.634  0.984E-02  0.984E-02
   1.644  0.977E-02  0.977E-02
   1.654  0.972E-02  0.972E-02
   1.664  0.966E-02  0.966E-02
   1.674  0.961E-02  0.961E-02
   1.684  0.957E-02  0.957E-02
   1.694  0.954E-02  0.954E-02
   1.704  0.951E-02  0.951E-02
   1.714  0.949E-02  0.949E-02
   1.724  0.948E-02  0.948E-02
   1.734  0.949E-02  0.949E-02
   1.744  0.950E-02  0.950E-02
   1.754  0.953E-02  0.953E-02
   1.764  0.958E-02  0.958E-02
   1.774  0.964E-02  0.964E-02
   1.784  0.971E-02  0.971E-02
   1.794  0.981E-02  0.981E-02
   1.804  0.992E-02  0.992E-02
   1.814  0.101E-01  0.101E-01
   1.824  0.102E-01  0.102E-01
   1.834  0.104E-01  0.104E-01
   1.844  0.106E-01  0.106E-01
   1.854  0.108E-01  0.108E-01
   1.864  0.111E-01  0.111E-01
   1.874  0.114E-01  0.114E-01
   1.884  0.117E-01  0.117E-01
   1.894  0.120E-01  0.120E-01
   1.904  0.124E-01  0.124E-01
   1.914  0.128E-01  0.128E-01
   1.924  0.133E-01  0.133E-01
   1.934  0.138E-01  0.138E-01
   1.944  0.143E-01  0.143E-01
   1.954  0.148E-01  0.148E-01
   1.964  0.154E-01  0.154E-01
   1.974  0.161E-01  0.161E-01
   1.984  0.168E-01  0.168E-01
   1.994  0.175E-01  0.175E-01
   2.004  0.182E-01  0.182E-01
   2.014  0.190E-01  0.190E-01
   2.024  0.199E-01  0.199E-01
   2.034  0.208E-01  0.208E-01
   2.044  0.217E-01  0.217E-01
   2.054  0.227E-01  0.227E-01
   2.064  0.237E-01  0.237E-01
   2.074  0.248E-01  0.248E-01
   2.084  0.259E-01  0.259E-01
   2.094  0.271E-01  0.271E-01
   2.104  0.283E-01  0.283E-01
   2.114  0.296E-01  0.296E-01
   2.124  0.309E-01  0.309E-01
   2.134  0.323E-01  0.323E-01
   2.144  0.337E-01  0.337E-01
   2.154  0.352E-01  0.352E-01
   2.164  0.367E-01  0.367E-01
   2.174  0.383E-01  0.383E-01
   2.184  0.399E-01  0.399E-01
   2.194  0.415E-01  0.415E-01
   2.204  0.432E-01  0.432E-01
   2.214  0.450E-01  0.450E-01
   2.224  0.468E-01  0.468E-01
   2.234  0.486E-01  0.486E-01
   2.244  0.505E-01  0.505E-01
   2.254  0.524E-01  0.524E-01
   2.264  0.543E-01  0.543E-01
   2.274  0.563E-01  0.563E-01
   2.284  0.584E-01  0.584E-01
   2.294  0.604E-01  0.604E-01
   2.304  0.625E-01  0.625E-01
   2.314  0.647E-01  0.647E-01
   2.324  0.668E-01  0.668E-01
   2.334  0.690E-01  0.690E-01
   2.344  0.712E-01  0.712E-01
   2.354  0.735E-01  0.735E-01
   2.364  0.757E-01  0.757E-01
   2.374  0.780E-01  0.780E-01
   2.384  0.803E-01  0.803E-01
   2.394  0.826E-01  0.826E-01
   2.404  0.849E-01  0.849E-01
   2.414  0.873E-01  0.873E-01
   2.424  0.896E-01  0.896E-01
   2.434  0.919E-01  0.919E-01
   2.444  0.943E-01  0.943E-01
   2.454  0.966E-01  0.966E-01
   2.464  0.990E-01  0.990E-01
   2.474  0.101E+00  0.101E+00
   2.484  0.104E+00  0.104E+00
   2.494  0.106E+00  0.106E+00
   2.504  0.108E+00  0.108E+00
   2.514  0.110E+00  0.110E+00
   2.524  0.113E+00  0.113E+00
   2.534  0.115E+00  0.115E+00
   2.544  0.117E+00  0.117E+00
   2.554  0.119E+00  0.119E+00
   2.564  0.121E+00  0.121E+00
   2.574  0.123E+00  0.123E+00
   2.584  0.125E+00  0.125E+00
   2.594  0.127E+00  0.127E+00
   2.604  0.129E+00  0.129E+00
   2.614  0.131E+00  0.131E+00
   2.624  0.133E+00  0.133E+00
   2.634  0.135E+00  0.135E+00
   2.644  0.136E+00  0.136E+00
   2.654  0.138E+00  0.138E+00
   2.664  0.140E+00  0.140E+00
   2.674  0.141E+00  0.141E+00
   2.684  0.143E+00  0.143E+00
   2.694  0.144E+00  0.144E+00
   2.704  0.145E+00  0.145E+00
   2.714  0.146E+00  0.146E+00
   2.724  0.148E+00  0.148E+00
   2.734  0.149E+00  0.149E+00
   2.744  0.150E+00  0.150E+00
   2.754  0.150E+00  0.150E+00
   2.764  0.151E+00  0.151E+00
   2.774  0.152E+00  0.152E+00
   2.784  0.153E+00  0.153E+00
   2.794  0.153E+00  0.153E+00
   2.804  0.154E+00  0.154E+00
   2.814  0.154E+00  0.154E+00
   2.824  0.154E+00  0.154E+00
   2.834  0.154E+00  0.154E+00
   2.844  0.154E+00  0.154E+00
   2.854  0.154E+00  0.154E+00
   2.864  0.154E+00  0.154E+00
   2.874  0.154E+00  0.154E+00
   2.884  0.154E+00  0.154E+00
   2.894  0.153E+00  0.153E+00
   2.904  0.153E+00  0.153E+00
   2.914  0.152E+00  0.152E+00
   2.924  0.151E+00  0.151E+00
   2.934  0.151E+00  0.151E+00
   2.944  0.150E+00  0.150E+00
   2.954  0.149E+00  0.149E+00
   2.964  0.148E+00  0.148E+00
   2.974  0.146E+00  0.146E+00
   2.984  0.145E+00  0.145E+00
   2.994  0.144E+00  0.144E+00
   3.004  0.143E+00  0.143E+00
   3.014  0.141E+00  0.141E+00
   3.024  0.140E+00  0.140E+00
   3.034  0.138E+00  0.138E+00
   3.044  0.136E+00  0.136E+00
   3.054  0.134E+00  0.134E+00
   3.064  0.133E+00  0.133E+00
   3.074  0.131E+00  0.131E+00
   3.084  0.129E+00  0.129E+00
   3.094  0.127E+00  0.127E+00
   3.104  0.125E+00  0.125E+00
   3.114  0.123E+00  0.123E+00
   3.124  0.120E+00  0.120E+00
   3.134  0.118E+00  0.118E+00
   3.144  0.116E+00  0.116E+00
   3.154  0.114E+00  0.114E+00
   3.164  0.111E+00  0.111E+00
   3.174  0.109E+00  0.109E+00
   3.184  0.107E+00  0.107E+00
   3.194  0.104E+00  0.104E+00
   3.204  0.102E+00  0.102E+00
   3.214  0.994E-01  0.994E-01
   3.224  0.969E-01  0.969E-01
   3.234  0.944E-01  0.944E-01
   3.244  0.919E-01  0.919E-01
   3.254  0.894E-01  0.894E-01
   3.264  0.869E-01  0.869E-01
   3.274  0.843E-01  0.843E-01
   3.284  0.818E-01  0.818E-01
   3.294  0.793E-01  0.793E-01
   3.304  0.768E-01  0.768E-01
   3.314  0.743E-01  0.743E-01
   3.324  0.718E-01  0.718E-01
   3.334  0.694E-01  0.694E-01
   3.344  0.669E-01  0.669E-01
   3.354  0.645E-01  0.645E-01
   3.364  0.621E-01  0.621E-01
   3.374  0.597E-01  0.597E-01
   3.384  0.574E-01  0.574E-01
   3.394  0.550E-01  0.550E-01
   3.404  0.527E-01  0.527E-01
   3.414  0.505E-01  0.505E-01
   3.424  0.482E-01  0.482E-01
   3.434  0.461E-01  0.461E-01
   3.444  0.439E-01  0.439E-01
   3.454  0.418E-01  0.418E-01
   3.464  0.397E-01  0.397E-01
   3.474  0.377E-01  0.377E-01
   3.484  0.357E-01  0.357E-01
   3.494  0.338E-01  0.338E-01
   3.504  0.319E-01  0.319E-01
   3.514  0.300E-01  0.300E-01
   3.524  0.282E-01  0.282E-01
   3.534  0.265E-01  0.265E-01
   3.544  0.248E-01  0.248E-01
   3.554  0.231E-01  0.231E-01
   3.564  0.215E-01  0.215E-01
   3.574  0.199E-01  0.199E-01
   3.584  0.184E-01  0.184E-01
   3.594  0.170E-01  0.170E-01
   3.604  0.156E-01  0.156E-01
   3.614  0.142E-01  0.142E-01
   3.624  0.129E-01  0.129E-01
   3.634  0.116E-01  0.116E-01
   3.644  0.104E-01  0.104E-01
   3.654  0.926E-02  0.926E-02
   3.664  0.815E-02  0.815E-02
   3.674  0.709E-02  0.709E-02
   3.684  0.607E-02  0.607E-02
   3.694  0.510E-02  0.510E-02
   3.704  0.417E-02  0.417E-02
   3.714  0.329E-02  0.329E-02
   3.724  0.245E-02  0.245E-02
   3.734  0.166E-02  0.166E-02
   3.744  0.909E-03  0.909E-03
   3.754  0.201E-03  0.201E-03
   3.764 -0.467E-03 -0.467E-03
   3.774 -0.109E-02 -0.109E-02
   3.784 -0.168E-02 -0.168E-02
   3.794 -0.224E-02 -0.224E-02
   3.804 -0.275E-02 -0.275E-02
   3.814 -0.323E-02 -0.323E-02
   3.824 -0.367E-02 -0.367E-02
   3.834 -0.408E-02 -0.408E-02
   3.844 -0.446E-02 -0.446E-02
   3.854 -0.481E-02 -0.481E-02
   3.864 -0.513E-02 -0.513E-02
   3.874 -0.542E-02 -0.542E-02
   3.884 -0.568E-02 -0.568E-02
   3.894 -0.591E-02 -0.591E-02
   3.904 -0.612E-02 -0.612E-02
   3.914 -0.630E-02 -0.630E-02
   3.924 -0.646E-02 -0.646E-02
   3.934 -0.660E-02 -0.660E-02
   3.944 -0.671E-02 -0.671E-02
   3.954 -0.681E-02 -0.681E-02
   3.964 -0.689E-02 -0.689E-02
   3.974 -0.694E-02 -0.694E-02
   3.984 -0.699E-02 -0.699E-02
   3.994 -0.701E-02 -0.701E-02
   4.004 -0.702E-02 -0.702E-02
   4.014 -0.701E-02 -0.701E-02
   4.024 -0.700E-02 -0.700E-02
   4.034 -0.697E-02 -0.697E-02
   4.044 -0.692E-02 -0.692E-02
   4.054 -0.687E-02 -0.687E-02
   4.064 -0.681E-02 -0.681E-02
   4.074 -0.673E-02 -0.673E-02
   4.084 -0.665E-02 -0.665E-02
   4.094 -0.656E-02 -0.656E-02
   4.104 -0.647E-02 -0.647E-02
   4.114 -0.636E-02 -0.636E-02
   4.124 -0.625E-02 -0.625E-02
   4.134 -0.614E-02 -0.614E-02
   4.144 -0.602E-02 -0.602E-02
   4.154 -0.590E-02 -0.590E-02
   4.164 -0.577E-02 -0.577E-02
   4.174 -0.564E-02 -0.564E-02
   4.184 -0.551E-02 -0.551E-02
   4.194 -0.538E-02 -0.538E-02
   4.204 -0.524E-02 -0.524E-02
   4.214 -0.511E-02 -0.511E-02
   4.224 -0.497E-02 -0.497E-02
   4.234 -0.483E-02 -0.483E-02
   4.244 -0.469E-02 -0.469E-02
   4.254 -0.456E-02 -0.456E-02
   4.264 -0.442E-02 -0.442E-02
   4.274 -0.428E-02 -0.428E-02
   4.284 -0.415E-02 -0.415E-02
   4.294 -0.401E-02 -0.401E-02
   4.304 -0.388E-02 -0.388E-02
   4.314 -0.375E-02 -0.375E-02
   4.324 -0.362E-02 -0.362E-02
   4.334 -0.349E-02 -0.349E-02
   4.344 -0.337E-02 -0.337E-02
   4.354 -0.325E-02 -0.325E-02
   4.364 -0.312E-02 -0.312E-02
   4.374 -0.301E-02 -0.301E-02
   4.384 -0.289E-02 -0.289E-02
   4.394 -0.278E-02 -0.278E-02
   4.404 -0.267E-02 -0.267E-02
   4.414 -0.256E-02 -0.256E-02
   4.424 -0.246E-02 -0.246E-02
   4.434 -0.235E-02 -0.235E-02
   4.444 -0.225E-02 -0.225E-02
   4.454 -0.216E-02 -0.216E-02
   4.464 -0.207E-02 -0.207E-02
   4.474 -0.197E-02 -0.197E-02
   4.484 -0.189E-02 -0.189E-02
   4.494 -0.180E-02 -0.180E-02
   4.504 -0.172E-02 -0.172E-02
   4.514 -0.164E-02 -0.164E-02
   4.524 -0.156E-02 -0.156E-02
   4.534 -0.149E-02 -0.149E-02
   4.544 -0.142E-02 -0.142E-02
   4.554 -0.135E-02 -0.135E-02
   4.564 -0.129E-02 -0.129E-02
   4.574 -0.122E-02 -0.122E-02
   4.584 -0.116E-02 -0.116E-02
   4.594 -0.110E-02 -0.110E-02
   4.604 -0.105E-02 -0.105E-02
   4.614 -0.993E-03 -0.993E-03
   4.624 -0.942E-03 -0.942E-03
   4.634 -0.893E-03 -0.893E-03
   4.644 -0.846E-03 -0.846E-03
   4.654 -0.801E-03 -0.801E-03
   4.664 -0.757E-03 -0.757E-03
   4.674 -0.716E-03 -0.716E-03
   4.684 -0.677E-03 -0.677E-03
   4.694 -0.640E-03 -0.640E-03
   4.704 -0.604E-03 -0.604E-03
   4.714 -0.570E-03 -0.570E-03
   4.724 -0.538E-03 -0.538E-03
   4.734 -0.507E-03 -0.507E-03
   4.744 -0.478E-03 -0.478E-03
   4.754 -0.450E-03 -0.450E-03
   4.764 -0.424E-03 -0.424E-03
   4.774 -0.399E-03 -0.399E-03
   4.784 -0.375E-03 -0.375E-03
   4.794 -0.353E-03 -0.353E-03
   4.804 -0.331E-03 -0.331E-03
   4.814 -0.311E-03 -0.311E-03
   4.824 -0.292E-03 -0.292E-03
   4.834 -0.274E-03 -0.274E-03
   4.844 -0.257E-03 -0.257E-03
   4.854 -0.241E-03 -0.241E-03
   4.864 -0.226E-03 -0.226E-03
   4.874 -0.211E-03 -0.211E-03
   4.884 -0.198E-03 -0.198E-03
   4.894 -0.185E-03 -0.185E-03
   4.904 -0.173E-03 -0.173E-03
   4.914 -0.162E-03 -0.162E-03
   4.924 -0.151E-03 -0.151E-03
   4.934 -0.141E-03 -0.141E-03
   4.944 -0.132E-03 -0.132E-03
   4.954 -0.123E-03 -0.123E-03
   4.964 -0.115E-03 -0.115E-03
   4.974 -0.107E-03 -0.107E-03
   4.984 -0.996E-04 -0.996E-04
   4.994 -0.928E-04 -0.928E-04
   5.004 -0.864E-04 -0.864E-04
   5.014 -0.804E-04 -0.804E-04
   5.024 -0.747E-04 -0.747E-04
   5.034 -0.695E-04 -0.695E-04
   5.044 -0.645E-04 -0.645E-04
   5.054 -0.599E-04 -0.599E-04
   5.064 -0.556E-04 -0.556E-04
   5.074 -0.516E-04 -0.516E-04
   5.084 -0.479E-04 -0.479E-04
   5.094 -0.444E-04 -0.444E-04
   5.104 -0.411E-04 -0.411E-04
   5.114 -0.381E-04 -0.381E-04
   5.124 -0.353E-04 -0.353E-04
   5.134 -0.326E-04 -0.326E-04
   5.144 -0.302E-04 -0.302E-04
   5.154 -0.279E-04 -0.279E-04
   5.164 -0.258E-04 -0.258E-04
   5.174 -0.238E-04 -0.238E-04
   5.184 -0.220E-04 -0.220E-04
   5.194 -0.203E-04 -0.203E-04
   5.204 -0.187E-04 -0.187E-04
   5.214 -0.173E-04 -0.173E-04
   5.224 -0.159E-04 -0.159E-04
   5.234 -0.147E-04 -0.147E-04
   5.244 -0.135E-04 -0.135E-04
   5.254 -0.124E-04 -0.124E-04
   5.264 -0.114E-04 -0.114E-04
   5.274 -0.105E-04 -0.105E-04
   5.284 -0.967E-05 -0.967E-05
   5.294 -0.889E-05 -0.889E-05
