# E (eV)   ldos(E)   pdos(E)   
 -27.116 -0.142E-07 -0.142E-07
 -27.106 -0.154E-07 -0.154E-07
 -27.096 -0.166E-07 -0.166E-07
 -27.086 -0.179E-07 -0.179E-07
 -27.076 -0.192E-07 -0.192E-07
 -27.066 -0.207E-07 -0.207E-07
 -27.056 -0.223E-07 -0.223E-07
 -27.046 -0.240E-07 -0.240E-07
 -27.036 -0.258E-07 -0.258E-07
 -27.026 -0.277E-07 -0.277E-07
 -27.016 -0.298E-07 -0.298E-07
 -27.006 -0.320E-07 -0.320E-07
 -26.996 -0.343E-07 -0.343E-07
 -26.986 -0.368E-07 -0.368E-07
 -26.976 -0.394E-07 -0.394E-07
 -26.966 -0.422E-07 -0.422E-07
 -26.956 -0.452E-07 -0.452E-07
 -26.946 -0.484E-07 -0.484E-07
 -26.936 -0.518E-07 -0.518E-07
 -26.926 -0.553E-07 -0.553E-07
 -26.916 -0.591E-07 -0.591E-07
 -26.906 -0.631E-07 -0.631E-07
 -26.896 -0.674E-07 -0.674E-07
 -26.886 -0.719E-07 -0.719E-07
 -26.876 -0.766E-07 -0.766E-07
 -26.866 -0.816E-07 -0.816E-07
 -26.856 -0.869E-07 -0.869E-07
 -26.846 -0.925E-07 -0.925E-07
 -26.836 -0.984E-07 -0.984E-07
 -26.826 -0.105E-06 -0.105E-06
 -26.816 -0.111E-06 -0.111E-06
 -26.806 -0.118E-06 -0.118E-06
 -26.796 -0.125E-06 -0.125E-06
 -26.786 -0.133E-06 -0.133E-06
 -26.776 -0.141E-06 -0.141E-06
 -26.766 -0.149E-06 -0.149E-06
 -26.756 -0.158E-06 -0.158E-06
 -26.746 -0.167E-06 -0.167E-06
 -26.736 -0.177E-06 -0.177E-06
 -26.726 -0.187E-06 -0.187E-06
 -26.716 -0.197E-06 -0.197E-06
 -26.706 -0.208E-06 -0.208E-06
 -26.696 -0.220E-06 -0.220E-06
 -26.686 -0.232E-06 -0.232E-06
 -26.676 -0.244E-06 -0.244E-06
 -26.666 -0.257E-06 -0.257E-06
 -26.656 -0.271E-06 -0.271E-06
 -26.646 -0.285E-06 -0.285E-06
 -26.636 -0.299E-06 -0.299E-06
 -26.626 -0.314E-06 -0.314E-06
 -26.616 -0.330E-06 -0.330E-06
 -26.606 -0.346E-06 -0.346E-06
 -26.596 -0.363E-06 -0.363E-06
 -26.586 -0.380E-06 -0.380E-06
 -26.576 -0.398E-06 -0.398E-06
 -26.566 -0.417E-06 -0.417E-06
 -26.556 -0.436E-06 -0.436E-06
 -26.546 -0.455E-06 -0.455E-06
 -26.536 -0.475E-06 -0.475E-06
 -26.526 -0.496E-06 -0.496E-06
 -26.516 -0.517E-06 -0.517E-06
 -26.506 -0.539E-06 -0.539E-06
 -26.496 -0.561E-06 -0.561E-06
 -26.486 -0.584E-06 -0.584E-06
 -26.476 -0.607E-06 -0.607E-06
 -26.466 -0.630E-06 -0.630E-06
 -26.456 -0.654E-06 -0.654E-06
 -26.446 -0.678E-06 -0.678E-06
 -26.436 -0.703E-06 -0.703E-06
 -26.426 -0.728E-06 -0.728E-06
 -26.416 -0.753E-06 -0.753E-06
 -26.406 -0.779E-06 -0.779E-06
 -26.396 -0.804E-06 -0.804E-06
 -26.386 -0.830E-06 -0.830E-06
 -26.376 -0.856E-06 -0.856E-06
 -26.366 -0.882E-06 -0.882E-06
 -26.356 -0.907E-06 -0.907E-06
 -26.346 -0.933E-06 -0.933E-06
 -26.336 -0.958E-06 -0.958E-06
 -26.326 -0.984E-06 -0.984E-06
 -26.316 -0.101E-05 -0.101E-05
 -26.306 -0.103E-05 -0.103E-05
 -26.296 -0.106E-05 -0.106E-05
 -26.286 -0.108E-05 -0.108E-05
 -26.276 -0.110E-05 -0.110E-05
 -26.266 -0.112E-05 -0.112E-05
 -26.256 -0.114E-05 -0.114E-05
 -26.246 -0.116E-05 -0.116E-05
 -26.236 -0.118E-05 -0.118E-05
 -26.226 -0.120E-05 -0.120E-05
 -26.216 -0.121E-05 -0.121E-05
 -26.206 -0.123E-05 -0.123E-05
 -26.196 -0.124E-05 -0.124E-05
 -26.186 -0.125E-05 -0.125E-05
 -26.176 -0.125E-05 -0.125E-05
 -26.166 -0.126E-05 -0.126E-05
 -26.156 -0.126E-05 -0.126E-05
 -26.146 -0.126E-05 -0.126E-05
 -26.136 -0.126E-05 -0.126E-05
 -26.126 -0.125E-05 -0.125E-05
 -26.116 -0.124E-05 -0.124E-05
 -26.106 -0.123E-05 -0.123E-05
 -26.096 -0.122E-05 -0.122E-05
 -26.086 -0.120E-05 -0.120E-05
 -26.076 -0.117E-05 -0.117E-05
 -26.066 -0.115E-05 -0.115E-05
 -26.056 -0.111E-05 -0.111E-05
 -26.046 -0.108E-05 -0.108E-05
 -26.036 -0.104E-05 -0.104E-05
 -26.026 -0.989E-06 -0.989E-06
 -26.016 -0.937E-06 -0.937E-06
 -26.006 -0.880E-06 -0.880E-06
 -25.996 -0.818E-06 -0.818E-06
 -25.986 -0.750E-06 -0.750E-06
 -25.976 -0.675E-06 -0.675E-06
 -25.966 -0.595E-06 -0.595E-06
 -25.956 -0.508E-06 -0.508E-06
 -25.946 -0.415E-06 -0.415E-06
 -25.936 -0.314E-06 -0.314E-06
 -25.926 -0.207E-06 -0.207E-06
 -25.916 -0.931E-07 -0.931E-07
 -25.906  0.284E-07  0.284E-07
 -25.896  0.157E-06  0.157E-06
 -25.886  0.294E-06  0.294E-06
 -25.876  0.438E-06  0.438E-06
 -25.866  0.590E-06  0.590E-06
 -25.856  0.751E-06  0.751E-06
 -25.846  0.919E-06  0.919E-06
 -25.836  0.110E-05  0.110E-05
 -25.826  0.128E-05  0.128E-05
 -25.816  0.147E-05  0.147E-05
 -25.806  0.168E-05  0.168E-05
 -25.796  0.189E-05  0.189E-05
 -25.786  0.210E-05  0.210E-05
 -25.776  0.233E-05  0.233E-05
 -25.766  0.257E-05  0.257E-05
 -25.756  0.281E-05  0.281E-05
 -25.746  0.307E-05  0.307E-05
 -25.736  0.333E-05  0.333E-05
 -25.726  0.360E-05  0.360E-05
 -25.716  0.388E-05  0.388E-05
 -25.706  0.416E-05  0.416E-05
 -25.696  0.446E-05  0.446E-05
 -25.686  0.476E-05  0.476E-05
 -25.676  0.507E-05  0.507E-05
 -25.666  0.539E-05  0.539E-05
 -25.656  0.572E-05  0.572E-05
 -25.646  0.605E-05  0.605E-05
 -25.636  0.639E-05  0.639E-05
 -25.626  0.674E-05  0.674E-05
 -25.616  0.709E-05  0.709E-05
 -25.606  0.745E-05  0.745E-05
 -25.596  0.782E-05  0.782E-05
 -25.586  0.819E-05  0.819E-05
 -25.576  0.856E-05  0.856E-05
 -25.566  0.894E-05  0.894E-05
 -25.556  0.933E-05  0.933E-05
 -25.546  0.972E-05  0.972E-05
 -25.536  0.101E-04  0.101E-04
 -25.526  0.105E-04  0.105E-04
 -25.516  0.109E-04  0.109E-04
 -25.506  0.113E-04  0.113E-04
 -25.496  0.117E-04  0.117E-04
 -25.486  0.121E-04  0.121E-04
 -25.476  0.125E-04  0.125E-04
 -25.466  0.129E-04  0.129E-04
 -25.456  0.133E-04  0.133E-04
 -25.446  0.137E-04  0.137E-04
 -25.436  0.141E-04  0.141E-04
 -25.426  0.145E-04  0.145E-04
 -25.416  0.149E-04  0.149E-04
 -25.406  0.153E-04  0.153E-04
 -25.396  0.157E-04  0.157E-04
 -25.386  0.161E-04  0.161E-04
 -25.376  0.165E-04  0.165E-04
 -25.366  0.169E-04  0.169E-04
 -25.356  0.172E-04  0.172E-04
 -25.346  0.176E-04  0.176E-04
 -25.336  0.180E-04  0.180E-04
 -25.326  0.183E-04  0.183E-04
 -25.316  0.186E-04  0.186E-04
 -25.306  0.190E-04  0.190E-04
 -25.296  0.193E-04  0.193E-04
 -25.286  0.196E-04  0.196E-04
 -25.276  0.199E-04  0.199E-04
 -25.266  0.202E-04  0.202E-04
 -25.256  0.205E-04  0.205E-04
 -25.246  0.207E-04  0.207E-04
 -25.236  0.210E-04  0.210E-04
 -25.226  0.212E-04  0.212E-04
 -25.216  0.215E-04  0.215E-04
 -25.206  0.217E-04  0.217E-04
 -25.196  0.219E-04  0.219E-04
 -25.186  0.221E-04  0.221E-04
 -25.176  0.222E-04  0.222E-04
 -25.166  0.224E-04  0.224E-04
 -25.156  0.225E-04  0.225E-04
 -25.146  0.226E-04  0.226E-04
 -25.136  0.228E-04  0.228E-04
 -25.126  0.228E-04  0.228E-04
 -25.116  0.229E-04  0.229E-04
 -25.106  0.230E-04  0.230E-04
 -25.096  0.230E-04  0.230E-04
 -25.086  0.231E-04  0.231E-04
 -25.076  0.231E-04  0.231E-04
 -25.066  0.231E-04  0.231E-04
 -25.056  0.230E-04  0.230E-04
 -25.046  0.230E-04  0.230E-04
 -25.036  0.229E-04  0.229E-04
 -25.026  0.229E-04  0.229E-04
 -25.016  0.228E-04  0.228E-04
 -25.006  0.227E-04  0.227E-04
 -24.996  0.225E-04  0.225E-04
 -24.986  0.224E-04  0.224E-04
 -24.976  0.223E-04  0.223E-04
 -24.966  0.221E-04  0.221E-04
 -24.956  0.219E-04  0.219E-04
 -24.946  0.217E-04  0.217E-04
 -24.936  0.215E-04  0.215E-04
 -24.926  0.213E-04  0.213E-04
 -24.916  0.210E-04  0.210E-04
 -24.906  0.208E-04  0.208E-04
 -24.896  0.205E-04  0.205E-04
 -24.886  0.202E-04  0.202E-04
 -24.876  0.200E-04  0.200E-04
 -24.866  0.197E-04  0.197E-04
 -24.856  0.194E-04  0.194E-04
 -24.846  0.190E-04  0.190E-04
 -24.836  0.187E-04  0.187E-04
 -24.826  0.184E-04  0.184E-04
 -24.816  0.180E-04  0.180E-04
 -24.806  0.177E-04  0.177E-04
 -24.796  0.173E-04  0.173E-04
 -24.786  0.169E-04  0.169E-04
 -24.776  0.166E-04  0.166E-04
 -24.766  0.162E-04  0.162E-04
 -24.756  0.158E-04  0.158E-04
 -24.746  0.154E-04  0.154E-04
 -24.736  0.150E-04  0.150E-04
 -24.726  0.146E-04  0.146E-04
 -24.716  0.142E-04  0.142E-04
 -24.706  0.138E-04  0.138E-04
 -24.696  0.134E-04  0.134E-04
 -24.686  0.130E-04  0.130E-04
 -24.676  0.126E-04  0.126E-04
 -24.666  0.122E-04  0.122E-04
 -24.656  0.118E-04  0.118E-04
 -24.646  0.114E-04  0.114E-04
 -24.636  0.110E-04  0.110E-04
 -24.626  0.106E-04  0.106E-04
 -24.616  0.102E-04  0.102E-04
 -24.606  0.979E-05  0.979E-05
 -24.596  0.940E-05  0.940E-05
 -24.586  0.901E-05  0.901E-05
 -24.576  0.863E-05  0.863E-05
 -24.566  0.825E-05  0.825E-05
 -24.556  0.788E-05  0.788E-05
 -24.546  0.751E-05  0.751E-05
 -24.536  0.715E-05  0.715E-05
 -24.526  0.680E-05  0.680E-05
 -24.516  0.645E-05  0.645E-05
 -24.506  0.611E-05  0.611E-05
 -24.496  0.577E-05  0.577E-05
 -24.486  0.545E-05  0.545E-05
 -24.476  0.513E-05  0.513E-05
 -24.466  0.482E-05  0.482E-05
 -24.456  0.451E-05  0.451E-05
 -24.446  0.421E-05  0.421E-05
 -24.436  0.393E-05  0.393E-05
 -24.426  0.365E-05  0.365E-05
 -24.416  0.338E-05  0.338E-05
 -24.406  0.311E-05  0.311E-05
 -24.396  0.286E-05  0.286E-05
 -24.386  0.261E-05  0.261E-05
 -24.376  0.237E-05  0.237E-05
 -24.366  0.214E-05  0.214E-05
 -24.356  0.192E-05  0.192E-05
 -24.346  0.171E-05  0.171E-05
 -24.336  0.151E-05  0.151E-05
 -24.326  0.131E-05  0.131E-05
 -24.316  0.113E-05  0.113E-05
 -24.306  0.950E-06  0.950E-06
 -24.296  0.780E-06  0.780E-06
 -24.286  0.618E-06  0.618E-06
 -24.276  0.465E-06  0.465E-06
 -24.266  0.319E-06  0.319E-06
 -24.256  0.181E-06  0.181E-06
 -24.246  0.508E-07  0.508E-07
 -24.236 -0.720E-07 -0.720E-07
 -24.226 -0.188E-06 -0.188E-06
 -24.216 -0.296E-06 -0.296E-06
 -24.206 -0.397E-06 -0.397E-06
 -24.196 -0.492E-06 -0.492E-06
 -24.186 -0.580E-06 -0.580E-06
 -24.176 -0.661E-06 -0.661E-06
 -24.166 -0.737E-06 -0.737E-06
 -24.156 -0.806E-06 -0.806E-06
 -24.146 -0.870E-06 -0.870E-06
 -24.136 -0.928E-06 -0.928E-06
 -24.126 -0.980E-06 -0.980E-06
 -24.116 -0.103E-05 -0.103E-05
 -24.106 -0.107E-05 -0.107E-05
 -24.096 -0.111E-05 -0.111E-05
 -24.086 -0.114E-05 -0.114E-05
 -24.076 -0.117E-05 -0.117E-05
 -24.066 -0.119E-05 -0.119E-05
 -24.056 -0.121E-05 -0.121E-05
 -24.046 -0.123E-05 -0.123E-05
 -24.036 -0.124E-05 -0.124E-05
 -24.026 -0.125E-05 -0.125E-05
 -24.016 -0.126E-05 -0.126E-05
 -24.006 -0.126E-05 -0.126E-05
 -23.996 -0.126E-05 -0.126E-05
 -23.986 -0.126E-05 -0.126E-05
 -23.976 -0.125E-05 -0.125E-05
 -23.966 -0.125E-05 -0.125E-05
 -23.956 -0.124E-05 -0.124E-05
 -23.946 -0.123E-05 -0.123E-05
 -23.936 -0.121E-05 -0.121E-05
 -23.926 -0.120E-05 -0.120E-05
 -23.916 -0.118E-05 -0.118E-05
 -23.906 -0.117E-05 -0.117E-05
 -23.896 -0.115E-05 -0.115E-05
 -23.886 -0.113E-05 -0.113E-05
 -23.876 -0.111E-05 -0.111E-05
 -23.866 -0.108E-05 -0.108E-05
 -23.856 -0.106E-05 -0.106E-05
 -23.846 -0.104E-05 -0.104E-05
 -23.836 -0.101E-05 -0.101E-05
 -23.826 -0.988E-06 -0.988E-06
 -23.816 -0.963E-06 -0.963E-06
 -23.806 -0.938E-06 -0.938E-06
 -23.796 -0.912E-06 -0.912E-06
 -23.786 -0.886E-06 -0.886E-06
 -23.776 -0.861E-06 -0.861E-06
 -23.766 -0.835E-06 -0.835E-06
 -23.756 -0.809E-06 -0.809E-06
 -23.746 -0.783E-06 -0.783E-06
 -23.736 -0.758E-06 -0.758E-06
 -23.726 -0.733E-06 -0.733E-06
 -23.716 -0.708E-06 -0.708E-06
 -23.706 -0.683E-06 -0.683E-06
 -23.696 -0.658E-06 -0.658E-06
 -23.686 -0.634E-06 -0.634E-06
 -23.676 -0.611E-06 -0.611E-06
 -23.666 -0.588E-06 -0.588E-06
 -23.656 -0.565E-06 -0.565E-06
 -23.646 -0.543E-06 -0.543E-06
 -23.636 -0.521E-06 -0.521E-06
 -23.626 -0.500E-06 -0.500E-06
 -23.616 -0.479E-06 -0.479E-06
 -23.606 -0.459E-06 -0.459E-06
 -23.596 -0.439E-06 -0.439E-06
 -23.586 -0.420E-06 -0.420E-06
 -23.576 -0.401E-06 -0.401E-06
 -23.566 -0.383E-06 -0.383E-06
 -23.556 -0.366E-06 -0.366E-06
 -23.546 -0.349E-06 -0.349E-06
 -23.536 -0.333E-06 -0.333E-06
 -23.526 -0.317E-06 -0.317E-06
 -23.516 -0.302E-06 -0.302E-06
 -23.506 -0.287E-06 -0.287E-06
 -23.496 -0.273E-06 -0.273E-06
 -23.486 -0.260E-06 -0.260E-06
 -23.476 -0.247E-06 -0.247E-06
 -23.466 -0.234E-06 -0.234E-06
 -23.456 -0.222E-06 -0.222E-06
 -23.446 -0.210E-06 -0.210E-06
 -23.436 -0.199E-06 -0.199E-06
 -23.426 -0.189E-06 -0.189E-06
 -23.416 -0.179E-06 -0.179E-06
 -23.406 -0.169E-06 -0.169E-06
 -23.396 -0.160E-06 -0.160E-06
 -23.386 -0.151E-06 -0.151E-06
 -23.376 -0.142E-06 -0.142E-06
 -23.366 -0.134E-06 -0.134E-06
 -23.356 -0.127E-06 -0.127E-06
 -23.346 -0.119E-06 -0.119E-06
 -23.336 -0.112E-06 -0.112E-06
 -23.326 -0.106E-06 -0.106E-06
 -23.316 -0.995E-07 -0.995E-07
 -23.306 -0.935E-07 -0.935E-07
 -23.296 -0.879E-07 -0.879E-07
 -23.286 -0.825E-07 -0.825E-07
 -23.276 -0.775E-07 -0.775E-07
 -23.266 -0.727E-07 -0.727E-07
 -23.256 -0.681E-07 -0.681E-07
 -23.246 -0.639E-07 -0.639E-07
 -23.236 -0.598E-07 -0.598E-07
 -23.226 -0.560E-07 -0.560E-07
 -23.216 -0.524E-07 -0.524E-07
 -23.206 -0.490E-07 -0.490E-07
 -23.196 -0.458E-07 -0.458E-07
 -23.186 -0.428E-07 -0.428E-07
 -23.176 -0.399E-07 -0.399E-07
 -23.166 -0.372E-07 -0.372E-07
 -23.156 -0.347E-07 -0.347E-07
 -23.146 -0.324E-07 -0.324E-07
 -23.136 -0.302E-07 -0.302E-07
 -23.126 -0.281E-07 -0.281E-07
 -23.116 -0.261E-07 -0.261E-07
 -23.106 -0.243E-07 -0.243E-07
 -23.096 -0.226E-07 -0.226E-07
 -23.086 -0.210E-07 -0.210E-07
 -23.076 -0.195E-07 -0.195E-07
 -23.066 -0.181E-07 -0.181E-07
 -23.056 -0.168E-07 -0.168E-07
 -23.046 -0.156E-07 -0.156E-07
 -23.036 -0.144E-07 -0.144E-07
 -23.026 -0.134E-07 -0.134E-07
 -23.016 -0.124E-07 -0.124E-07
 -23.006 -0.114E-07 -0.114E-07
 -22.996 -0.106E-07 -0.106E-07
 -22.986 -0.979E-08 -0.979E-08
 -22.976 -0.905E-08 -0.905E-08
 -22.966 -0.836E-08 -0.836E-08
 -22.956 -0.772E-08 -0.772E-08
 -22.946 -0.712E-08 -0.712E-08
 -22.936 -0.657E-08 -0.657E-08
 -22.926 -0.606E-08 -0.606E-08
 -22.916 -0.558E-08 -0.558E-08
 -22.906 -0.514E-08 -0.514E-08
 -22.896 -0.474E-08 -0.474E-08
 -22.886 -0.436E-08 -0.436E-08
 -22.876 -0.401E-08 -0.401E-08
 -22.866 -0.369E-08 -0.369E-08
 -22.856 -0.340E-08 -0.340E-08
 -22.846 -0.313E-08 -0.313E-08
 -22.836 -0.288E-08 -0.288E-08
 -22.826 -0.265E-08 -0.265E-08
 -22.816 -0.243E-08 -0.243E-08
 -22.806 -0.224E-08 -0.224E-08
 -22.796 -0.206E-08 -0.206E-08
 -22.786 -0.190E-08 -0.190E-08
 -22.776 -0.175E-08 -0.175E-08
 -22.766 -0.162E-08 -0.162E-08
 -22.756 -0.149E-08 -0.149E-08
 -22.746 -0.138E-08 -0.138E-08
 -22.736 -0.128E-08 -0.128E-08
 -22.726 -0.119E-08 -0.119E-08
 -22.716 -0.111E-08 -0.111E-08
 -22.706 -0.104E-08 -0.104E-08
 -22.696 -0.981E-09 -0.981E-09
 -22.686 -0.926E-09 -0.926E-09
 -22.676 -0.880E-09 -0.880E-09
 -22.666 -0.840E-09 -0.840E-09
 -22.656 -0.808E-09 -0.808E-09
 -22.646 -0.783E-09 -0.783E-09
 -22.636 -0.764E-09 -0.764E-09
 -22.626 -0.751E-09 -0.751E-09
 -22.616 -0.745E-09 -0.745E-09
 -22.606 -0.745E-09 -0.745E-09
 -22.596 -0.752E-09 -0.752E-09
 -22.586 -0.764E-09 -0.764E-09
 -22.576 -0.783E-09 -0.783E-09
 -22.566 -0.808E-09 -0.808E-09
 -22.556 -0.840E-09 -0.840E-09
 -22.546 -0.878E-09 -0.878E-09
 -22.536 -0.922E-09 -0.922E-09
 -22.526 -0.974E-09 -0.974E-09
 -22.516 -0.103E-08 -0.103E-08
 -22.506 -0.110E-08 -0.110E-08
 -22.496 -0.117E-08 -0.117E-08
 -22.486 -0.126E-08 -0.126E-08
 -22.476 -0.135E-08 -0.135E-08
 -22.466 -0.145E-08 -0.145E-08
 -22.456 -0.156E-08 -0.156E-08
 -22.446 -0.168E-08 -0.168E-08
 -22.436 -0.181E-08 -0.181E-08
 -22.426 -0.195E-08 -0.195E-08
 -22.416 -0.211E-08 -0.211E-08
 -22.406 -0.228E-08 -0.228E-08
 -22.396 -0.246E-08 -0.246E-08
 -22.386 -0.265E-08 -0.265E-08
 -22.376 -0.287E-08 -0.287E-08
 -22.366 -0.309E-08 -0.309E-08
 -22.356 -0.334E-08 -0.334E-08
 -22.346 -0.361E-08 -0.361E-08
 -22.336 -0.389E-08 -0.389E-08
 -22.326 -0.420E-08 -0.420E-08
 -22.316 -0.453E-08 -0.453E-08
 -22.306 -0.488E-08 -0.488E-08
 -22.296 -0.526E-08 -0.526E-08
 -22.286 -0.566E-08 -0.566E-08
 -22.276 -0.609E-08 -0.609E-08
 -22.266 -0.656E-08 -0.656E-08
 -22.256 -0.705E-08 -0.705E-08
 -22.246 -0.758E-08 -0.758E-08
 -22.236 -0.814E-08 -0.814E-08
 -22.226 -0.874E-08 -0.874E-08
 -22.216 -0.939E-08 -0.939E-08
 -22.206 -0.101E-07 -0.101E-07
 -22.196 -0.108E-07 -0.108E-07
 -22.186 -0.116E-07 -0.116E-07
 -22.176 -0.124E-07 -0.124E-07
 -22.166 -0.133E-07 -0.133E-07
 -22.156 -0.142E-07 -0.142E-07
 -22.146 -0.152E-07 -0.152E-07
 -22.136 -0.162E-07 -0.162E-07
 -22.126 -0.173E-07 -0.173E-07
 -22.116 -0.185E-07 -0.185E-07
 -22.106 -0.198E-07 -0.198E-07
 -22.096 -0.211E-07 -0.211E-07
 -22.086 -0.225E-07 -0.225E-07
 -22.076 -0.239E-07 -0.239E-07
 -22.066 -0.255E-07 -0.255E-07
 -22.056 -0.271E-07 -0.271E-07
 -22.046 -0.288E-07 -0.288E-07
 -22.036 -0.306E-07 -0.306E-07
 -22.026 -0.326E-07 -0.326E-07
 -22.016 -0.346E-07 -0.346E-07
 -22.006 -0.367E-07 -0.367E-07
 -21.996 -0.389E-07 -0.389E-07
 -21.986 -0.412E-07 -0.412E-07
 -21.976 -0.437E-07 -0.437E-07
 -21.966 -0.463E-07 -0.463E-07
 -21.956 -0.489E-07 -0.489E-07
 -21.946 -0.518E-07 -0.518E-07
 -21.936 -0.547E-07 -0.547E-07
 -21.926 -0.578E-07 -0.578E-07
 -21.916 -0.610E-07 -0.610E-07
 -21.906 -0.643E-07 -0.643E-07
 -21.896 -0.678E-07 -0.678E-07
 -21.886 -0.715E-07 -0.715E-07
 -21.876 -0.753E-07 -0.753E-07
 -21.866 -0.792E-07 -0.792E-07
 -21.856 -0.833E-07 -0.833E-07
 -21.846 -0.875E-07 -0.875E-07
 -21.836 -0.920E-07 -0.920E-07
 -21.826 -0.965E-07 -0.965E-07
 -21.816 -0.101E-06 -0.101E-06
 -21.806 -0.106E-06 -0.106E-06
 -21.796 -0.111E-06 -0.111E-06
 -21.786 -0.116E-06 -0.116E-06
 -21.776 -0.122E-06 -0.122E-06
 -21.766 -0.127E-06 -0.127E-06
 -21.756 -0.133E-06 -0.133E-06
 -21.746 -0.139E-06 -0.139E-06
 -21.736 -0.145E-06 -0.145E-06
 -21.726 -0.151E-06 -0.151E-06
 -21.716 -0.157E-06 -0.157E-06
 -21.706 -0.164E-06 -0.164E-06
 -21.696 -0.170E-06 -0.170E-06
 -21.686 -0.177E-06 -0.177E-06
 -21.676 -0.184E-06 -0.184E-06
 -21.666 -0.191E-06 -0.191E-06
 -21.656 -0.198E-06 -0.198E-06
 -21.646 -0.205E-06 -0.205E-06
 -21.636 -0.212E-06 -0.212E-06
 -21.626 -0.220E-06 -0.220E-06
 -21.616 -0.227E-06 -0.227E-06
 -21.606 -0.235E-06 -0.235E-06
 -21.596 -0.242E-06 -0.242E-06
 -21.586 -0.250E-06 -0.250E-06
 -21.576 -0.257E-06 -0.257E-06
 -21.566 -0.265E-06 -0.265E-06
 -21.556 -0.272E-06 -0.272E-06
 -21.546 -0.279E-06 -0.279E-06
 -21.536 -0.287E-06 -0.287E-06
 -21.526 -0.294E-06 -0.294E-06
 -21.516 -0.301E-06 -0.301E-06
 -21.506 -0.308E-06 -0.308E-06
 -21.496 -0.314E-06 -0.314E-06
 -21.486 -0.321E-06 -0.321E-06
 -21.476 -0.327E-06 -0.327E-06
 -21.466 -0.333E-06 -0.333E-06
 -21.456 -0.338E-06 -0.338E-06
 -21.446 -0.343E-06 -0.343E-06
 -21.436 -0.348E-06 -0.348E-06
 -21.426 -0.353E-06 -0.353E-06
 -21.416 -0.356E-06 -0.356E-06
 -21.406 -0.360E-06 -0.360E-06
 -21.396 -0.362E-06 -0.362E-06
 -21.386 -0.364E-06 -0.364E-06
 -21.376 -0.366E-06 -0.366E-06
 -21.366 -0.367E-06 -0.367E-06
 -21.356 -0.366E-06 -0.366E-06
 -21.346 -0.366E-06 -0.366E-06
 -21.336 -0.364E-06 -0.364E-06
 -21.326 -0.361E-06 -0.361E-06
 -21.316 -0.357E-06 -0.357E-06
 -21.306 -0.353E-06 -0.353E-06
 -21.296 -0.347E-06 -0.347E-06
 -21.286 -0.340E-06 -0.340E-06
 -21.276 -0.332E-06 -0.332E-06
 -21.266 -0.322E-06 -0.322E-06
 -21.256 -0.312E-06 -0.312E-06
 -21.246 -0.299E-06 -0.299E-06
 -21.236 -0.286E-06 -0.286E-06
 -21.226 -0.271E-06 -0.271E-06
 -21.216 -0.254E-06 -0.254E-06
 -21.206 -0.236E-06 -0.236E-06
 -21.196 -0.216E-06 -0.216E-06
 -21.186 -0.194E-06 -0.194E-06
 -21.176 -0.171E-06 -0.171E-06
 -21.166 -0.145E-06 -0.145E-06
 -21.156 -0.118E-06 -0.118E-06
 -21.146 -0.889E-07 -0.889E-07
 -21.136 -0.577E-07 -0.577E-07
 -21.126 -0.245E-07 -0.245E-07
 -21.116  0.109E-07  0.109E-07
 -21.106  0.484E-07  0.484E-07
 -21.096  0.881E-07  0.881E-07
 -21.086  0.130E-06  0.130E-06
 -21.076  0.174E-06  0.174E-06
 -21.066  0.221E-06  0.221E-06
 -21.056  0.270E-06  0.270E-06
 -21.046  0.321E-06  0.321E-06
 -21.036  0.374E-06  0.374E-06
 -21.026  0.430E-06  0.430E-06
 -21.016  0.489E-06  0.489E-06
 -21.006  0.550E-06  0.550E-06
 -20.996  0.613E-06  0.613E-06
 -20.986  0.679E-06  0.679E-06
 -20.976  0.747E-06  0.747E-06
 -20.966  0.818E-06  0.818E-06
 -20.956  0.891E-06  0.891E-06
 -20.946  0.967E-06  0.967E-06
 -20.936  0.104E-05  0.104E-05
 -20.926  0.112E-05  0.112E-05
 -20.916  0.121E-05  0.121E-05
 -20.906  0.129E-05  0.129E-05
 -20.896  0.138E-05  0.138E-05
 -20.886  0.147E-05  0.147E-05
 -20.876  0.156E-05  0.156E-05
 -20.866  0.165E-05  0.165E-05
 -20.856  0.175E-05  0.175E-05
 -20.846  0.185E-05  0.185E-05
 -20.836  0.195E-05  0.195E-05
 -20.826  0.205E-05  0.205E-05
 -20.816  0.215E-05  0.215E-05
 -20.806  0.226E-05  0.226E-05
 -20.796  0.236E-05  0.236E-05
 -20.786  0.247E-05  0.247E-05
 -20.776  0.258E-05  0.258E-05
 -20.766  0.269E-05  0.269E-05
 -20.756  0.280E-05  0.280E-05
 -20.746  0.291E-05  0.291E-05
 -20.736  0.302E-05  0.302E-05
 -20.726  0.314E-05  0.314E-05
 -20.716  0.325E-05  0.325E-05
 -20.706  0.336E-05  0.336E-05
 -20.696  0.348E-05  0.348E-05
 -20.686  0.359E-05  0.359E-05
 -20.676  0.371E-05  0.371E-05
 -20.666  0.382E-05  0.382E-05
 -20.656  0.393E-05  0.393E-05
 -20.646  0.405E-05  0.405E-05
 -20.636  0.416E-05  0.416E-05
 -20.626  0.427E-05  0.427E-05
 -20.616  0.438E-05  0.438E-05
 -20.606  0.449E-05  0.449E-05
 -20.596  0.459E-05  0.459E-05
 -20.586  0.470E-05  0.470E-05
 -20.576  0.480E-05  0.480E-05
 -20.566  0.491E-05  0.491E-05
 -20.556  0.500E-05  0.500E-05
 -20.546  0.510E-05  0.510E-05
 -20.536  0.520E-05  0.520E-05
 -20.526  0.529E-05  0.529E-05
 -20.516  0.538E-05  0.538E-05
 -20.506  0.546E-05  0.546E-05
 -20.496  0.555E-05  0.555E-05
 -20.486  0.563E-05  0.563E-05
 -20.476  0.570E-05  0.570E-05
 -20.466  0.577E-05  0.577E-05
 -20.456  0.584E-05  0.584E-05
 -20.446  0.591E-05  0.591E-05
 -20.436  0.597E-05  0.597E-05
 -20.426  0.603E-05  0.603E-05
 -20.416  0.608E-05  0.608E-05
 -20.406  0.613E-05  0.613E-05
 -20.396  0.617E-05  0.617E-05
 -20.386  0.621E-05  0.621E-05
 -20.376  0.625E-05  0.625E-05
 -20.366  0.628E-05  0.628E-05
 -20.356  0.630E-05  0.630E-05
 -20.346  0.632E-05  0.632E-05
 -20.336  0.634E-05  0.634E-05
 -20.326  0.635E-05  0.635E-05
 -20.316  0.636E-05  0.636E-05
 -20.306  0.636E-05  0.636E-05
 -20.296  0.636E-05  0.636E-05
 -20.286  0.635E-05  0.635E-05
 -20.276  0.634E-05  0.634E-05
 -20.266  0.632E-05  0.632E-05
 -20.256  0.630E-05  0.630E-05
 -20.246  0.627E-05  0.627E-05
 -20.236  0.624E-05  0.624E-05
 -20.226  0.620E-05  0.620E-05
 -20.216  0.616E-05  0.616E-05
 -20.206  0.612E-05  0.612E-05
 -20.196  0.607E-05  0.607E-05
 -20.186  0.602E-05  0.602E-05
 -20.176  0.596E-05  0.596E-05
 -20.166  0.590E-05  0.590E-05
 -20.156  0.584E-05  0.584E-05
 -20.146  0.577E-05  0.577E-05
 -20.136  0.570E-05  0.570E-05
 -20.126  0.562E-05  0.562E-05
 -20.116  0.555E-05  0.555E-05
 -20.106  0.547E-05  0.547E-05
 -20.096  0.538E-05  0.538E-05
 -20.086  0.530E-05  0.530E-05
 -20.076  0.521E-05  0.521E-05
 -20.066  0.512E-05  0.512E-05
 -20.056  0.503E-05  0.503E-05
 -20.046  0.494E-05  0.494E-05
 -20.036  0.485E-05  0.485E-05
 -20.026  0.475E-05  0.475E-05
 -20.016  0.466E-05  0.466E-05
 -20.006  0.456E-05  0.456E-05
 -19.996  0.446E-05  0.446E-05
 -19.986  0.436E-05  0.436E-05
 -19.976  0.427E-05  0.427E-05
 -19.966  0.417E-05  0.417E-05
 -19.956  0.408E-05  0.408E-05
 -19.946  0.398E-05  0.398E-05
 -19.936  0.389E-05  0.389E-05
 -19.926  0.379E-05  0.379E-05
 -19.916  0.370E-05  0.370E-05
 -19.906  0.361E-05  0.361E-05
 -19.896  0.353E-05  0.353E-05
 -19.886  0.344E-05  0.344E-05
 -19.876  0.336E-05  0.336E-05
 -19.866  0.328E-05  0.328E-05
 -19.856  0.320E-05  0.320E-05
 -19.846  0.313E-05  0.313E-05
 -19.836  0.306E-05  0.306E-05
 -19.826  0.300E-05  0.300E-05
 -19.816  0.293E-05  0.293E-05
 -19.806  0.287E-05  0.287E-05
 -19.796  0.282E-05  0.282E-05
 -19.786  0.277E-05  0.277E-05
 -19.776  0.272E-05  0.272E-05
 -19.766  0.268E-05  0.268E-05
 -19.756  0.265E-05  0.265E-05
 -19.746  0.262E-05  0.262E-05
 -19.736  0.259E-05  0.259E-05
 -19.726  0.257E-05  0.257E-05
 -19.716  0.255E-05  0.255E-05
 -19.706  0.254E-05  0.254E-05
 -19.696  0.254E-05  0.254E-05
 -19.686  0.254E-05  0.254E-05
 -19.676  0.254E-05  0.254E-05
 -19.666  0.256E-05  0.256E-05
 -19.656  0.257E-05  0.257E-05
 -19.646  0.259E-05  0.259E-05
 -19.636  0.262E-05  0.262E-05
 -19.626  0.266E-05  0.266E-05
 -19.616  0.269E-05  0.269E-05
 -19.606  0.274E-05  0.274E-05
 -19.596  0.279E-05  0.279E-05
 -19.586  0.284E-05  0.284E-05
 -19.576  0.290E-05  0.290E-05
 -19.566  0.297E-05  0.297E-05
 -19.556  0.304E-05  0.304E-05
 -19.546  0.312E-05  0.312E-05
 -19.536  0.320E-05  0.320E-05
 -19.526  0.328E-05  0.328E-05
 -19.516  0.337E-05  0.337E-05
 -19.506  0.347E-05  0.347E-05
 -19.496  0.356E-05  0.356E-05
 -19.486  0.367E-05  0.367E-05
 -19.476  0.377E-05  0.377E-05
 -19.466  0.388E-05  0.388E-05
 -19.456  0.399E-05  0.399E-05
 -19.446  0.411E-05  0.411E-05
 -19.436  0.423E-05  0.423E-05
 -19.426  0.435E-05  0.435E-05
 -19.416  0.448E-05  0.448E-05
 -19.406  0.460E-05  0.460E-05
 -19.396  0.473E-05  0.473E-05
 -19.386  0.486E-05  0.486E-05
 -19.376  0.499E-05  0.499E-05
 -19.366  0.513E-05  0.513E-05
 -19.356  0.526E-05  0.526E-05
 -19.346  0.539E-05  0.539E-05
 -19.336  0.553E-05  0.553E-05
 -19.326  0.566E-05  0.566E-05
 -19.316  0.580E-05  0.580E-05
 -19.306  0.593E-05  0.593E-05
 -19.296  0.607E-05  0.607E-05
 -19.286  0.620E-05  0.620E-05
 -19.276  0.633E-05  0.633E-05
 -19.266  0.646E-05  0.646E-05
 -19.256  0.659E-05  0.659E-05
 -19.246  0.671E-05  0.671E-05
 -19.236  0.683E-05  0.683E-05
 -19.226  0.695E-05  0.695E-05
 -19.216  0.707E-05  0.707E-05
 -19.206  0.719E-05  0.719E-05
 -19.196  0.730E-05  0.730E-05
 -19.186  0.740E-05  0.740E-05
 -19.176  0.751E-05  0.751E-05
 -19.166  0.761E-05  0.761E-05
 -19.156  0.770E-05  0.770E-05
 -19.146  0.779E-05  0.779E-05
 -19.136  0.788E-05  0.788E-05
 -19.126  0.796E-05  0.796E-05
 -19.116  0.803E-05  0.803E-05
 -19.106  0.810E-05  0.810E-05
 -19.096  0.816E-05  0.816E-05
 -19.086  0.822E-05  0.822E-05
 -19.076  0.828E-05  0.828E-05
 -19.066  0.832E-05  0.832E-05
 -19.056  0.837E-05  0.837E-05
 -19.046  0.840E-05  0.840E-05
 -19.036  0.843E-05  0.843E-05
 -19.026  0.845E-05  0.845E-05
 -19.016  0.847E-05  0.847E-05
 -19.006  0.848E-05  0.848E-05
 -18.996  0.848E-05  0.848E-05
 -18.986  0.848E-05  0.848E-05
 -18.976  0.847E-05  0.847E-05
 -18.966  0.846E-05  0.846E-05
 -18.956  0.843E-05  0.843E-05
 -18.946  0.841E-05  0.841E-05
 -18.936  0.837E-05  0.837E-05
 -18.926  0.833E-05  0.833E-05
 -18.916  0.829E-05  0.829E-05
 -18.906  0.823E-05  0.823E-05
 -18.896  0.817E-05  0.817E-05
 -18.886  0.811E-05  0.811E-05
 -18.876  0.804E-05  0.804E-05
 -18.866  0.796E-05  0.796E-05
 -18.856  0.788E-05  0.788E-05
 -18.846  0.779E-05  0.779E-05
 -18.836  0.770E-05  0.770E-05
 -18.826  0.760E-05  0.760E-05
 -18.816  0.750E-05  0.750E-05
 -18.806  0.739E-05  0.739E-05
 -18.796  0.728E-05  0.728E-05
 -18.786  0.716E-05  0.716E-05
 -18.776  0.704E-05  0.704E-05
 -18.766  0.691E-05  0.691E-05
 -18.756  0.679E-05  0.679E-05
 -18.746  0.665E-05  0.665E-05
 -18.736  0.652E-05  0.652E-05
 -18.726  0.637E-05  0.637E-05
 -18.716  0.623E-05  0.623E-05
 -18.706  0.609E-05  0.609E-05
 -18.696  0.594E-05  0.594E-05
 -18.686  0.578E-05  0.578E-05
 -18.676  0.563E-05  0.563E-05
 -18.666  0.547E-05  0.547E-05
 -18.656  0.532E-05  0.532E-05
 -18.646  0.516E-05  0.516E-05
 -18.636  0.499E-05  0.499E-05
 -18.626  0.483E-05  0.483E-05
 -18.616  0.467E-05  0.467E-05
 -18.606  0.450E-05  0.450E-05
 -18.596  0.433E-05  0.433E-05
 -18.586  0.417E-05  0.417E-05
 -18.576  0.400E-05  0.400E-05
 -18.566  0.383E-05  0.383E-05
 -18.556  0.367E-05  0.367E-05
 -18.546  0.350E-05  0.350E-05
 -18.536  0.333E-05  0.333E-05
 -18.526  0.316E-05  0.316E-05
 -18.516  0.300E-05  0.300E-05
 -18.506  0.283E-05  0.283E-05
 -18.496  0.267E-05  0.267E-05
 -18.486  0.250E-05  0.250E-05
 -18.476  0.234E-05  0.234E-05
 -18.466  0.217E-05  0.217E-05
 -18.456  0.201E-05  0.201E-05
 -18.446  0.185E-05  0.185E-05
 -18.436  0.169E-05  0.169E-05
 -18.426  0.154E-05  0.154E-05
 -18.416  0.138E-05  0.138E-05
 -18.406  0.123E-05  0.123E-05
 -18.396  0.108E-05  0.108E-05
 -18.386  0.926E-06  0.926E-06
 -18.376  0.777E-06  0.777E-06
 -18.366  0.630E-06  0.630E-06
 -18.356  0.486E-06  0.486E-06
 -18.346  0.343E-06  0.343E-06
 -18.336  0.202E-06  0.202E-06
 -18.326  0.634E-07  0.634E-07
 -18.316 -0.731E-07 -0.731E-07
 -18.306 -0.207E-06 -0.207E-06
 -18.296 -0.340E-06 -0.340E-06
 -18.286 -0.470E-06 -0.470E-06
 -18.276 -0.597E-06 -0.597E-06
 -18.266 -0.722E-06 -0.722E-06
 -18.256 -0.845E-06 -0.845E-06
 -18.246 -0.966E-06 -0.966E-06
 -18.236 -0.108E-05 -0.108E-05
 -18.226 -0.120E-05 -0.120E-05
 -18.216 -0.131E-05 -0.131E-05
 -18.206 -0.142E-05 -0.142E-05
 -18.196 -0.153E-05 -0.153E-05
 -18.186 -0.164E-05 -0.164E-05
 -18.176 -0.174E-05 -0.174E-05
 -18.166 -0.184E-05 -0.184E-05
 -18.156 -0.194E-05 -0.194E-05
 -18.146 -0.203E-05 -0.203E-05
 -18.136 -0.212E-05 -0.212E-05
 -18.126 -0.221E-05 -0.221E-05
 -18.116 -0.229E-05 -0.229E-05
 -18.106 -0.237E-05 -0.237E-05
 -18.096 -0.245E-05 -0.245E-05
 -18.086 -0.252E-05 -0.252E-05
 -18.076 -0.259E-05 -0.259E-05
 -18.066 -0.266E-05 -0.266E-05
 -18.056 -0.272E-05 -0.272E-05
 -18.046 -0.278E-05 -0.278E-05
 -18.036 -0.283E-05 -0.283E-05
 -18.026 -0.288E-05 -0.288E-05
 -18.016 -0.292E-05 -0.292E-05
 -18.006 -0.296E-05 -0.296E-05
 -17.996 -0.300E-05 -0.300E-05
 -17.986 -0.302E-05 -0.302E-05
 -17.976 -0.304E-05 -0.304E-05
 -17.966 -0.306E-05 -0.306E-05
 -17.956 -0.307E-05 -0.307E-05
 -17.946 -0.307E-05 -0.307E-05
 -17.936 -0.307E-05 -0.307E-05
 -17.926 -0.306E-05 -0.306E-05
 -17.916 -0.304E-05 -0.304E-05
 -17.906 -0.301E-05 -0.301E-05
 -17.896 -0.298E-05 -0.298E-05
 -17.886 -0.293E-05 -0.293E-05
 -17.876 -0.288E-05 -0.288E-05
 -17.866 -0.282E-05 -0.282E-05
 -17.856 -0.275E-05 -0.275E-05
 -17.846 -0.267E-05 -0.267E-05
 -17.836 -0.258E-05 -0.258E-05
 -17.826 -0.248E-05 -0.248E-05
 -17.816 -0.236E-05 -0.236E-05
 -17.806 -0.224E-05 -0.224E-05
 -17.796 -0.210E-05 -0.210E-05
 -17.786 -0.195E-05 -0.195E-05
 -17.776 -0.179E-05 -0.179E-05
 -17.766 -0.162E-05 -0.162E-05
 -17.756 -0.143E-05 -0.143E-05
 -17.746 -0.123E-05 -0.123E-05
 -17.736 -0.102E-05 -0.102E-05
 -17.726 -0.787E-06 -0.787E-06
 -17.716 -0.543E-06 -0.543E-06
 -17.706 -0.285E-06 -0.285E-06
 -17.696 -0.106E-07 -0.106E-07
 -17.686  0.279E-06  0.279E-06
 -17.676  0.584E-06  0.584E-06
 -17.666  0.906E-06  0.906E-06
 -17.656  0.124E-05  0.124E-05
 -17.646  0.160E-05  0.160E-05
 -17.636  0.197E-05  0.197E-05
 -17.626  0.236E-05  0.236E-05
 -17.616  0.276E-05  0.276E-05
 -17.606  0.319E-05  0.319E-05
 -17.596  0.363E-05  0.363E-05
 -17.586  0.408E-05  0.408E-05
 -17.576  0.456E-05  0.456E-05
 -17.566  0.505E-05  0.505E-05
 -17.556  0.556E-05  0.556E-05
 -17.546  0.609E-05  0.609E-05
 -17.536  0.663E-05  0.663E-05
 -17.526  0.719E-05  0.719E-05
 -17.516  0.777E-05  0.777E-05
 -17.506  0.837E-05  0.837E-05
 -17.496  0.898E-05  0.898E-05
 -17.486  0.961E-05  0.961E-05
 -17.476  0.103E-04  0.103E-04
 -17.466  0.109E-04  0.109E-04
 -17.456  0.116E-04  0.116E-04
 -17.446  0.123E-04  0.123E-04
 -17.436  0.130E-04  0.130E-04
 -17.426  0.137E-04  0.137E-04
 -17.416  0.144E-04  0.144E-04
 -17.406  0.152E-04  0.152E-04
 -17.396  0.159E-04  0.159E-04
 -17.386  0.167E-04  0.167E-04
 -17.376  0.175E-04  0.175E-04
 -17.366  0.183E-04  0.183E-04
 -17.356  0.191E-04  0.191E-04
 -17.346  0.199E-04  0.199E-04
 -17.336  0.207E-04  0.207E-04
 -17.326  0.215E-04  0.215E-04
 -17.316  0.223E-04  0.223E-04
 -17.306  0.231E-04  0.231E-04
 -17.296  0.240E-04  0.240E-04
 -17.286  0.248E-04  0.248E-04
 -17.276  0.256E-04  0.256E-04
 -17.266  0.265E-04  0.265E-04
 -17.256  0.273E-04  0.273E-04
 -17.246  0.281E-04  0.281E-04
 -17.236  0.290E-04  0.290E-04
 -17.226  0.298E-04  0.298E-04
 -17.216  0.306E-04  0.306E-04
 -17.206  0.314E-04  0.314E-04
 -17.196  0.322E-04  0.322E-04
 -17.186  0.330E-04  0.330E-04
 -17.176  0.338E-04  0.338E-04
 -17.166  0.346E-04  0.346E-04
 -17.156  0.354E-04  0.354E-04
 -17.146  0.361E-04  0.361E-04
 -17.136  0.368E-04  0.368E-04
 -17.126  0.376E-04  0.376E-04
 -17.116  0.383E-04  0.383E-04
 -17.106  0.389E-04  0.389E-04
 -17.096  0.396E-04  0.396E-04
 -17.086  0.402E-04  0.402E-04
 -17.076  0.409E-04  0.409E-04
 -17.066  0.415E-04  0.415E-04
 -17.056  0.420E-04  0.420E-04
 -17.046  0.426E-04  0.426E-04
 -17.036  0.431E-04  0.431E-04
 -17.026  0.436E-04  0.436E-04
 -17.016  0.441E-04  0.441E-04
 -17.006  0.445E-04  0.445E-04
 -16.996  0.449E-04  0.449E-04
 -16.986  0.453E-04  0.453E-04
 -16.976  0.457E-04  0.457E-04
 -16.966  0.460E-04  0.460E-04
 -16.956  0.463E-04  0.463E-04
 -16.946  0.465E-04  0.465E-04
 -16.936  0.468E-04  0.468E-04
 -16.926  0.470E-04  0.470E-04
 -16.916  0.471E-04  0.471E-04
 -16.906  0.472E-04  0.472E-04
 -16.896  0.473E-04  0.473E-04
 -16.886  0.474E-04  0.474E-04
 -16.876  0.474E-04  0.474E-04
 -16.866  0.474E-04  0.474E-04
 -16.856  0.474E-04  0.474E-04
 -16.846  0.473E-04  0.473E-04
 -16.836  0.472E-04  0.472E-04
 -16.826  0.470E-04  0.470E-04
 -16.816  0.469E-04  0.469E-04
 -16.806  0.467E-04  0.467E-04
 -16.796  0.464E-04  0.464E-04
 -16.786  0.461E-04  0.461E-04
 -16.776  0.458E-04  0.458E-04
 -16.766  0.455E-04  0.455E-04
 -16.756  0.451E-04  0.451E-04
 -16.746  0.447E-04  0.447E-04
 -16.736  0.443E-04  0.443E-04
 -16.726  0.439E-04  0.439E-04
 -16.716  0.434E-04  0.434E-04
 -16.706  0.429E-04  0.429E-04
 -16.696  0.423E-04  0.423E-04
 -16.686  0.418E-04  0.418E-04
 -16.676  0.412E-04  0.412E-04
 -16.666  0.406E-04  0.406E-04
 -16.656  0.400E-04  0.400E-04
 -16.646  0.393E-04  0.393E-04
 -16.636  0.386E-04  0.386E-04
 -16.626  0.380E-04  0.380E-04
 -16.616  0.373E-04  0.373E-04
 -16.606  0.365E-04  0.365E-04
 -16.596  0.358E-04  0.358E-04
 -16.586  0.350E-04  0.350E-04
 -16.576  0.343E-04  0.343E-04
 -16.566  0.335E-04  0.335E-04
 -16.556  0.327E-04  0.327E-04
 -16.546  0.319E-04  0.319E-04
 -16.536  0.311E-04  0.311E-04
 -16.526  0.303E-04  0.303E-04
 -16.516  0.295E-04  0.295E-04
 -16.506  0.287E-04  0.287E-04
 -16.496  0.279E-04  0.279E-04
 -16.486  0.271E-04  0.271E-04
 -16.476  0.262E-04  0.262E-04
 -16.466  0.254E-04  0.254E-04
 -16.456  0.246E-04  0.246E-04
 -16.446  0.238E-04  0.238E-04
 -16.436  0.230E-04  0.230E-04
 -16.426  0.221E-04  0.221E-04
 -16.416  0.213E-04  0.213E-04
 -16.406  0.205E-04  0.205E-04
 -16.396  0.197E-04  0.197E-04
 -16.386  0.190E-04  0.190E-04
 -16.376  0.182E-04  0.182E-04
 -16.366  0.174E-04  0.174E-04
 -16.356  0.166E-04  0.166E-04
 -16.346  0.159E-04  0.159E-04
 -16.336  0.152E-04  0.152E-04
 -16.326  0.144E-04  0.144E-04
 -16.316  0.137E-04  0.137E-04
 -16.306  0.130E-04  0.130E-04
 -16.296  0.124E-04  0.124E-04
 -16.286  0.117E-04  0.117E-04
 -16.276  0.110E-04  0.110E-04
 -16.266  0.104E-04  0.104E-04
 -16.256  0.978E-05  0.978E-05
 -16.246  0.918E-05  0.918E-05
 -16.236  0.859E-05  0.859E-05
 -16.226  0.802E-05  0.802E-05
 -16.216  0.746E-05  0.746E-05
 -16.206  0.692E-05  0.692E-05
 -16.196  0.640E-05  0.640E-05
 -16.186  0.590E-05  0.590E-05
 -16.176  0.541E-05  0.541E-05
 -16.166  0.494E-05  0.494E-05
 -16.156  0.449E-05  0.449E-05
 -16.146  0.406E-05  0.406E-05
 -16.136  0.364E-05  0.364E-05
 -16.126  0.324E-05  0.324E-05
 -16.116  0.286E-05  0.286E-05
 -16.106  0.249E-05  0.249E-05
 -16.096  0.214E-05  0.214E-05
 -16.086  0.181E-05  0.181E-05
 -16.076  0.149E-05  0.149E-05
 -16.066  0.119E-05  0.119E-05
 -16.056  0.900E-06  0.900E-06
 -16.046  0.630E-06  0.630E-06
 -16.036  0.374E-06  0.374E-06
 -16.026  0.132E-06  0.132E-06
 -16.016 -0.948E-07 -0.948E-07
 -16.006 -0.308E-06 -0.308E-06
 -15.996 -0.507E-06 -0.507E-06
 -15.986 -0.694E-06 -0.694E-06
 -15.976 -0.867E-06 -0.867E-06
 -15.966 -0.103E-05 -0.103E-05
 -15.956 -0.118E-05 -0.118E-05
 -15.946 -0.131E-05 -0.131E-05
 -15.936 -0.144E-05 -0.144E-05
 -15.926 -0.156E-05 -0.156E-05
 -15.916 -0.166E-05 -0.166E-05
 -15.906 -0.176E-05 -0.176E-05
 -15.896 -0.184E-05 -0.184E-05
 -15.886 -0.192E-05 -0.192E-05
 -15.876 -0.199E-05 -0.199E-05
 -15.866 -0.205E-05 -0.205E-05
 -15.856 -0.210E-05 -0.210E-05
 -15.846 -0.214E-05 -0.214E-05
 -15.836 -0.218E-05 -0.218E-05
 -15.826 -0.221E-05 -0.221E-05
 -15.816 -0.224E-05 -0.224E-05
 -15.806 -0.225E-05 -0.225E-05
 -15.796 -0.227E-05 -0.227E-05
 -15.786 -0.227E-05 -0.227E-05
 -15.776 -0.228E-05 -0.228E-05
 -15.766 -0.228E-05 -0.228E-05
 -15.756 -0.227E-05 -0.227E-05
 -15.746 -0.226E-05 -0.226E-05
 -15.736 -0.225E-05 -0.225E-05
 -15.726 -0.223E-05 -0.223E-05
 -15.716 -0.221E-05 -0.221E-05
 -15.706 -0.219E-05 -0.219E-05
 -15.696 -0.217E-05 -0.217E-05
 -15.686 -0.214E-05 -0.214E-05
 -15.676 -0.212E-05 -0.212E-05
 -15.666 -0.209E-05 -0.209E-05
 -15.656 -0.206E-05 -0.206E-05
 -15.646 -0.203E-05 -0.203E-05
 -15.636 -0.199E-05 -0.199E-05
 -15.626 -0.196E-05 -0.196E-05
 -15.616 -0.193E-05 -0.193E-05
 -15.606 -0.190E-05 -0.190E-05
 -15.596 -0.186E-05 -0.186E-05
 -15.586 -0.183E-05 -0.183E-05
 -15.576 -0.180E-05 -0.180E-05
 -15.566 -0.177E-05 -0.177E-05
 -15.556 -0.174E-05 -0.174E-05
 -15.546 -0.171E-05 -0.171E-05
 -15.536 -0.168E-05 -0.168E-05
 -15.526 -0.165E-05 -0.165E-05
 -15.516 -0.162E-05 -0.162E-05
 -15.506 -0.160E-05 -0.160E-05
 -15.496 -0.157E-05 -0.157E-05
 -15.486 -0.155E-05 -0.155E-05
 -15.476 -0.153E-05 -0.153E-05
 -15.466 -0.151E-05 -0.151E-05
 -15.456 -0.149E-05 -0.149E-05
 -15.446 -0.148E-05 -0.148E-05
 -15.436 -0.146E-05 -0.146E-05
 -15.426 -0.145E-05 -0.145E-05
 -15.416 -0.144E-05 -0.144E-05
 -15.406 -0.144E-05 -0.144E-05
 -15.396 -0.143E-05 -0.143E-05
 -15.386 -0.143E-05 -0.143E-05
 -15.376 -0.143E-05 -0.143E-05
 -15.366 -0.143E-05 -0.143E-05
 -15.356 -0.143E-05 -0.143E-05
 -15.346 -0.144E-05 -0.144E-05
 -15.336 -0.145E-05 -0.145E-05
 -15.326 -0.146E-05 -0.146E-05
 -15.316 -0.147E-05 -0.147E-05
 -15.306 -0.149E-05 -0.149E-05
 -15.296 -0.150E-05 -0.150E-05
 -15.286 -0.152E-05 -0.152E-05
 -15.276 -0.155E-05 -0.155E-05
 -15.266 -0.157E-05 -0.157E-05
 -15.256 -0.160E-05 -0.160E-05
 -15.246 -0.163E-05 -0.163E-05
 -15.236 -0.166E-05 -0.166E-05
 -15.226 -0.170E-05 -0.170E-05
 -15.216 -0.173E-05 -0.173E-05
 -15.206 -0.177E-05 -0.177E-05
 -15.196 -0.181E-05 -0.181E-05
 -15.186 -0.186E-05 -0.186E-05
 -15.176 -0.190E-05 -0.190E-05
 -15.166 -0.195E-05 -0.195E-05
 -15.156 -0.200E-05 -0.200E-05
 -15.146 -0.205E-05 -0.205E-05
 -15.136 -0.210E-05 -0.210E-05
 -15.126 -0.215E-05 -0.215E-05
 -15.116 -0.221E-05 -0.221E-05
 -15.106 -0.226E-05 -0.226E-05
 -15.096 -0.232E-05 -0.232E-05
 -15.086 -0.238E-05 -0.238E-05
 -15.076 -0.244E-05 -0.244E-05
 -15.066 -0.250E-05 -0.250E-05
 -15.056 -0.256E-05 -0.256E-05
 -15.046 -0.262E-05 -0.262E-05
 -15.036 -0.268E-05 -0.268E-05
 -15.026 -0.274E-05 -0.274E-05
 -15.016 -0.280E-05 -0.280E-05
 -15.006 -0.286E-05 -0.286E-05
 -14.996 -0.292E-05 -0.292E-05
 -14.986 -0.298E-05 -0.298E-05
 -14.976 -0.303E-05 -0.303E-05
 -14.966 -0.309E-05 -0.309E-05
 -14.956 -0.314E-05 -0.314E-05
 -14.946 -0.319E-05 -0.319E-05
 -14.936 -0.324E-05 -0.324E-05
 -14.926 -0.329E-05 -0.329E-05
 -14.916 -0.333E-05 -0.333E-05
 -14.906 -0.337E-05 -0.337E-05
 -14.896 -0.340E-05 -0.340E-05
 -14.886 -0.343E-05 -0.343E-05
 -14.876 -0.346E-05 -0.346E-05
 -14.866 -0.348E-05 -0.348E-05
 -14.856 -0.349E-05 -0.349E-05
 -14.846 -0.350E-05 -0.350E-05
 -14.836 -0.351E-05 -0.351E-05
 -14.826 -0.350E-05 -0.350E-05
 -14.816 -0.349E-05 -0.349E-05
 -14.806 -0.347E-05 -0.347E-05
 -14.796 -0.344E-05 -0.344E-05
 -14.786 -0.341E-05 -0.341E-05
 -14.776 -0.336E-05 -0.336E-05
 -14.766 -0.330E-05 -0.330E-05
 -14.756 -0.324E-05 -0.324E-05
 -14.746 -0.316E-05 -0.316E-05
 -14.736 -0.307E-05 -0.307E-05
 -14.726 -0.297E-05 -0.297E-05
 -14.716 -0.286E-05 -0.286E-05
 -14.706 -0.274E-05 -0.274E-05
 -14.696 -0.260E-05 -0.260E-05
 -14.686 -0.245E-05 -0.245E-05
 -14.676 -0.228E-05 -0.228E-05
 -14.666 -0.210E-05 -0.210E-05
 -14.656 -0.190E-05 -0.190E-05
 -14.646 -0.169E-05 -0.169E-05
 -14.636 -0.146E-05 -0.146E-05
 -14.626 -0.121E-05 -0.121E-05
 -14.616 -0.948E-06 -0.948E-06
 -14.606 -0.666E-06 -0.666E-06
 -14.596 -0.366E-06 -0.366E-06
 -14.586 -0.466E-07 -0.466E-07
 -14.576  0.291E-06  0.291E-06
 -14.566  0.649E-06  0.649E-06
 -14.556  0.103E-05  0.103E-05
 -14.546  0.142E-05  0.142E-05
 -14.536  0.184E-05  0.184E-05
 -14.526  0.228E-05  0.228E-05
 -14.516  0.274E-05  0.274E-05
 -14.506  0.323E-05  0.323E-05
 -14.496  0.373E-05  0.373E-05
 -14.486  0.426E-05  0.426E-05
 -14.476  0.480E-05  0.480E-05
 -14.466  0.537E-05  0.537E-05
 -14.456  0.596E-05  0.596E-05
 -14.446  0.658E-05  0.658E-05
 -14.436  0.722E-05  0.722E-05
 -14.426  0.788E-05  0.788E-05
 -14.416  0.856E-05  0.856E-05
 -14.406  0.926E-05  0.926E-05
 -14.396  0.999E-05  0.999E-05
 -14.386  0.107E-04  0.107E-04
 -14.376  0.115E-04  0.115E-04
 -14.366  0.123E-04  0.123E-04
 -14.356  0.131E-04  0.131E-04
 -14.346  0.139E-04  0.139E-04
 -14.336  0.148E-04  0.148E-04
 -14.326  0.157E-04  0.157E-04
 -14.316  0.166E-04  0.166E-04
 -14.306  0.175E-04  0.175E-04
 -14.296  0.184E-04  0.184E-04
 -14.286  0.193E-04  0.193E-04
 -14.276  0.203E-04  0.203E-04
 -14.266  0.213E-04  0.213E-04
 -14.256  0.223E-04  0.223E-04
 -14.246  0.233E-04  0.233E-04
 -14.236  0.243E-04  0.243E-04
 -14.226  0.253E-04  0.253E-04
 -14.216  0.264E-04  0.264E-04
 -14.206  0.274E-04  0.274E-04
 -14.196  0.285E-04  0.285E-04
 -14.186  0.296E-04  0.296E-04
 -14.176  0.307E-04  0.307E-04
 -14.166  0.318E-04  0.318E-04
 -14.156  0.329E-04  0.329E-04
 -14.146  0.340E-04  0.340E-04
 -14.136  0.351E-04  0.351E-04
 -14.126  0.362E-04  0.362E-04
 -14.116  0.373E-04  0.373E-04
 -14.106  0.384E-04  0.384E-04
 -14.096  0.395E-04  0.395E-04
 -14.086  0.406E-04  0.406E-04
 -14.076  0.417E-04  0.417E-04
 -14.066  0.428E-04  0.428E-04
 -14.056  0.439E-04  0.439E-04
 -14.046  0.450E-04  0.450E-04
 -14.036  0.461E-04  0.461E-04
 -14.026  0.471E-04  0.471E-04
 -14.016  0.482E-04  0.482E-04
 -14.006  0.492E-04  0.492E-04
 -13.996  0.502E-04  0.502E-04
 -13.986  0.512E-04  0.512E-04
 -13.976  0.522E-04  0.522E-04
 -13.966  0.532E-04  0.532E-04
 -13.956  0.542E-04  0.542E-04
 -13.946  0.551E-04  0.551E-04
 -13.936  0.560E-04  0.560E-04
 -13.926  0.569E-04  0.569E-04
 -13.916  0.578E-04  0.578E-04
 -13.906  0.586E-04  0.586E-04
 -13.896  0.594E-04  0.594E-04
 -13.886  0.602E-04  0.602E-04
 -13.876  0.610E-04  0.610E-04
 -13.866  0.617E-04  0.617E-04
 -13.856  0.624E-04  0.624E-04
 -13.846  0.631E-04  0.631E-04
 -13.836  0.637E-04  0.637E-04
 -13.826  0.644E-04  0.644E-04
 -13.816  0.649E-04  0.649E-04
 -13.806  0.655E-04  0.655E-04
 -13.796  0.660E-04  0.660E-04
 -13.786  0.665E-04  0.665E-04
 -13.776  0.669E-04  0.669E-04
 -13.766  0.674E-04  0.674E-04
 -13.756  0.677E-04  0.677E-04
 -13.746  0.681E-04  0.681E-04
 -13.736  0.684E-04  0.684E-04
 -13.726  0.687E-04  0.687E-04
 -13.716  0.689E-04  0.689E-04
 -13.706  0.691E-04  0.691E-04
 -13.696  0.693E-04  0.693E-04
 -13.686  0.694E-04  0.694E-04
 -13.676  0.695E-04  0.695E-04
 -13.666  0.696E-04  0.696E-04
 -13.656  0.696E-04  0.696E-04
 -13.646  0.696E-04  0.696E-04
 -13.636  0.696E-04  0.696E-04
 -13.626  0.695E-04  0.695E-04
 -13.616  0.694E-04  0.694E-04
 -13.606  0.693E-04  0.693E-04
 -13.596  0.691E-04  0.691E-04
 -13.586  0.689E-04  0.689E-04
 -13.576  0.687E-04  0.687E-04
 -13.566  0.684E-04  0.684E-04
 -13.556  0.681E-04  0.681E-04
 -13.546  0.678E-04  0.678E-04
 -13.536  0.674E-04  0.674E-04
 -13.526  0.671E-04  0.671E-04
 -13.516  0.667E-04  0.667E-04
 -13.506  0.662E-04  0.662E-04
 -13.496  0.658E-04  0.658E-04
 -13.486  0.653E-04  0.653E-04
 -13.476  0.648E-04  0.648E-04
 -13.466  0.643E-04  0.643E-04
 -13.456  0.637E-04  0.637E-04
 -13.446  0.632E-04  0.632E-04
 -13.436  0.626E-04  0.626E-04
 -13.426  0.620E-04  0.620E-04
 -13.416  0.614E-04  0.614E-04
 -13.406  0.607E-04  0.607E-04
 -13.396  0.601E-04  0.601E-04
 -13.386  0.594E-04  0.594E-04
 -13.376  0.587E-04  0.587E-04
 -13.366  0.580E-04  0.580E-04
 -13.356  0.573E-04  0.573E-04
 -13.346  0.566E-04  0.566E-04
 -13.336  0.559E-04  0.559E-04
 -13.326  0.552E-04  0.552E-04
 -13.316  0.544E-04  0.544E-04
 -13.306  0.536E-04  0.536E-04
 -13.296  0.529E-04  0.529E-04
 -13.286  0.521E-04  0.521E-04
 -13.276  0.513E-04  0.513E-04
 -13.266  0.506E-04  0.506E-04
 -13.256  0.498E-04  0.498E-04
 -13.246  0.490E-04  0.490E-04
 -13.236  0.482E-04  0.482E-04
 -13.226  0.474E-04  0.474E-04
 -13.216  0.466E-04  0.466E-04
 -13.206  0.458E-04  0.458E-04
 -13.196  0.450E-04  0.450E-04
 -13.186  0.442E-04  0.442E-04
 -13.176  0.434E-04  0.434E-04
 -13.166  0.426E-04  0.426E-04
 -13.156  0.418E-04  0.418E-04
 -13.146  0.411E-04  0.411E-04
 -13.136  0.403E-04  0.403E-04
 -13.126  0.395E-04  0.395E-04
 -13.116  0.387E-04  0.387E-04
 -13.106  0.379E-04  0.379E-04
 -13.096  0.371E-04  0.371E-04
 -13.086  0.364E-04  0.364E-04
 -13.076  0.356E-04  0.356E-04
 -13.066  0.348E-04  0.348E-04
 -13.056  0.341E-04  0.341E-04
 -13.046  0.333E-04  0.333E-04
 -13.036  0.326E-04  0.326E-04
 -13.026  0.318E-04  0.318E-04
 -13.016  0.311E-04  0.311E-04
 -13.006  0.304E-04  0.304E-04
 -12.996  0.296E-04  0.296E-04
 -12.986  0.289E-04  0.289E-04
 -12.976  0.282E-04  0.282E-04
 -12.966  0.275E-04  0.275E-04
 -12.956  0.268E-04  0.268E-04
 -12.946  0.261E-04  0.261E-04
 -12.936  0.254E-04  0.254E-04
 -12.926  0.247E-04  0.247E-04
 -12.916  0.240E-04  0.240E-04
 -12.906  0.233E-04  0.233E-04
 -12.896  0.226E-04  0.226E-04
 -12.886  0.220E-04  0.220E-04
 -12.876  0.213E-04  0.213E-04
 -12.866  0.207E-04  0.207E-04
 -12.856  0.200E-04  0.200E-04
 -12.846  0.194E-04  0.194E-04
 -12.836  0.187E-04  0.187E-04
 -12.826  0.181E-04  0.181E-04
 -12.816  0.174E-04  0.174E-04
 -12.806  0.168E-04  0.168E-04
 -12.796  0.162E-04  0.162E-04
 -12.786  0.156E-04  0.156E-04
 -12.776  0.149E-04  0.149E-04
 -12.766  0.143E-04  0.143E-04
 -12.756  0.137E-04  0.137E-04
 -12.746  0.131E-04  0.131E-04
 -12.736  0.125E-04  0.125E-04
 -12.726  0.119E-04  0.119E-04
 -12.716  0.113E-04  0.113E-04
 -12.706  0.107E-04  0.107E-04
 -12.696  0.102E-04  0.102E-04
 -12.686  0.957E-05  0.957E-05
 -12.676  0.900E-05  0.900E-05
 -12.666  0.842E-05  0.842E-05
 -12.656  0.785E-05  0.785E-05
 -12.646  0.728E-05  0.728E-05
 -12.636  0.672E-05  0.672E-05
 -12.626  0.616E-05  0.616E-05
 -12.616  0.561E-05  0.561E-05
 -12.606  0.506E-05  0.506E-05
 -12.596  0.451E-05  0.451E-05
 -12.586  0.397E-05  0.397E-05
 -12.576  0.343E-05  0.343E-05
 -12.566  0.289E-05  0.289E-05
 -12.556  0.236E-05  0.236E-05
 -12.546  0.184E-05  0.184E-05
 -12.536  0.132E-05  0.132E-05
 -12.526  0.805E-06  0.805E-06
 -12.516  0.296E-06  0.296E-06
 -12.506 -0.207E-06 -0.207E-06
 -12.496 -0.704E-06 -0.704E-06
 -12.486 -0.120E-05 -0.120E-05
 -12.476 -0.168E-05 -0.168E-05
 -12.466 -0.216E-05 -0.216E-05
 -12.456 -0.263E-05 -0.263E-05
 -12.446 -0.309E-05 -0.309E-05
 -12.436 -0.354E-05 -0.354E-05
 -12.426 -0.398E-05 -0.398E-05
 -12.416 -0.442E-05 -0.442E-05
 -12.406 -0.484E-05 -0.484E-05
 -12.396 -0.525E-05 -0.525E-05
 -12.386 -0.566E-05 -0.566E-05
 -12.376 -0.605E-05 -0.605E-05
 -12.366 -0.642E-05 -0.642E-05
 -12.356 -0.679E-05 -0.679E-05
 -12.346 -0.714E-05 -0.714E-05
 -12.336 -0.747E-05 -0.747E-05
 -12.326 -0.779E-05 -0.779E-05
 -12.316 -0.810E-05 -0.810E-05
 -12.306 -0.838E-05 -0.838E-05
 -12.296 -0.865E-05 -0.865E-05
 -12.286 -0.889E-05 -0.889E-05
 -12.276 -0.912E-05 -0.912E-05
 -12.266 -0.933E-05 -0.933E-05
 -12.256 -0.951E-05 -0.951E-05
 -12.246 -0.967E-05 -0.967E-05
 -12.236 -0.980E-05 -0.980E-05
 -12.226 -0.991E-05 -0.991E-05
 -12.216 -0.999E-05 -0.999E-05
 -12.206 -0.100E-04 -0.100E-04
 -12.196 -0.101E-04 -0.101E-04
 -12.186 -0.101E-04 -0.101E-04
 -12.176 -0.100E-04 -0.100E-04
 -12.166 -0.995E-05 -0.995E-05
 -12.156 -0.984E-05 -0.984E-05
 -12.146 -0.970E-05 -0.970E-05
 -12.136 -0.952E-05 -0.952E-05
 -12.126 -0.930E-05 -0.930E-05
 -12.116 -0.904E-05 -0.904E-05
 -12.106 -0.874E-05 -0.874E-05
 -12.096 -0.840E-05 -0.840E-05
 -12.086 -0.801E-05 -0.801E-05
 -12.076 -0.758E-05 -0.758E-05
 -12.066 -0.711E-05 -0.711E-05
 -12.056 -0.658E-05 -0.658E-05
 -12.046 -0.601E-05 -0.601E-05
 -12.036 -0.538E-05 -0.538E-05
 -12.026 -0.470E-05 -0.470E-05
 -12.016 -0.398E-05 -0.398E-05
 -12.006 -0.319E-05 -0.319E-05
 -11.996 -0.236E-05 -0.236E-05
 -11.986 -0.146E-05 -0.146E-05
 -11.976 -0.512E-06 -0.512E-06
 -11.966  0.496E-06  0.496E-06
 -11.956  0.156E-05  0.156E-05
 -11.946  0.269E-05  0.269E-05
 -11.936  0.387E-05  0.387E-05
 -11.926  0.512E-05  0.512E-05
 -11.916  0.643E-05  0.643E-05
 -11.906  0.780E-05  0.780E-05
 -11.896  0.923E-05  0.923E-05
 -11.886  0.107E-04  0.107E-04
 -11.876  0.123E-04  0.123E-04
 -11.866  0.139E-04  0.139E-04
 -11.856  0.156E-04  0.156E-04
 -11.846  0.173E-04  0.173E-04
 -11.836  0.191E-04  0.191E-04
 -11.826  0.210E-04  0.210E-04
 -11.816  0.229E-04  0.229E-04
 -11.806  0.249E-04  0.249E-04
 -11.796  0.270E-04  0.270E-04
 -11.786  0.291E-04  0.291E-04
 -11.776  0.312E-04  0.312E-04
 -11.766  0.335E-04  0.335E-04
 -11.756  0.357E-04  0.357E-04
 -11.746  0.381E-04  0.381E-04
 -11.736  0.405E-04  0.405E-04
 -11.726  0.429E-04  0.429E-04
 -11.716  0.454E-04  0.454E-04
 -11.706  0.479E-04  0.479E-04
 -11.696  0.505E-04  0.505E-04
 -11.686  0.531E-04  0.531E-04
 -11.676  0.557E-04  0.557E-04
 -11.666  0.584E-04  0.584E-04
 -11.656  0.611E-04  0.611E-04
 -11.646  0.638E-04  0.638E-04
 -11.636  0.666E-04  0.666E-04
 -11.626  0.694E-04  0.694E-04
 -11.616  0.722E-04  0.722E-04
 -11.606  0.750E-04  0.750E-04
 -11.596  0.779E-04  0.779E-04
 -11.586  0.807E-04  0.807E-04
 -11.576  0.836E-04  0.836E-04
 -11.566  0.864E-04  0.864E-04
 -11.556  0.892E-04  0.892E-04
 -11.546  0.921E-04  0.921E-04
 -11.536  0.949E-04  0.949E-04
 -11.526  0.977E-04  0.977E-04
 -11.516  0.100E-03  0.100E-03
 -11.506  0.103E-03  0.103E-03
 -11.496  0.106E-03  0.106E-03
 -11.486  0.108E-03  0.108E-03
 -11.476  0.111E-03  0.111E-03
 -11.466  0.114E-03  0.114E-03
 -11.456  0.116E-03  0.116E-03
 -11.446  0.119E-03  0.119E-03
 -11.436  0.121E-03  0.121E-03
 -11.426  0.123E-03  0.123E-03
 -11.416  0.125E-03  0.125E-03
 -11.406  0.127E-03  0.127E-03
 -11.396  0.129E-03  0.129E-03
 -11.386  0.131E-03  0.131E-03
 -11.376  0.133E-03  0.133E-03
 -11.366  0.135E-03  0.135E-03
 -11.356  0.136E-03  0.136E-03
 -11.346  0.138E-03  0.138E-03
 -11.336  0.139E-03  0.139E-03
 -11.326  0.140E-03  0.140E-03
 -11.316  0.141E-03  0.141E-03
 -11.306  0.142E-03  0.142E-03
 -11.296  0.142E-03  0.142E-03
 -11.286  0.143E-03  0.143E-03
 -11.276  0.143E-03  0.143E-03
 -11.266  0.143E-03  0.143E-03
 -11.256  0.143E-03  0.143E-03
 -11.246  0.142E-03  0.142E-03
 -11.236  0.142E-03  0.142E-03
 -11.226  0.141E-03  0.141E-03
 -11.216  0.140E-03  0.140E-03
 -11.206  0.138E-03  0.138E-03
 -11.196  0.137E-03  0.137E-03
 -11.186  0.135E-03  0.135E-03
 -11.176  0.133E-03  0.133E-03
 -11.166  0.130E-03  0.130E-03
 -11.156  0.127E-03  0.127E-03
 -11.146  0.124E-03  0.124E-03
 -11.136  0.120E-03  0.120E-03
 -11.126  0.116E-03  0.116E-03
 -11.116  0.112E-03  0.112E-03
 -11.106  0.107E-03  0.107E-03
 -11.096  0.102E-03  0.102E-03
 -11.086  0.969E-04  0.969E-04
 -11.076  0.909E-04  0.909E-04
 -11.066  0.845E-04  0.845E-04
 -11.056  0.776E-04  0.776E-04
 -11.046  0.702E-04  0.702E-04
 -11.036  0.622E-04  0.622E-04
 -11.026  0.538E-04  0.538E-04
 -11.016  0.447E-04  0.447E-04
 -11.006  0.351E-04  0.351E-04
 -10.996  0.249E-04  0.249E-04
 -10.986  0.140E-04  0.140E-04
 -10.976  0.250E-05  0.250E-05
 -10.966 -0.971E-05 -0.971E-05
 -10.956 -0.226E-04 -0.226E-04
 -10.946 -0.363E-04 -0.363E-04
 -10.936 -0.507E-04 -0.507E-04
 -10.926 -0.659E-04 -0.659E-04
 -10.916 -0.820E-04 -0.820E-04
 -10.906 -0.989E-04 -0.989E-04
 -10.896 -0.117E-03 -0.117E-03
 -10.886 -0.135E-03 -0.135E-03
 -10.876 -0.155E-03 -0.155E-03
 -10.866 -0.176E-03 -0.176E-03
 -10.856 -0.198E-03 -0.198E-03
 -10.846 -0.221E-03 -0.221E-03
 -10.836 -0.244E-03 -0.244E-03
 -10.826 -0.270E-03 -0.270E-03
 -10.816 -0.296E-03 -0.296E-03
 -10.806 -0.323E-03 -0.323E-03
 -10.796 -0.352E-03 -0.352E-03
 -10.786 -0.382E-03 -0.382E-03
 -10.776 -0.414E-03 -0.414E-03
 -10.766 -0.447E-03 -0.447E-03
 -10.756 -0.481E-03 -0.481E-03
 -10.746 -0.517E-03 -0.517E-03
 -10.736 -0.554E-03 -0.554E-03
 -10.726 -0.593E-03 -0.593E-03
 -10.716 -0.634E-03 -0.634E-03
 -10.706 -0.676E-03 -0.676E-03
 -10.696 -0.720E-03 -0.720E-03
 -10.686 -0.766E-03 -0.766E-03
 -10.676 -0.814E-03 -0.814E-03
 -10.666 -0.863E-03 -0.863E-03
 -10.656 -0.914E-03 -0.914E-03
 -10.646 -0.968E-03 -0.968E-03
 -10.636 -0.102E-02 -0.102E-02
 -10.626 -0.108E-02 -0.108E-02
 -10.616 -0.114E-02 -0.114E-02
 -10.606 -0.120E-02 -0.120E-02
 -10.596 -0.126E-02 -0.126E-02
 -10.586 -0.133E-02 -0.133E-02
 -10.576 -0.140E-02 -0.140E-02
 -10.566 -0.147E-02 -0.147E-02
 -10.556 -0.154E-02 -0.154E-02
 -10.546 -0.161E-02 -0.161E-02
 -10.536 -0.169E-02 -0.169E-02
 -10.526 -0.177E-02 -0.177E-02
 -10.516 -0.185E-02 -0.185E-02
 -10.506 -0.193E-02 -0.193E-02
 -10.496 -0.202E-02 -0.202E-02
 -10.486 -0.210E-02 -0.210E-02
 -10.476 -0.219E-02 -0.219E-02
 -10.466 -0.228E-02 -0.228E-02
 -10.456 -0.238E-02 -0.238E-02
 -10.446 -0.247E-02 -0.247E-02
 -10.436 -0.257E-02 -0.257E-02
 -10.426 -0.267E-02 -0.267E-02
 -10.416 -0.277E-02 -0.277E-02
 -10.406 -0.287E-02 -0.287E-02
 -10.396 -0.298E-02 -0.298E-02
 -10.386 -0.308E-02 -0.308E-02
 -10.376 -0.319E-02 -0.319E-02
 -10.366 -0.330E-02 -0.330E-02
 -10.356 -0.341E-02 -0.341E-02
 -10.346 -0.352E-02 -0.352E-02
 -10.336 -0.363E-02 -0.363E-02
 -10.326 -0.374E-02 -0.374E-02
 -10.316 -0.385E-02 -0.385E-02
 -10.306 -0.396E-02 -0.396E-02
 -10.296 -0.407E-02 -0.407E-02
 -10.286 -0.419E-02 -0.419E-02
 -10.276 -0.430E-02 -0.430E-02
 -10.266 -0.441E-02 -0.441E-02
 -10.256 -0.451E-02 -0.451E-02
 -10.246 -0.462E-02 -0.462E-02
 -10.236 -0.472E-02 -0.472E-02
 -10.226 -0.483E-02 -0.483E-02
 -10.216 -0.493E-02 -0.493E-02
 -10.206 -0.502E-02 -0.502E-02
 -10.196 -0.512E-02 -0.512E-02
 -10.186 -0.521E-02 -0.521E-02
 -10.176 -0.529E-02 -0.529E-02
 -10.166 -0.537E-02 -0.537E-02
 -10.156 -0.545E-02 -0.545E-02
 -10.146 -0.551E-02 -0.551E-02
 -10.136 -0.558E-02 -0.558E-02
 -10.126 -0.563E-02 -0.563E-02
 -10.116 -0.568E-02 -0.568E-02
 -10.106 -0.572E-02 -0.572E-02
 -10.096 -0.575E-02 -0.575E-02
 -10.086 -0.577E-02 -0.577E-02
 -10.076 -0.578E-02 -0.578E-02
 -10.066 -0.578E-02 -0.578E-02
 -10.056 -0.577E-02 -0.577E-02
 -10.046 -0.575E-02 -0.575E-02
 -10.036 -0.571E-02 -0.571E-02
 -10.026 -0.566E-02 -0.566E-02
 -10.016 -0.560E-02 -0.560E-02
 -10.006 -0.552E-02 -0.552E-02
  -9.996 -0.543E-02 -0.543E-02
  -9.986 -0.532E-02 -0.532E-02
  -9.976 -0.519E-02 -0.519E-02
  -9.966 -0.504E-02 -0.504E-02
  -9.956 -0.487E-02 -0.487E-02
  -9.946 -0.468E-02 -0.468E-02
  -9.936 -0.448E-02 -0.448E-02
  -9.926 -0.425E-02 -0.425E-02
  -9.916 -0.399E-02 -0.399E-02
  -9.906 -0.372E-02 -0.372E-02
  -9.896 -0.342E-02 -0.342E-02
  -9.886 -0.309E-02 -0.309E-02
  -9.876 -0.274E-02 -0.274E-02
  -9.866 -0.236E-02 -0.236E-02
  -9.856 -0.196E-02 -0.196E-02
  -9.846 -0.152E-02 -0.152E-02
  -9.836 -0.106E-02 -0.106E-02
  -9.826 -0.567E-03 -0.567E-03
  -9.816 -0.427E-04 -0.427E-04
  -9.806  0.514E-03  0.514E-03
  -9.796  0.110E-02  0.110E-02
  -9.786  0.172E-02  0.172E-02
  -9.776  0.238E-02  0.238E-02
  -9.766  0.307E-02  0.307E-02
  -9.756  0.380E-02  0.380E-02
  -9.746  0.456E-02  0.456E-02
  -9.736  0.536E-02  0.536E-02
  -9.726  0.619E-02  0.619E-02
  -9.716  0.707E-02  0.707E-02
  -9.706  0.798E-02  0.798E-02
  -9.696  0.892E-02  0.892E-02
  -9.686  0.991E-02  0.991E-02
  -9.676  0.109E-01  0.109E-01
  -9.666  0.120E-01  0.120E-01
  -9.656  0.131E-01  0.131E-01
  -9.646  0.143E-01  0.143E-01
  -9.636  0.154E-01  0.154E-01
  -9.626  0.167E-01  0.167E-01
  -9.616  0.179E-01  0.179E-01
  -9.606  0.192E-01  0.192E-01
  -9.596  0.206E-01  0.206E-01
  -9.586  0.220E-01  0.220E-01
  -9.576  0.234E-01  0.234E-01
  -9.566  0.249E-01  0.249E-01
  -9.556  0.264E-01  0.264E-01
  -9.546  0.279E-01  0.279E-01
  -9.536  0.295E-01  0.295E-01
  -9.526  0.311E-01  0.311E-01
  -9.516  0.327E-01  0.327E-01
  -9.506  0.344E-01  0.344E-01
  -9.496  0.361E-01  0.361E-01
  -9.486  0.379E-01  0.379E-01
  -9.476  0.397E-01  0.397E-01
  -9.466  0.415E-01  0.415E-01
  -9.456  0.434E-01  0.434E-01
  -9.446  0.453E-01  0.453E-01
  -9.436  0.472E-01  0.472E-01
  -9.426  0.491E-01  0.491E-01
  -9.416  0.511E-01  0.511E-01
  -9.406  0.531E-01  0.531E-01
  -9.396  0.551E-01  0.551E-01
  -9.386  0.571E-01  0.571E-01
  -9.376  0.592E-01  0.592E-01
  -9.366  0.613E-01  0.613E-01
  -9.356  0.633E-01  0.633E-01
  -9.346  0.655E-01  0.655E-01
  -9.336  0.676E-01  0.676E-01
  -9.326  0.697E-01  0.697E-01
  -9.316  0.719E-01  0.719E-01
  -9.306  0.740E-01  0.740E-01
  -9.296  0.762E-01  0.762E-01
  -9.286  0.784E-01  0.784E-01
  -9.276  0.805E-01  0.805E-01
  -9.266  0.827E-01  0.827E-01
  -9.256  0.849E-01  0.849E-01
  -9.246  0.871E-01  0.871E-01
  -9.236  0.892E-01  0.892E-01
  -9.226  0.914E-01  0.914E-01
  -9.216  0.935E-01  0.935E-01
  -9.206  0.957E-01  0.957E-01
  -9.196  0.978E-01  0.978E-01
  -9.186  0.999E-01  0.999E-01
  -9.176  0.102E+00  0.102E+00
  -9.166  0.104E+00  0.104E+00
  -9.156  0.106E+00  0.106E+00
  -9.146  0.108E+00  0.108E+00
  -9.136  0.110E+00  0.110E+00
  -9.126  0.112E+00  0.112E+00
  -9.116  0.114E+00  0.114E+00
  -9.106  0.116E+00  0.116E+00
  -9.096  0.118E+00  0.118E+00
  -9.086  0.120E+00  0.120E+00
  -9.076  0.122E+00  0.122E+00
  -9.066  0.124E+00  0.124E+00
  -9.056  0.125E+00  0.125E+00
  -9.046  0.127E+00  0.127E+00
  -9.036  0.129E+00  0.129E+00
  -9.026  0.131E+00  0.131E+00
  -9.016  0.132E+00  0.132E+00
  -9.006  0.134E+00  0.134E+00
  -8.996  0.135E+00  0.135E+00
  -8.986  0.137E+00  0.137E+00
  -8.976  0.138E+00  0.138E+00
  -8.966  0.140E+00  0.140E+00
  -8.956  0.141E+00  0.141E+00
  -8.946  0.142E+00  0.142E+00
  -8.936  0.144E+00  0.144E+00
  -8.926  0.145E+00  0.145E+00
  -8.916  0.146E+00  0.146E+00
  -8.906  0.147E+00  0.147E+00
  -8.896  0.148E+00  0.148E+00
  -8.886  0.149E+00  0.149E+00
  -8.876  0.150E+00  0.150E+00
  -8.866  0.151E+00  0.151E+00
  -8.856  0.152E+00  0.152E+00
  -8.846  0.153E+00  0.153E+00
  -8.836  0.154E+00  0.154E+00
  -8.826  0.155E+00  0.155E+00
  -8.816  0.155E+00  0.155E+00
  -8.806  0.156E+00  0.156E+00
  -8.796  0.156E+00  0.156E+00
  -8.786  0.157E+00  0.157E+00
  -8.776  0.157E+00  0.157E+00
  -8.766  0.158E+00  0.158E+00
  -8.756  0.158E+00  0.158E+00
  -8.746  0.159E+00  0.159E+00
  -8.736  0.159E+00  0.159E+00
  -8.726  0.159E+00  0.159E+00
  -8.716  0.159E+00  0.159E+00
  -8.706  0.159E+00  0.159E+00
  -8.696  0.159E+00  0.159E+00
  -8.686  0.160E+00  0.160E+00
  -8.676  0.160E+00  0.160E+00
  -8.666  0.159E+00  0.159E+00
  -8.656  0.159E+00  0.159E+00
  -8.646  0.159E+00  0.159E+00
  -8.636  0.159E+00  0.159E+00
  -8.626  0.159E+00  0.159E+00
  -8.616  0.159E+00  0.159E+00
  -8.606  0.158E+00  0.158E+00
  -8.596  0.158E+00  0.158E+00
  -8.586  0.157E+00  0.157E+00
  -8.576  0.157E+00  0.157E+00
  -8.566  0.156E+00  0.156E+00
  -8.556  0.156E+00  0.156E+00
  -8.546  0.155E+00  0.155E+00
  -8.536  0.155E+00  0.155E+00
  -8.526  0.154E+00  0.154E+00
  -8.516  0.153E+00  0.153E+00
  -8.506  0.152E+00  0.152E+00
  -8.496  0.152E+00  0.152E+00
  -8.486  0.151E+00  0.151E+00
  -8.476  0.150E+00  0.150E+00
  -8.466  0.149E+00  0.149E+00
  -8.456  0.148E+00  0.148E+00
  -8.446  0.147E+00  0.147E+00
  -8.436  0.146E+00  0.146E+00
  -8.426  0.145E+00  0.145E+00
  -8.416  0.144E+00  0.144E+00
  -8.406  0.143E+00  0.143E+00
  -8.396  0.141E+00  0.141E+00
  -8.386  0.140E+00  0.140E+00
  -8.376  0.139E+00  0.139E+00
  -8.366  0.138E+00  0.138E+00
  -8.356  0.136E+00  0.136E+00
  -8.346  0.135E+00  0.135E+00
  -8.336  0.133E+00  0.133E+00
  -8.326  0.132E+00  0.132E+00
  -8.316  0.130E+00  0.130E+00
  -8.306  0.129E+00  0.129E+00
  -8.296  0.127E+00  0.127E+00
  -8.286  0.126E+00  0.126E+00
  -8.276  0.124E+00  0.124E+00
  -8.266  0.123E+00  0.123E+00
  -8.256  0.121E+00  0.121E+00
  -8.246  0.119E+00  0.119E+00
  -8.236  0.117E+00  0.117E+00
  -8.226  0.116E+00  0.116E+00
  -8.216  0.114E+00  0.114E+00
  -8.206  0.112E+00  0.112E+00
  -8.196  0.110E+00  0.110E+00
  -8.186  0.108E+00  0.108E+00
  -8.176  0.107E+00  0.107E+00
  -8.166  0.105E+00  0.105E+00
  -8.156  0.103E+00  0.103E+00
  -8.146  0.101E+00  0.101E+00
  -8.136  0.989E-01  0.989E-01
  -8.126  0.969E-01  0.969E-01
  -8.116  0.950E-01  0.950E-01
  -8.106  0.930E-01  0.930E-01
  -8.096  0.911E-01  0.911E-01
  -8.086  0.891E-01  0.891E-01
  -8.076  0.871E-01  0.871E-01
  -8.066  0.852E-01  0.852E-01
  -8.056  0.832E-01  0.832E-01
  -8.046  0.812E-01  0.812E-01
  -8.036  0.793E-01  0.793E-01
  -8.026  0.773E-01  0.773E-01
  -8.016  0.754E-01  0.754E-01
  -8.006  0.735E-01  0.735E-01
  -7.996  0.716E-01  0.716E-01
  -7.986  0.697E-01  0.697E-01
  -7.976  0.679E-01  0.679E-01
  -7.966  0.661E-01  0.661E-01
  -7.956  0.643E-01  0.643E-01
  -7.946  0.625E-01  0.625E-01
  -7.936  0.607E-01  0.607E-01
  -7.926  0.590E-01  0.590E-01
  -7.916  0.574E-01  0.574E-01
  -7.906  0.557E-01  0.557E-01
  -7.896  0.541E-01  0.541E-01
  -7.886  0.526E-01  0.526E-01
  -7.876  0.511E-01  0.511E-01
  -7.866  0.496E-01  0.496E-01
  -7.856  0.482E-01  0.482E-01
  -7.846  0.469E-01  0.469E-01
  -7.836  0.456E-01  0.456E-01
  -7.826  0.443E-01  0.443E-01
  -7.816  0.432E-01  0.432E-01
  -7.806  0.421E-01  0.421E-01
  -7.796  0.410E-01  0.410E-01
  -7.786  0.400E-01  0.400E-01
  -7.776  0.391E-01  0.391E-01
  -7.766  0.382E-01  0.382E-01
  -7.756  0.375E-01  0.375E-01
  -7.746  0.368E-01  0.368E-01
  -7.736  0.361E-01  0.361E-01
  -7.726  0.356E-01  0.356E-01
  -7.716  0.351E-01  0.351E-01
  -7.706  0.347E-01  0.347E-01
  -7.696  0.343E-01  0.343E-01
  -7.686  0.341E-01  0.341E-01
  -7.676  0.339E-01  0.339E-01
  -7.666  0.338E-01  0.338E-01
  -7.656  0.338E-01  0.338E-01
  -7.646  0.338E-01  0.338E-01
  -7.636  0.340E-01  0.340E-01
  -7.626  0.342E-01  0.342E-01
  -7.616  0.345E-01  0.345E-01
  -7.606  0.349E-01  0.349E-01
  -7.596  0.354E-01  0.354E-01
  -7.586  0.359E-01  0.359E-01
  -7.576  0.365E-01  0.365E-01
  -7.566  0.372E-01  0.372E-01
  -7.556  0.380E-01  0.380E-01
  -7.546  0.388E-01  0.388E-01
  -7.536  0.398E-01  0.398E-01
  -7.526  0.408E-01  0.408E-01
  -7.516  0.418E-01  0.418E-01
  -7.506  0.430E-01  0.430E-01
  -7.496  0.442E-01  0.442E-01
  -7.486  0.454E-01  0.454E-01
  -7.476  0.468E-01  0.468E-01
  -7.466  0.482E-01  0.482E-01
  -7.456  0.496E-01  0.496E-01
  -7.446  0.511E-01  0.511E-01
  -7.436  0.527E-01  0.527E-01
  -7.426  0.543E-01  0.543E-01
  -7.416  0.560E-01  0.560E-01
  -7.406  0.577E-01  0.577E-01
  -7.396  0.595E-01  0.595E-01
  -7.386  0.613E-01  0.613E-01
  -7.376  0.631E-01  0.631E-01
  -7.366  0.650E-01  0.650E-01
  -7.356  0.669E-01  0.669E-01
  -7.346  0.688E-01  0.688E-01
  -7.336  0.707E-01  0.707E-01
  -7.326  0.727E-01  0.727E-01
  -7.316  0.747E-01  0.747E-01
  -7.306  0.767E-01  0.767E-01
  -7.296  0.787E-01  0.787E-01
  -7.286  0.807E-01  0.807E-01
  -7.276  0.827E-01  0.827E-01
  -7.266  0.847E-01  0.847E-01
  -7.256  0.867E-01  0.867E-01
  -7.246  0.887E-01  0.887E-01
  -7.236  0.907E-01  0.907E-01
  -7.226  0.926E-01  0.926E-01
  -7.216  0.946E-01  0.946E-01
  -7.206  0.965E-01  0.965E-01
  -7.196  0.984E-01  0.984E-01
  -7.186  0.100E+00  0.100E+00
  -7.176  0.102E+00  0.102E+00
  -7.166  0.104E+00  0.104E+00
  -7.156  0.106E+00  0.106E+00
  -7.146  0.107E+00  0.107E+00
  -7.136  0.109E+00  0.109E+00
  -7.126  0.111E+00  0.111E+00
  -7.116  0.112E+00  0.112E+00
  -7.106  0.114E+00  0.114E+00
  -7.096  0.115E+00  0.115E+00
  -7.086  0.116E+00  0.116E+00
  -7.076  0.118E+00  0.118E+00
  -7.066  0.119E+00  0.119E+00
  -7.056  0.120E+00  0.120E+00
  -7.046  0.121E+00  0.121E+00
  -7.036  0.122E+00  0.122E+00
  -7.026  0.123E+00  0.123E+00
  -7.016  0.124E+00  0.124E+00
  -7.006  0.125E+00  0.125E+00
  -6.996  0.125E+00  0.125E+00
  -6.986  0.126E+00  0.126E+00
  -6.976  0.127E+00  0.127E+00
  -6.966  0.127E+00  0.127E+00
  -6.956  0.127E+00  0.127E+00
  -6.946  0.128E+00  0.128E+00
  -6.936  0.128E+00  0.128E+00
  -6.926  0.128E+00  0.128E+00
  -6.916  0.128E+00  0.128E+00
  -6.906  0.128E+00  0.128E+00
  -6.896  0.128E+00  0.128E+00
  -6.886  0.128E+00  0.128E+00
  -6.876  0.127E+00  0.127E+00
  -6.866  0.127E+00  0.127E+00
  -6.856  0.127E+00  0.127E+00
  -6.846  0.126E+00  0.126E+00
  -6.836  0.125E+00  0.125E+00
  -6.826  0.125E+00  0.125E+00
  -6.816  0.124E+00  0.124E+00
  -6.806  0.123E+00  0.123E+00
  -6.796  0.122E+00  0.122E+00
  -6.786  0.121E+00  0.121E+00
  -6.776  0.120E+00  0.120E+00
  -6.766  0.119E+00  0.119E+00
  -6.756  0.118E+00  0.118E+00
  -6.746  0.116E+00  0.116E+00
  -6.736  0.115E+00  0.115E+00
  -6.726  0.114E+00  0.114E+00
  -6.716  0.112E+00  0.112E+00
  -6.706  0.111E+00  0.111E+00
  -6.696  0.109E+00  0.109E+00
  -6.686  0.108E+00  0.108E+00
  -6.676  0.106E+00  0.106E+00
  -6.666  0.105E+00  0.105E+00
  -6.656  0.103E+00  0.103E+00
  -6.646  0.101E+00  0.101E+00
  -6.636  0.994E-01  0.994E-01
  -6.626  0.977E-01  0.977E-01
  -6.616  0.959E-01  0.959E-01
  -6.606  0.941E-01  0.941E-01
  -6.596  0.923E-01  0.923E-01
  -6.586  0.905E-01  0.905E-01
  -6.576  0.886E-01  0.886E-01
  -6.566  0.868E-01  0.868E-01
  -6.556  0.850E-01  0.850E-01
  -6.546  0.831E-01  0.831E-01
  -6.536  0.813E-01  0.813E-01
  -6.526  0.795E-01  0.795E-01
  -6.516  0.777E-01  0.777E-01
  -6.506  0.759E-01  0.759E-01
  -6.496  0.741E-01  0.741E-01
  -6.486  0.724E-01  0.724E-01
  -6.476  0.706E-01  0.706E-01
  -6.466  0.689E-01  0.689E-01
  -6.456  0.672E-01  0.672E-01
  -6.446  0.656E-01  0.656E-01
  -6.436  0.640E-01  0.640E-01
  -6.426  0.624E-01  0.624E-01
  -6.416  0.608E-01  0.608E-01
  -6.406  0.593E-01  0.593E-01
  -6.396  0.579E-01  0.579E-01
  -6.386  0.564E-01  0.564E-01
  -6.376  0.551E-01  0.551E-01
  -6.366  0.537E-01  0.537E-01
  -6.356  0.524E-01  0.524E-01
  -6.346  0.512E-01  0.512E-01
  -6.336  0.500E-01  0.500E-01
  -6.326  0.489E-01  0.489E-01
  -6.316  0.478E-01  0.478E-01
  -6.306  0.467E-01  0.467E-01
  -6.296  0.458E-01  0.458E-01
  -6.286  0.448E-01  0.448E-01
  -6.276  0.439E-01  0.439E-01
  -6.266  0.431E-01  0.431E-01
  -6.256  0.424E-01  0.424E-01
  -6.246  0.416E-01  0.416E-01
  -6.236  0.410E-01  0.410E-01
  -6.226  0.404E-01  0.404E-01
  -6.216  0.398E-01  0.398E-01
  -6.206  0.393E-01  0.393E-01
  -6.196  0.389E-01  0.389E-01
  -6.186  0.385E-01  0.385E-01
  -6.176  0.381E-01  0.381E-01
  -6.166  0.378E-01  0.378E-01
  -6.156  0.376E-01  0.376E-01
  -6.146  0.374E-01  0.374E-01
  -6.136  0.372E-01  0.372E-01
  -6.126  0.371E-01  0.371E-01
  -6.116  0.370E-01  0.370E-01
  -6.106  0.370E-01  0.370E-01
  -6.096  0.371E-01  0.371E-01
  -6.086  0.371E-01  0.371E-01
  -6.076  0.372E-01  0.372E-01
  -6.066  0.374E-01  0.374E-01
  -6.056  0.375E-01  0.375E-01
  -6.046  0.378E-01  0.378E-01
  -6.036  0.380E-01  0.380E-01
  -6.026  0.383E-01  0.383E-01
  -6.016  0.386E-01  0.386E-01
  -6.006  0.390E-01  0.390E-01
  -5.996  0.393E-01  0.393E-01
  -5.986  0.397E-01  0.397E-01
  -5.976  0.402E-01  0.402E-01
  -5.966  0.406E-01  0.406E-01
  -5.956  0.411E-01  0.411E-01
  -5.946  0.416E-01  0.416E-01
  -5.936  0.421E-01  0.421E-01
  -5.926  0.426E-01  0.426E-01
  -5.916  0.432E-01  0.432E-01
  -5.906  0.437E-01  0.437E-01
  -5.896  0.443E-01  0.443E-01
  -5.886  0.449E-01  0.449E-01
  -5.876  0.455E-01  0.455E-01
  -5.866  0.461E-01  0.461E-01
  -5.856  0.468E-01  0.468E-01
  -5.846  0.474E-01  0.474E-01
  -5.836  0.481E-01  0.481E-01
  -5.826  0.487E-01  0.487E-01
  -5.816  0.494E-01  0.494E-01
  -5.806  0.501E-01  0.501E-01
  -5.796  0.507E-01  0.507E-01
  -5.786  0.514E-01  0.514E-01
  -5.776  0.521E-01  0.521E-01
  -5.766  0.528E-01  0.528E-01
  -5.756  0.535E-01  0.535E-01
  -5.746  0.542E-01  0.542E-01
  -5.736  0.550E-01  0.550E-01
  -5.726  0.557E-01  0.557E-01
  -5.716  0.564E-01  0.564E-01
  -5.706  0.571E-01  0.571E-01
  -5.696  0.579E-01  0.579E-01
  -5.686  0.586E-01  0.586E-01
  -5.676  0.594E-01  0.594E-01
  -5.666  0.601E-01  0.601E-01
  -5.656  0.609E-01  0.609E-01
  -5.646  0.617E-01  0.617E-01
  -5.636  0.625E-01  0.625E-01
  -5.626  0.632E-01  0.632E-01
  -5.616  0.640E-01  0.640E-01
  -5.606  0.648E-01  0.648E-01
  -5.596  0.657E-01  0.657E-01
  -5.586  0.665E-01  0.665E-01
  -5.576  0.673E-01  0.673E-01
  -5.566  0.682E-01  0.682E-01
  -5.556  0.690E-01  0.690E-01
  -5.546  0.699E-01  0.699E-01
  -5.536  0.708E-01  0.708E-01
  -5.526  0.717E-01  0.717E-01
  -5.516  0.726E-01  0.726E-01
  -5.506  0.736E-01  0.736E-01
  -5.496  0.745E-01  0.745E-01
  -5.486  0.755E-01  0.755E-01
  -5.476  0.765E-01  0.765E-01
  -5.466  0.775E-01  0.775E-01
  -5.456  0.785E-01  0.785E-01
  -5.446  0.795E-01  0.795E-01
  -5.436  0.806E-01  0.806E-01
  -5.426  0.817E-01  0.817E-01
  -5.416  0.828E-01  0.828E-01
  -5.406  0.839E-01  0.839E-01
  -5.396  0.850E-01  0.850E-01
  -5.386  0.862E-01  0.862E-01
  -5.376  0.874E-01  0.874E-01
  -5.366  0.886E-01  0.886E-01
  -5.356  0.898E-01  0.898E-01
  -5.346  0.910E-01  0.910E-01
  -5.336  0.923E-01  0.923E-01
  -5.326  0.936E-01  0.936E-01
  -5.316  0.949E-01  0.949E-01
  -5.306  0.962E-01  0.962E-01
  -5.296  0.975E-01  0.975E-01
  -5.286  0.988E-01  0.988E-01
  -5.276  0.100E+00  0.100E+00
  -5.266  0.102E+00  0.102E+00
  -5.256  0.103E+00  0.103E+00
  -5.246  0.104E+00  0.104E+00
  -5.236  0.106E+00  0.106E+00
  -5.226  0.107E+00  0.107E+00
  -5.216  0.109E+00  0.109E+00
  -5.206  0.110E+00  0.110E+00
  -5.196  0.112E+00  0.112E+00
  -5.186  0.113E+00  0.113E+00
  -5.176  0.114E+00  0.114E+00
  -5.166  0.116E+00  0.116E+00
  -5.156  0.117E+00  0.117E+00
  -5.146  0.119E+00  0.119E+00
  -5.136  0.120E+00  0.120E+00
  -5.126  0.122E+00  0.122E+00
  -5.116  0.123E+00  0.123E+00
  -5.106  0.124E+00  0.124E+00
  -5.096  0.126E+00  0.126E+00
  -5.086  0.127E+00  0.127E+00
  -5.076  0.129E+00  0.129E+00
  -5.066  0.130E+00  0.130E+00
  -5.056  0.131E+00  0.131E+00
  -5.046  0.133E+00  0.133E+00
  -5.036  0.134E+00  0.134E+00
  -5.026  0.135E+00  0.135E+00
  -5.016  0.136E+00  0.136E+00
  -5.006  0.138E+00  0.138E+00
  -4.996  0.139E+00  0.139E+00
  -4.986  0.140E+00  0.140E+00
  -4.976  0.141E+00  0.141E+00
  -4.966  0.142E+00  0.142E+00
  -4.956  0.143E+00  0.143E+00
  -4.946  0.144E+00  0.144E+00
  -4.936  0.145E+00  0.145E+00
  -4.926  0.146E+00  0.146E+00
  -4.916  0.147E+00  0.147E+00
  -4.906  0.147E+00  0.147E+00
  -4.896  0.148E+00  0.148E+00
  -4.886  0.149E+00  0.149E+00
  -4.876  0.149E+00  0.149E+00
  -4.866  0.150E+00  0.150E+00
  -4.856  0.150E+00  0.150E+00
  -4.846  0.151E+00  0.151E+00
  -4.836  0.151E+00  0.151E+00
  -4.826  0.152E+00  0.152E+00
  -4.816  0.152E+00  0.152E+00
  -4.806  0.152E+00  0.152E+00
  -4.796  0.152E+00  0.152E+00
  -4.786  0.152E+00  0.152E+00
  -4.776  0.152E+00  0.152E+00
  -4.766  0.152E+00  0.152E+00
  -4.756  0.152E+00  0.152E+00
  -4.746  0.152E+00  0.152E+00
  -4.736  0.152E+00  0.152E+00
  -4.726  0.151E+00  0.151E+00
  -4.716  0.151E+00  0.151E+00
  -4.706  0.151E+00  0.151E+00
  -4.696  0.150E+00  0.150E+00
  -4.686  0.150E+00  0.150E+00
  -4.676  0.149E+00  0.149E+00
  -4.666  0.148E+00  0.148E+00
  -4.656  0.147E+00  0.147E+00
  -4.646  0.147E+00  0.147E+00
  -4.636  0.146E+00  0.146E+00
  -4.626  0.145E+00  0.145E+00
  -4.616  0.144E+00  0.144E+00
  -4.606  0.143E+00  0.143E+00
  -4.596  0.142E+00  0.142E+00
  -4.586  0.141E+00  0.141E+00
  -4.576  0.140E+00  0.140E+00
  -4.566  0.138E+00  0.138E+00
  -4.556  0.137E+00  0.137E+00
  -4.546  0.136E+00  0.136E+00
  -4.536  0.135E+00  0.135E+00
  -4.526  0.133E+00  0.133E+00
  -4.516  0.132E+00  0.132E+00
  -4.506  0.130E+00  0.130E+00
  -4.496  0.129E+00  0.129E+00
  -4.486  0.127E+00  0.127E+00
  -4.476  0.126E+00  0.126E+00
  -4.466  0.124E+00  0.124E+00
  -4.456  0.123E+00  0.123E+00
  -4.446  0.121E+00  0.121E+00
  -4.436  0.119E+00  0.119E+00
  -4.426  0.118E+00  0.118E+00
  -4.416  0.116E+00  0.116E+00
  -4.406  0.114E+00  0.114E+00
  -4.396  0.113E+00  0.113E+00
  -4.386  0.111E+00  0.111E+00
  -4.376  0.109E+00  0.109E+00
  -4.366  0.108E+00  0.108E+00
  -4.356  0.106E+00  0.106E+00
  -4.346  0.104E+00  0.104E+00
  -4.336  0.102E+00  0.102E+00
  -4.326  0.101E+00  0.101E+00
  -4.316  0.991E-01  0.991E-01
  -4.306  0.974E-01  0.974E-01
  -4.296  0.957E-01  0.957E-01
  -4.286  0.941E-01  0.941E-01
  -4.276  0.924E-01  0.924E-01
  -4.266  0.908E-01  0.908E-01
  -4.256  0.892E-01  0.892E-01
  -4.246  0.876E-01  0.876E-01
  -4.236  0.860E-01  0.860E-01
  -4.226  0.844E-01  0.844E-01
  -4.216  0.829E-01  0.829E-01
  -4.206  0.814E-01  0.814E-01
  -4.196  0.799E-01  0.799E-01
  -4.186  0.784E-01  0.784E-01
  -4.176  0.770E-01  0.770E-01
  -4.166  0.755E-01  0.755E-01
  -4.156  0.742E-01  0.742E-01
  -4.146  0.728E-01  0.728E-01
  -4.136  0.715E-01  0.715E-01
  -4.126  0.702E-01  0.702E-01
  -4.116  0.689E-01  0.689E-01
  -4.106  0.677E-01  0.677E-01
  -4.096  0.665E-01  0.665E-01
  -4.086  0.653E-01  0.653E-01
  -4.076  0.642E-01  0.642E-01
  -4.066  0.631E-01  0.631E-01
  -4.056  0.620E-01  0.620E-01
  -4.046  0.610E-01  0.610E-01
  -4.036  0.600E-01  0.600E-01
  -4.026  0.591E-01  0.591E-01
  -4.016  0.581E-01  0.581E-01
  -4.006  0.573E-01  0.573E-01
  -3.996  0.564E-01  0.564E-01
  -3.986  0.556E-01  0.556E-01
  -3.976  0.548E-01  0.548E-01
  -3.966  0.541E-01  0.541E-01
  -3.956  0.533E-01  0.533E-01
  -3.946  0.527E-01  0.527E-01
  -3.936  0.520E-01  0.520E-01
  -3.926  0.514E-01  0.514E-01
  -3.916  0.508E-01  0.508E-01
  -3.906  0.503E-01  0.503E-01
  -3.896  0.498E-01  0.498E-01
  -3.886  0.493E-01  0.493E-01
  -3.876  0.488E-01  0.488E-01
  -3.866  0.484E-01  0.484E-01
  -3.856  0.480E-01  0.480E-01
  -3.846  0.477E-01  0.477E-01
  -3.836  0.473E-01  0.473E-01
  -3.826  0.470E-01  0.470E-01
  -3.816  0.468E-01  0.468E-01
  -3.806  0.465E-01  0.465E-01
  -3.796  0.463E-01  0.463E-01
  -3.786  0.461E-01  0.461E-01
  -3.776  0.459E-01  0.459E-01
  -3.766  0.458E-01  0.458E-01
  -3.756  0.457E-01  0.457E-01
  -3.746  0.456E-01  0.456E-01
  -3.736  0.455E-01  0.455E-01
  -3.726  0.455E-01  0.455E-01
  -3.716  0.454E-01  0.454E-01
  -3.706  0.454E-01  0.454E-01
  -3.696  0.455E-01  0.455E-01
  -3.686  0.455E-01  0.455E-01
  -3.676  0.456E-01  0.456E-01
  -3.666  0.456E-01  0.456E-01
  -3.656  0.457E-01  0.457E-01
  -3.646  0.459E-01  0.459E-01
  -3.636  0.460E-01  0.460E-01
  -3.626  0.461E-01  0.461E-01
  -3.616  0.463E-01  0.463E-01
  -3.606  0.465E-01  0.465E-01
  -3.596  0.467E-01  0.467E-01
  -3.586  0.469E-01  0.469E-01
  -3.576  0.472E-01  0.472E-01
  -3.566  0.474E-01  0.474E-01
  -3.556  0.477E-01  0.477E-01
  -3.546  0.479E-01  0.479E-01
  -3.536  0.482E-01  0.482E-01
  -3.526  0.485E-01  0.485E-01
  -3.516  0.488E-01  0.488E-01
  -3.506  0.492E-01  0.492E-01
  -3.496  0.495E-01  0.495E-01
  -3.486  0.498E-01  0.498E-01
  -3.476  0.502E-01  0.502E-01
  -3.466  0.506E-01  0.506E-01
  -3.456  0.509E-01  0.509E-01
  -3.446  0.513E-01  0.513E-01
  -3.436  0.517E-01  0.517E-01
  -3.426  0.521E-01  0.521E-01
  -3.416  0.525E-01  0.525E-01
  -3.406  0.530E-01  0.530E-01
  -3.396  0.534E-01  0.534E-01
  -3.386  0.538E-01  0.538E-01
  -3.376  0.542E-01  0.542E-01
  -3.366  0.547E-01  0.547E-01
  -3.356  0.551E-01  0.551E-01
  -3.346  0.556E-01  0.556E-01
  -3.336  0.560E-01  0.560E-01
  -3.326  0.565E-01  0.565E-01
  -3.316  0.570E-01  0.570E-01
  -3.306  0.574E-01  0.574E-01
  -3.296  0.579E-01  0.579E-01
  -3.286  0.584E-01  0.584E-01
  -3.276  0.588E-01  0.588E-01
  -3.266  0.593E-01  0.593E-01
  -3.256  0.598E-01  0.598E-01
  -3.246  0.602E-01  0.602E-01
  -3.236  0.607E-01  0.607E-01
  -3.226  0.612E-01  0.612E-01
  -3.216  0.616E-01  0.616E-01
  -3.206  0.621E-01  0.621E-01
  -3.196  0.625E-01  0.625E-01
  -3.186  0.630E-01  0.630E-01
  -3.176  0.634E-01  0.634E-01
  -3.166  0.639E-01  0.639E-01
  -3.156  0.643E-01  0.643E-01
  -3.146  0.647E-01  0.647E-01
  -3.136  0.652E-01  0.652E-01
  -3.126  0.656E-01  0.656E-01
  -3.116  0.660E-01  0.660E-01
  -3.106  0.664E-01  0.664E-01
  -3.096  0.668E-01  0.668E-01
  -3.086  0.672E-01  0.672E-01
  -3.076  0.675E-01  0.675E-01
  -3.066  0.679E-01  0.679E-01
  -3.056  0.682E-01  0.682E-01
  -3.046  0.686E-01  0.686E-01
  -3.036  0.689E-01  0.689E-01
  -3.026  0.692E-01  0.692E-01
  -3.016  0.695E-01  0.695E-01
  -3.006  0.698E-01  0.698E-01
  -2.996  0.701E-01  0.701E-01
  -2.986  0.703E-01  0.703E-01
  -2.976  0.706E-01  0.706E-01
  -2.966  0.708E-01  0.708E-01
  -2.956  0.710E-01  0.710E-01
  -2.946  0.712E-01  0.712E-01
  -2.936  0.714E-01  0.714E-01
  -2.926  0.716E-01  0.716E-01
  -2.916  0.718E-01  0.718E-01
  -2.906  0.719E-01  0.719E-01
  -2.896  0.720E-01  0.720E-01
  -2.886  0.721E-01  0.721E-01
  -2.876  0.722E-01  0.722E-01
  -2.866  0.723E-01  0.723E-01
  -2.856  0.724E-01  0.724E-01
  -2.846  0.724E-01  0.724E-01
  -2.836  0.725E-01  0.725E-01
  -2.826  0.725E-01  0.725E-01
  -2.816  0.725E-01  0.725E-01
  -2.806  0.725E-01  0.725E-01
  -2.796  0.725E-01  0.725E-01
  -2.786  0.725E-01  0.725E-01
  -2.776  0.724E-01  0.724E-01
  -2.766  0.724E-01  0.724E-01
  -2.756  0.723E-01  0.723E-01
  -2.746  0.722E-01  0.722E-01
  -2.736  0.722E-01  0.722E-01
  -2.726  0.721E-01  0.721E-01
  -2.716  0.720E-01  0.720E-01
  -2.706  0.719E-01  0.719E-01
  -2.696  0.718E-01  0.718E-01
  -2.686  0.716E-01  0.716E-01
  -2.676  0.715E-01  0.715E-01
  -2.666  0.714E-01  0.714E-01
  -2.656  0.713E-01  0.713E-01
  -2.646  0.711E-01  0.711E-01
  -2.636  0.710E-01  0.710E-01
  -2.626  0.709E-01  0.709E-01
  -2.616  0.707E-01  0.707E-01
  -2.606  0.706E-01  0.706E-01
  -2.596  0.705E-01  0.705E-01
  -2.586  0.704E-01  0.704E-01
  -2.576  0.702E-01  0.702E-01
  -2.566  0.701E-01  0.701E-01
  -2.556  0.700E-01  0.700E-01
  -2.546  0.699E-01  0.699E-01
  -2.536  0.699E-01  0.699E-01
  -2.526  0.698E-01  0.698E-01
  -2.516  0.697E-01  0.697E-01
  -2.506  0.697E-01  0.697E-01
  -2.496  0.697E-01  0.697E-01
  -2.486  0.696E-01  0.696E-01
  -2.476  0.696E-01  0.696E-01
  -2.466  0.696E-01  0.696E-01
  -2.456  0.697E-01  0.697E-01
  -2.446  0.697E-01  0.697E-01
  -2.436  0.698E-01  0.698E-01
  -2.426  0.699E-01  0.699E-01
  -2.416  0.700E-01  0.700E-01
  -2.406  0.701E-01  0.701E-01
  -2.396  0.703E-01  0.703E-01
  -2.386  0.704E-01  0.704E-01
  -2.376  0.706E-01  0.706E-01
  -2.366  0.709E-01  0.709E-01
  -2.356  0.711E-01  0.711E-01
  -2.346  0.714E-01  0.714E-01
  -2.336  0.717E-01  0.717E-01
  -2.326  0.720E-01  0.720E-01
  -2.316  0.723E-01  0.723E-01
  -2.306  0.727E-01  0.727E-01
  -2.296  0.731E-01  0.731E-01
  -2.286  0.735E-01  0.735E-01
  -2.276  0.739E-01  0.739E-01
  -2.266  0.744E-01  0.744E-01
  -2.256  0.749E-01  0.749E-01
  -2.246  0.754E-01  0.754E-01
  -2.236  0.759E-01  0.759E-01
  -2.226  0.765E-01  0.765E-01
  -2.216  0.770E-01  0.770E-01
  -2.206  0.776E-01  0.776E-01
  -2.196  0.782E-01  0.782E-01
  -2.186  0.789E-01  0.789E-01
  -2.176  0.795E-01  0.795E-01
  -2.166  0.802E-01  0.802E-01
  -2.156  0.809E-01  0.809E-01
  -2.146  0.816E-01  0.816E-01
  -2.136  0.823E-01  0.823E-01
  -2.126  0.830E-01  0.830E-01
  -2.116  0.838E-01  0.838E-01
  -2.106  0.845E-01  0.845E-01
  -2.096  0.853E-01  0.853E-01
  -2.086  0.861E-01  0.861E-01
  -2.076  0.868E-01  0.868E-01
  -2.066  0.876E-01  0.876E-01
  -2.056  0.884E-01  0.884E-01
  -2.046  0.892E-01  0.892E-01
  -2.036  0.900E-01  0.900E-01
  -2.026  0.908E-01  0.908E-01
  -2.016  0.916E-01  0.916E-01
  -2.006  0.924E-01  0.924E-01
  -1.996  0.932E-01  0.932E-01
  -1.986  0.939E-01  0.939E-01
  -1.976  0.947E-01  0.947E-01
  -1.966  0.955E-01  0.955E-01
  -1.956  0.962E-01  0.962E-01
  -1.946  0.969E-01  0.969E-01
  -1.936  0.977E-01  0.977E-01
  -1.926  0.984E-01  0.984E-01
  -1.916  0.991E-01  0.991E-01
  -1.906  0.997E-01  0.997E-01
  -1.896  0.100E+00  0.100E+00
  -1.886  0.101E+00  0.101E+00
  -1.876  0.102E+00  0.102E+00
  -1.866  0.102E+00  0.102E+00
  -1.856  0.103E+00  0.103E+00
  -1.846  0.103E+00  0.103E+00
  -1.836  0.104E+00  0.104E+00
  -1.826  0.104E+00  0.104E+00
  -1.816  0.105E+00  0.105E+00
  -1.806  0.105E+00  0.105E+00
  -1.796  0.106E+00  0.106E+00
  -1.786  0.106E+00  0.106E+00
  -1.776  0.106E+00  0.106E+00
  -1.766  0.107E+00  0.107E+00
  -1.756  0.107E+00  0.107E+00
  -1.746  0.107E+00  0.107E+00
  -1.736  0.107E+00  0.107E+00
  -1.726  0.107E+00  0.107E+00
  -1.716  0.108E+00  0.108E+00
  -1.706  0.108E+00  0.108E+00
  -1.696  0.108E+00  0.108E+00
  -1.686  0.108E+00  0.108E+00
  -1.676  0.108E+00  0.108E+00
  -1.666  0.108E+00  0.108E+00
  -1.656  0.108E+00  0.108E+00
  -1.646  0.107E+00  0.107E+00
  -1.636  0.107E+00  0.107E+00
  -1.626  0.107E+00  0.107E+00
  -1.616  0.107E+00  0.107E+00
  -1.606  0.107E+00  0.107E+00
  -1.596  0.106E+00  0.106E+00
  -1.586  0.106E+00  0.106E+00
  -1.576  0.106E+00  0.106E+00
  -1.566  0.105E+00  0.105E+00
  -1.556  0.105E+00  0.105E+00
  -1.546  0.105E+00  0.105E+00
  -1.536  0.104E+00  0.104E+00
  -1.526  0.104E+00  0.104E+00
  -1.516  0.103E+00  0.103E+00
  -1.506  0.103E+00  0.103E+00
  -1.496  0.102E+00  0.102E+00
  -1.486  0.102E+00  0.102E+00
  -1.476  0.101E+00  0.101E+00
  -1.466  0.101E+00  0.101E+00
  -1.456  0.100E+00  0.100E+00
  -1.446  0.996E-01  0.996E-01
  -1.436  0.990E-01  0.990E-01
  -1.426  0.984E-01  0.984E-01
  -1.416  0.978E-01  0.978E-01
  -1.406  0.972E-01  0.972E-01
  -1.396  0.965E-01  0.965E-01
  -1.386  0.959E-01  0.959E-01
  -1.376  0.953E-01  0.953E-01
  -1.366  0.947E-01  0.947E-01
  -1.356  0.941E-01  0.941E-01
  -1.346  0.935E-01  0.935E-01
  -1.336  0.929E-01  0.929E-01
  -1.326  0.923E-01  0.923E-01
  -1.316  0.917E-01  0.917E-01
  -1.306  0.911E-01  0.911E-01
  -1.296  0.906E-01  0.906E-01
  -1.286  0.900E-01  0.900E-01
  -1.276  0.895E-01  0.895E-01
  -1.266  0.890E-01  0.890E-01
  -1.256  0.885E-01  0.885E-01
  -1.246  0.880E-01  0.880E-01
  -1.236  0.875E-01  0.875E-01
  -1.226  0.871E-01  0.871E-01
  -1.216  0.866E-01  0.866E-01
  -1.206  0.862E-01  0.862E-01
  -1.196  0.858E-01  0.858E-01
  -1.186  0.855E-01  0.855E-01
  -1.176  0.851E-01  0.851E-01
  -1.166  0.848E-01  0.848E-01
  -1.156  0.845E-01  0.845E-01
  -1.146  0.842E-01  0.842E-01
  -1.136  0.839E-01  0.839E-01
  -1.126  0.837E-01  0.837E-01
  -1.116  0.835E-01  0.835E-01
  -1.106  0.833E-01  0.833E-01
  -1.096  0.831E-01  0.831E-01
  -1.086  0.830E-01  0.830E-01
  -1.076  0.829E-01  0.829E-01
  -1.066  0.828E-01  0.828E-01
  -1.056  0.827E-01  0.827E-01
  -1.046  0.826E-01  0.826E-01
  -1.036  0.826E-01  0.826E-01
  -1.026  0.826E-01  0.826E-01
  -1.016  0.825E-01  0.825E-01
  -1.006  0.826E-01  0.826E-01
  -0.996  0.826E-01  0.826E-01
  -0.986  0.826E-01  0.826E-01
  -0.976  0.827E-01  0.827E-01
  -0.966  0.828E-01  0.828E-01
  -0.956  0.828E-01  0.828E-01
  -0.946  0.829E-01  0.829E-01
  -0.936  0.830E-01  0.830E-01
  -0.926  0.831E-01  0.831E-01
  -0.916  0.833E-01  0.833E-01
  -0.906  0.834E-01  0.834E-01
  -0.896  0.835E-01  0.835E-01
  -0.886  0.836E-01  0.836E-01
  -0.876  0.838E-01  0.838E-01
  -0.866  0.839E-01  0.839E-01
  -0.856  0.840E-01  0.840E-01
  -0.846  0.842E-01  0.842E-01
  -0.836  0.843E-01  0.843E-01
  -0.826  0.844E-01  0.844E-01
  -0.816  0.845E-01  0.845E-01
  -0.806  0.846E-01  0.846E-01
  -0.796  0.847E-01  0.847E-01
  -0.786  0.848E-01  0.848E-01
  -0.776  0.849E-01  0.849E-01
  -0.766  0.850E-01  0.850E-01
  -0.756  0.850E-01  0.850E-01
  -0.746  0.851E-01  0.851E-01
  -0.736  0.851E-01  0.851E-01
  -0.726  0.851E-01  0.851E-01
  -0.716  0.851E-01  0.851E-01
  -0.706  0.851E-01  0.851E-01
  -0.696  0.851E-01  0.851E-01
  -0.686  0.851E-01  0.851E-01
  -0.676  0.850E-01  0.850E-01
  -0.666  0.849E-01  0.849E-01
  -0.656  0.848E-01  0.848E-01
  -0.646  0.847E-01  0.847E-01
  -0.636  0.846E-01  0.846E-01
  -0.626  0.844E-01  0.844E-01
  -0.616  0.842E-01  0.842E-01
  -0.606  0.840E-01  0.840E-01
  -0.596  0.838E-01  0.838E-01
  -0.586  0.836E-01  0.836E-01
  -0.576  0.833E-01  0.833E-01
  -0.566  0.831E-01  0.831E-01
  -0.556  0.828E-01  0.828E-01
  -0.546  0.825E-01  0.825E-01
  -0.536  0.822E-01  0.822E-01
  -0.526  0.819E-01  0.819E-01
  -0.516  0.815E-01  0.815E-01
  -0.506  0.812E-01  0.812E-01
  -0.496  0.808E-01  0.808E-01
  -0.486  0.804E-01  0.804E-01
  -0.476  0.800E-01  0.800E-01
  -0.466  0.796E-01  0.796E-01
  -0.456  0.792E-01  0.792E-01
  -0.446  0.788E-01  0.788E-01
  -0.436  0.784E-01  0.784E-01
  -0.426  0.780E-01  0.780E-01
  -0.416  0.775E-01  0.775E-01
  -0.406  0.771E-01  0.771E-01
  -0.396  0.767E-01  0.767E-01
  -0.386  0.762E-01  0.762E-01
  -0.376  0.758E-01  0.758E-01
  -0.366  0.753E-01  0.753E-01
  -0.356  0.749E-01  0.749E-01
  -0.346  0.744E-01  0.744E-01
  -0.336  0.740E-01  0.740E-01
  -0.326  0.736E-01  0.736E-01
  -0.316  0.732E-01  0.732E-01
  -0.306  0.727E-01  0.727E-01
  -0.296  0.723E-01  0.723E-01
  -0.286  0.719E-01  0.719E-01
  -0.276  0.715E-01  0.715E-01
  -0.266  0.711E-01  0.711E-01
  -0.256  0.708E-01  0.708E-01
  -0.246  0.704E-01  0.704E-01
  -0.236  0.700E-01  0.700E-01
  -0.226  0.697E-01  0.697E-01
  -0.216  0.694E-01  0.694E-01
  -0.206  0.690E-01  0.690E-01
  -0.196  0.687E-01  0.687E-01
  -0.186  0.684E-01  0.684E-01
  -0.176  0.682E-01  0.682E-01
  -0.166  0.679E-01  0.679E-01
  -0.156  0.677E-01  0.677E-01
  -0.146  0.674E-01  0.674E-01
  -0.136  0.672E-01  0.672E-01
  -0.126  0.670E-01  0.670E-01
  -0.116  0.668E-01  0.668E-01
  -0.106  0.666E-01  0.666E-01
  -0.096  0.664E-01  0.664E-01
  -0.086  0.663E-01  0.663E-01
  -0.076  0.661E-01  0.661E-01
  -0.066  0.660E-01  0.660E-01
  -0.056  0.659E-01  0.659E-01
  -0.046  0.658E-01  0.658E-01
  -0.036  0.657E-01  0.657E-01
  -0.026  0.656E-01  0.656E-01
  -0.016  0.655E-01  0.655E-01
  -0.006  0.655E-01  0.655E-01
   0.004  0.654E-01  0.654E-01
   0.014  0.654E-01  0.654E-01
   0.024  0.653E-01  0.653E-01
   0.034  0.653E-01  0.653E-01
   0.044  0.653E-01  0.653E-01
   0.054  0.652E-01  0.652E-01
   0.064  0.652E-01  0.652E-01
   0.074  0.652E-01  0.652E-01
   0.084  0.652E-01  0.652E-01
   0.094  0.652E-01  0.652E-01
   0.104  0.652E-01  0.652E-01
   0.114  0.651E-01  0.651E-01
   0.124  0.651E-01  0.651E-01
   0.134  0.651E-01  0.651E-01
   0.144  0.651E-01  0.651E-01
   0.154  0.651E-01  0.651E-01
   0.164  0.651E-01  0.651E-01
   0.174  0.651E-01  0.651E-01
   0.184  0.650E-01  0.650E-01
   0.194  0.650E-01  0.650E-01
   0.204  0.650E-01  0.650E-01
   0.214  0.649E-01  0.649E-01
   0.224  0.649E-01  0.649E-01
   0.234  0.649E-01  0.649E-01
   0.244  0.648E-01  0.648E-01
   0.254  0.648E-01  0.648E-01
   0.264  0.647E-01  0.647E-01
   0.274  0.647E-01  0.647E-01
   0.284  0.646E-01  0.646E-01
   0.294  0.645E-01  0.645E-01
   0.304  0.645E-01  0.645E-01
   0.314  0.644E-01  0.644E-01
   0.324  0.643E-01  0.643E-01
   0.334  0.642E-01  0.642E-01
   0.344  0.642E-01  0.642E-01
   0.354  0.641E-01  0.641E-01
   0.364  0.640E-01  0.640E-01
   0.374  0.639E-01  0.639E-01
   0.384  0.639E-01  0.639E-01
   0.394  0.638E-01  0.638E-01
   0.404  0.637E-01  0.637E-01
   0.414  0.636E-01  0.636E-01
   0.424  0.636E-01  0.636E-01
   0.434  0.635E-01  0.635E-01
   0.444  0.635E-01  0.635E-01
   0.454  0.634E-01  0.634E-01
   0.464  0.634E-01  0.634E-01
   0.474  0.634E-01  0.634E-01
   0.484  0.634E-01  0.634E-01
   0.494  0.634E-01  0.634E-01
   0.504  0.634E-01  0.634E-01
   0.514  0.634E-01  0.634E-01
   0.524  0.635E-01  0.635E-01
   0.534  0.635E-01  0.635E-01
   0.544  0.636E-01  0.636E-01
   0.554  0.637E-01  0.637E-01
   0.564  0.639E-01  0.639E-01
   0.574  0.640E-01  0.640E-01
   0.584  0.642E-01  0.642E-01
   0.594  0.644E-01  0.644E-01
   0.604  0.646E-01  0.646E-01
   0.614  0.649E-01  0.649E-01
   0.624  0.652E-01  0.652E-01
   0.634  0.655E-01  0.655E-01
   0.644  0.658E-01  0.658E-01
   0.654  0.662E-01  0.662E-01
   0.664  0.666E-01  0.666E-01
   0.674  0.670E-01  0.670E-01
   0.684  0.675E-01  0.675E-01
   0.694  0.680E-01  0.680E-01
   0.704  0.685E-01  0.685E-01
   0.714  0.691E-01  0.691E-01
   0.724  0.697E-01  0.697E-01
   0.734  0.704E-01  0.704E-01
   0.744  0.710E-01  0.710E-01
   0.754  0.718E-01  0.718E-01
   0.764  0.725E-01  0.725E-01
   0.774  0.733E-01  0.733E-01
   0.784  0.741E-01  0.741E-01
   0.794  0.750E-01  0.750E-01
   0.804  0.759E-01  0.759E-01
   0.814  0.768E-01  0.768E-01
   0.824  0.778E-01  0.778E-01
   0.834  0.788E-01  0.788E-01
   0.844  0.798E-01  0.798E-01
   0.854  0.809E-01  0.809E-01
   0.864  0.820E-01  0.820E-01
   0.874  0.831E-01  0.831E-01
   0.884  0.843E-01  0.843E-01
   0.894  0.855E-01  0.855E-01
   0.904  0.867E-01  0.867E-01
   0.914  0.879E-01  0.879E-01
   0.924  0.892E-01  0.892E-01
   0.934  0.905E-01  0.905E-01
   0.944  0.918E-01  0.918E-01
   0.954  0.931E-01  0.931E-01
   0.964  0.945E-01  0.945E-01
   0.974  0.958E-01  0.958E-01
   0.984  0.972E-01  0.972E-01
   0.994  0.986E-01  0.986E-01
   1.004  0.100E+00  0.100E+00
   1.014  0.101E+00  0.101E+00
   1.024  0.103E+00  0.103E+00
   1.034  0.104E+00  0.104E+00
   1.044  0.106E+00  0.106E+00
   1.054  0.107E+00  0.107E+00
   1.064  0.109E+00  0.109E+00
   1.074  0.110E+00  0.110E+00
   1.084  0.111E+00  0.111E+00
   1.094  0.113E+00  0.113E+00
   1.104  0.114E+00  0.114E+00
   1.114  0.116E+00  0.116E+00
   1.124  0.117E+00  0.117E+00
   1.134  0.118E+00  0.118E+00
   1.144  0.120E+00  0.120E+00
   1.154  0.121E+00  0.121E+00
   1.164  0.122E+00  0.122E+00
   1.174  0.124E+00  0.124E+00
   1.184  0.125E+00  0.125E+00
   1.194  0.126E+00  0.126E+00
   1.204  0.127E+00  0.127E+00
   1.214  0.129E+00  0.129E+00
   1.224  0.130E+00  0.130E+00
   1.234  0.131E+00  0.131E+00
   1.244  0.132E+00  0.132E+00
   1.254  0.133E+00  0.133E+00
   1.264  0.134E+00  0.134E+00
   1.274  0.135E+00  0.135E+00
   1.284  0.136E+00  0.136E+00
   1.294  0.136E+00  0.136E+00
   1.304  0.137E+00  0.137E+00
   1.314  0.138E+00  0.138E+00
   1.324  0.139E+00  0.139E+00
   1.334  0.139E+00  0.139E+00
   1.344  0.140E+00  0.140E+00
   1.354  0.140E+00  0.140E+00
   1.364  0.141E+00  0.141E+00
   1.374  0.141E+00  0.141E+00
   1.384  0.142E+00  0.142E+00
   1.394  0.142E+00  0.142E+00
   1.404  0.142E+00  0.142E+00
   1.414  0.142E+00  0.142E+00
   1.424  0.143E+00  0.143E+00
   1.434  0.143E+00  0.143E+00
   1.444  0.143E+00  0.143E+00
   1.454  0.143E+00  0.143E+00
   1.464  0.143E+00  0.143E+00
   1.474  0.142E+00  0.142E+00
   1.484  0.142E+00  0.142E+00
   1.494  0.142E+00  0.142E+00
   1.504  0.142E+00  0.142E+00
   1.514  0.141E+00  0.141E+00
   1.524  0.141E+00  0.141E+00
   1.534  0.141E+00  0.141E+00
   1.544  0.140E+00  0.140E+00
   1.554  0.139E+00  0.139E+00
   1.564  0.139E+00  0.139E+00
   1.574  0.138E+00  0.138E+00
   1.584  0.137E+00  0.137E+00
   1.594  0.137E+00  0.137E+00
   1.604  0.136E+00  0.136E+00
   1.614  0.135E+00  0.135E+00
   1.624  0.134E+00  0.134E+00
   1.634  0.133E+00  0.133E+00
   1.644  0.132E+00  0.132E+00
   1.654  0.131E+00  0.131E+00
   1.664  0.130E+00  0.130E+00
   1.674  0.129E+00  0.129E+00
   1.684  0.128E+00  0.128E+00
   1.694  0.127E+00  0.127E+00
   1.704  0.126E+00  0.126E+00
   1.714  0.125E+00  0.125E+00
   1.724  0.123E+00  0.123E+00
   1.734  0.122E+00  0.122E+00
   1.744  0.121E+00  0.121E+00
   1.754  0.120E+00  0.120E+00
   1.764  0.118E+00  0.118E+00
   1.774  0.117E+00  0.117E+00
   1.784  0.116E+00  0.116E+00
   1.794  0.115E+00  0.115E+00
   1.804  0.113E+00  0.113E+00
   1.814  0.112E+00  0.112E+00
   1.824  0.111E+00  0.111E+00
   1.834  0.109E+00  0.109E+00
   1.844  0.108E+00  0.108E+00
   1.854  0.107E+00  0.107E+00
   1.864  0.105E+00  0.105E+00
   1.874  0.104E+00  0.104E+00
   1.884  0.103E+00  0.103E+00
   1.894  0.102E+00  0.102E+00
   1.904  0.100E+00  0.100E+00
   1.914  0.992E-01  0.992E-01
   1.924  0.980E-01  0.980E-01
   1.934  0.968E-01  0.968E-01
   1.944  0.957E-01  0.957E-01
   1.954  0.945E-01  0.945E-01
   1.964  0.934E-01  0.934E-01
   1.974  0.924E-01  0.924E-01
   1.984  0.913E-01  0.913E-01
   1.994  0.903E-01  0.903E-01
   2.004  0.894E-01  0.894E-01
   2.014  0.884E-01  0.884E-01
   2.024  0.875E-01  0.875E-01
   2.034  0.867E-01  0.867E-01
   2.044  0.858E-01  0.858E-01
   2.054  0.851E-01  0.851E-01
   2.064  0.843E-01  0.843E-01
   2.074  0.836E-01  0.836E-01
   2.084  0.830E-01  0.830E-01
   2.094  0.824E-01  0.824E-01
   2.104  0.818E-01  0.818E-01
   2.114  0.813E-01  0.813E-01
   2.124  0.808E-01  0.808E-01
   2.134  0.804E-01  0.804E-01
   2.144  0.801E-01  0.801E-01
   2.154  0.797E-01  0.797E-01
   2.164  0.795E-01  0.795E-01
   2.174  0.793E-01  0.793E-01
   2.184  0.791E-01  0.791E-01
   2.194  0.790E-01  0.790E-01
   2.204  0.789E-01  0.789E-01
   2.214  0.789E-01  0.789E-01
   2.224  0.789E-01  0.789E-01
   2.234  0.790E-01  0.790E-01
   2.244  0.791E-01  0.791E-01
   2.254  0.793E-01  0.793E-01
   2.264  0.795E-01  0.795E-01
   2.274  0.798E-01  0.798E-01
   2.284  0.801E-01  0.801E-01
   2.294  0.804E-01  0.804E-01
   2.304  0.808E-01  0.808E-01
   2.314  0.813E-01  0.813E-01
   2.324  0.818E-01  0.818E-01
   2.334  0.823E-01  0.823E-01
   2.344  0.828E-01  0.828E-01
   2.354  0.834E-01  0.834E-01
   2.364  0.841E-01  0.841E-01
   2.374  0.847E-01  0.847E-01
   2.384  0.855E-01  0.855E-01
   2.394  0.862E-01  0.862E-01
   2.404  0.870E-01  0.870E-01
   2.414  0.877E-01  0.877E-01
   2.424  0.886E-01  0.886E-01
   2.434  0.894E-01  0.894E-01
   2.444  0.903E-01  0.903E-01
   2.454  0.912E-01  0.912E-01
   2.464  0.921E-01  0.921E-01
   2.474  0.930E-01  0.930E-01
   2.484  0.939E-01  0.939E-01
   2.494  0.949E-01  0.949E-01
   2.504  0.958E-01  0.958E-01
   2.514  0.968E-01  0.968E-01
   2.524  0.978E-01  0.978E-01
   2.534  0.987E-01  0.987E-01
   2.544  0.997E-01  0.997E-01
   2.554  0.101E+00  0.101E+00
   2.564  0.102E+00  0.102E+00
   2.574  0.103E+00  0.103E+00
   2.584  0.104E+00  0.104E+00
   2.594  0.105E+00  0.105E+00
   2.604  0.105E+00  0.105E+00
   2.614  0.106E+00  0.106E+00
   2.624  0.107E+00  0.107E+00
   2.634  0.108E+00  0.108E+00
   2.644  0.109E+00  0.109E+00
   2.654  0.110E+00  0.110E+00
   2.664  0.111E+00  0.111E+00
   2.674  0.112E+00  0.112E+00
   2.684  0.112E+00  0.112E+00
   2.694  0.113E+00  0.113E+00
   2.704  0.114E+00  0.114E+00
   2.714  0.114E+00  0.114E+00
   2.724  0.115E+00  0.115E+00
   2.734  0.116E+00  0.116E+00
   2.744  0.116E+00  0.116E+00
   2.754  0.117E+00  0.117E+00
   2.764  0.117E+00  0.117E+00
   2.774  0.118E+00  0.118E+00
   2.784  0.118E+00  0.118E+00
   2.794  0.118E+00  0.118E+00
   2.804  0.119E+00  0.119E+00
   2.814  0.119E+00  0.119E+00
   2.824  0.119E+00  0.119E+00
   2.834  0.119E+00  0.119E+00
   2.844  0.119E+00  0.119E+00
   2.854  0.119E+00  0.119E+00
   2.864  0.119E+00  0.119E+00
   2.874  0.119E+00  0.119E+00
   2.884  0.119E+00  0.119E+00
   2.894  0.119E+00  0.119E+00
   2.904  0.119E+00  0.119E+00
   2.914  0.118E+00  0.118E+00
   2.924  0.118E+00  0.118E+00
   2.934  0.118E+00  0.118E+00
   2.944  0.117E+00  0.117E+00
   2.954  0.117E+00  0.117E+00
   2.964  0.116E+00  0.116E+00
   2.974  0.115E+00  0.115E+00
   2.984  0.115E+00  0.115E+00
   2.994  0.114E+00  0.114E+00
   3.004  0.113E+00  0.113E+00
   3.014  0.112E+00  0.112E+00
   3.024  0.112E+00  0.112E+00
   3.034  0.111E+00  0.111E+00
   3.044  0.110E+00  0.110E+00
   3.054  0.109E+00  0.109E+00
   3.064  0.108E+00  0.108E+00
   3.074  0.106E+00  0.106E+00
   3.084  0.105E+00  0.105E+00
   3.094  0.104E+00  0.104E+00
   3.104  0.103E+00  0.103E+00
   3.114  0.101E+00  0.101E+00
   3.124  0.100E+00  0.100E+00
   3.134  0.988E-01  0.988E-01
   3.144  0.974E-01  0.974E-01
   3.154  0.959E-01  0.959E-01
   3.164  0.944E-01  0.944E-01
   3.174  0.929E-01  0.929E-01
   3.184  0.914E-01  0.914E-01
   3.194  0.898E-01  0.898E-01
   3.204  0.882E-01  0.882E-01
   3.214  0.866E-01  0.866E-01
   3.224  0.849E-01  0.849E-01
   3.234  0.833E-01  0.833E-01
   3.244  0.816E-01  0.816E-01
   3.254  0.799E-01  0.799E-01
   3.264  0.782E-01  0.782E-01
   3.274  0.764E-01  0.764E-01
   3.284  0.747E-01  0.747E-01
   3.294  0.729E-01  0.729E-01
   3.304  0.712E-01  0.712E-01
   3.314  0.694E-01  0.694E-01
   3.324  0.676E-01  0.676E-01
   3.334  0.659E-01  0.659E-01
   3.344  0.641E-01  0.641E-01
   3.354  0.623E-01  0.623E-01
   3.364  0.605E-01  0.605E-01
   3.374  0.587E-01  0.587E-01
   3.384  0.570E-01  0.570E-01
   3.394  0.552E-01  0.552E-01
   3.404  0.535E-01  0.535E-01
   3.414  0.517E-01  0.517E-01
   3.424  0.500E-01  0.500E-01
   3.434  0.483E-01  0.483E-01
   3.444  0.466E-01  0.466E-01
   3.454  0.449E-01  0.449E-01
   3.464  0.433E-01  0.433E-01
   3.474  0.416E-01  0.416E-01
   3.484  0.400E-01  0.400E-01
   3.494  0.384E-01  0.384E-01
   3.504  0.368E-01  0.368E-01
   3.514  0.353E-01  0.353E-01
   3.524  0.337E-01  0.337E-01
   3.534  0.322E-01  0.322E-01
   3.544  0.307E-01  0.307E-01
   3.554  0.293E-01  0.293E-01
   3.564  0.279E-01  0.279E-01
   3.574  0.265E-01  0.265E-01
   3.584  0.251E-01  0.251E-01
   3.594  0.238E-01  0.238E-01
   3.604  0.225E-01  0.225E-01
   3.614  0.212E-01  0.212E-01
   3.624  0.199E-01  0.199E-01
   3.634  0.187E-01  0.187E-01
   3.644  0.176E-01  0.176E-01
   3.654  0.164E-01  0.164E-01
   3.664  0.153E-01  0.153E-01
   3.674  0.142E-01  0.142E-01
   3.684  0.132E-01  0.132E-01
   3.694  0.122E-01  0.122E-01
   3.704  0.112E-01  0.112E-01
   3.714  0.103E-01  0.103E-01
   3.724  0.934E-02  0.934E-02
   3.734  0.846E-02  0.846E-02
   3.744  0.761E-02  0.761E-02
   3.754  0.680E-02  0.680E-02
   3.764  0.602E-02  0.602E-02
   3.774  0.527E-02  0.527E-02
   3.784  0.455E-02  0.455E-02
   3.794  0.387E-02  0.387E-02
   3.804  0.321E-02  0.321E-02
   3.814  0.259E-02  0.259E-02
   3.824  0.199E-02  0.199E-02
   3.834  0.142E-02  0.142E-02
   3.844  0.887E-03  0.887E-03
   3.854  0.379E-03  0.379E-03
   3.864 -0.102E-03 -0.102E-03
   3.874 -0.556E-03 -0.556E-03
   3.884 -0.983E-03 -0.983E-03
   3.894 -0.138E-02 -0.138E-02
   3.904 -0.176E-02 -0.176E-02
   3.914 -0.211E-02 -0.211E-02
   3.924 -0.244E-02 -0.244E-02
   3.934 -0.274E-02 -0.274E-02
   3.944 -0.303E-02 -0.303E-02
   3.954 -0.329E-02 -0.329E-02
   3.964 -0.353E-02 -0.353E-02
   3.974 -0.374E-02 -0.374E-02
   3.984 -0.394E-02 -0.394E-02
   3.994 -0.412E-02 -0.412E-02
   4.004 -0.429E-02 -0.429E-02
   4.014 -0.443E-02 -0.443E-02
   4.024 -0.456E-02 -0.456E-02
   4.034 -0.467E-02 -0.467E-02
   4.044 -0.477E-02 -0.477E-02
   4.054 -0.485E-02 -0.485E-02
   4.064 -0.492E-02 -0.492E-02
   4.074 -0.497E-02 -0.497E-02
   4.084 -0.501E-02 -0.501E-02
   4.094 -0.504E-02 -0.504E-02
   4.104 -0.506E-02 -0.506E-02
   4.114 -0.507E-02 -0.507E-02
   4.124 -0.507E-02 -0.507E-02
   4.134 -0.506E-02 -0.506E-02
   4.144 -0.504E-02 -0.504E-02
   4.154 -0.501E-02 -0.501E-02
   4.164 -0.497E-02 -0.497E-02
   4.174 -0.493E-02 -0.493E-02
   4.184 -0.488E-02 -0.488E-02
   4.194 -0.482E-02 -0.482E-02
   4.204 -0.476E-02 -0.476E-02
   4.214 -0.469E-02 -0.469E-02
   4.224 -0.462E-02 -0.462E-02
   4.234 -0.454E-02 -0.454E-02
   4.244 -0.446E-02 -0.446E-02
   4.254 -0.438E-02 -0.438E-02
   4.264 -0.430E-02 -0.430E-02
   4.274 -0.421E-02 -0.421E-02
   4.284 -0.412E-02 -0.412E-02
   4.294 -0.402E-02 -0.402E-02
   4.304 -0.393E-02 -0.393E-02
   4.314 -0.383E-02 -0.383E-02
   4.324 -0.373E-02 -0.373E-02
   4.334 -0.364E-02 -0.364E-02
   4.344 -0.354E-02 -0.354E-02
   4.354 -0.344E-02 -0.344E-02
   4.364 -0.334E-02 -0.334E-02
   4.374 -0.324E-02 -0.324E-02
   4.384 -0.314E-02 -0.314E-02
   4.394 -0.305E-02 -0.305E-02
   4.404 -0.295E-02 -0.295E-02
   4.414 -0.285E-02 -0.285E-02
   4.424 -0.276E-02 -0.276E-02
   4.434 -0.267E-02 -0.267E-02
   4.444 -0.257E-02 -0.257E-02
   4.454 -0.248E-02 -0.248E-02
   4.464 -0.239E-02 -0.239E-02
   4.474 -0.230E-02 -0.230E-02
   4.484 -0.222E-02 -0.222E-02
   4.494 -0.213E-02 -0.213E-02
   4.504 -0.205E-02 -0.205E-02
   4.514 -0.197E-02 -0.197E-02
   4.524 -0.189E-02 -0.189E-02
   4.534 -0.182E-02 -0.182E-02
   4.544 -0.174E-02 -0.174E-02
   4.554 -0.167E-02 -0.167E-02
   4.564 -0.160E-02 -0.160E-02
   4.574 -0.153E-02 -0.153E-02
   4.584 -0.146E-02 -0.146E-02
   4.594 -0.140E-02 -0.140E-02
   4.604 -0.134E-02 -0.134E-02
   4.614 -0.127E-02 -0.127E-02
   4.624 -0.122E-02 -0.122E-02
   4.634 -0.116E-02 -0.116E-02
   4.644 -0.111E-02 -0.111E-02
   4.654 -0.105E-02 -0.105E-02
   4.664 -0.100E-02 -0.100E-02
   4.674 -0.953E-03 -0.953E-03
   4.684 -0.906E-03 -0.906E-03
   4.694 -0.861E-03 -0.861E-03
   4.704 -0.818E-03 -0.818E-03
   4.714 -0.776E-03 -0.776E-03
   4.724 -0.737E-03 -0.737E-03
   4.734 -0.698E-03 -0.698E-03
   4.744 -0.662E-03 -0.662E-03
   4.754 -0.627E-03 -0.627E-03
   4.764 -0.593E-03 -0.593E-03
   4.774 -0.561E-03 -0.561E-03
   4.784 -0.530E-03 -0.530E-03
   4.794 -0.501E-03 -0.501E-03
   4.804 -0.473E-03 -0.473E-03
   4.814 -0.447E-03 -0.447E-03
   4.824 -0.422E-03 -0.422E-03
   4.834 -0.398E-03 -0.398E-03
   4.844 -0.375E-03 -0.375E-03
   4.854 -0.353E-03 -0.353E-03
   4.864 -0.332E-03 -0.332E-03
   4.874 -0.313E-03 -0.313E-03
   4.884 -0.294E-03 -0.294E-03
   4.894 -0.276E-03 -0.276E-03
   4.904 -0.260E-03 -0.260E-03
   4.914 -0.244E-03 -0.244E-03
   4.924 -0.229E-03 -0.229E-03
   4.934 -0.215E-03 -0.215E-03
   4.944 -0.201E-03 -0.201E-03
   4.954 -0.189E-03 -0.189E-03
   4.964 -0.177E-03 -0.177E-03
   4.974 -0.165E-03 -0.165E-03
   4.984 -0.155E-03 -0.155E-03
   4.994 -0.145E-03 -0.145E-03
   5.004 -0.135E-03 -0.135E-03
   5.014 -0.126E-03 -0.126E-03
   5.024 -0.118E-03 -0.118E-03
   5.034 -0.110E-03 -0.110E-03
   5.044 -0.103E-03 -0.103E-03
   5.054 -0.957E-04 -0.957E-04
   5.064 -0.892E-04 -0.892E-04
   5.074 -0.831E-04 -0.831E-04
   5.084 -0.773E-04 -0.773E-04
   5.094 -0.720E-04 -0.720E-04
   5.104 -0.669E-04 -0.669E-04
   5.114 -0.622E-04 -0.622E-04
   5.124 -0.578E-04 -0.578E-04
   5.134 -0.537E-04 -0.537E-04
   5.144 -0.498E-04 -0.498E-04
   5.154 -0.462E-04 -0.462E-04
   5.164 -0.429E-04 -0.429E-04
   5.174 -0.397E-04 -0.397E-04
   5.184 -0.368E-04 -0.368E-04
   5.194 -0.341E-04 -0.341E-04
   5.204 -0.315E-04 -0.315E-04
   5.214 -0.292E-04 -0.292E-04
   5.224 -0.270E-04 -0.270E-04
   5.234 -0.249E-04 -0.249E-04
   5.244 -0.230E-04 -0.230E-04
   5.254 -0.213E-04 -0.213E-04
   5.264 -0.196E-04 -0.196E-04
   5.274 -0.181E-04 -0.181E-04
   5.284 -0.167E-04 -0.167E-04
   5.294 -0.154E-04 -0.154E-04
