# E (eV)   ldos(E)   pdos(E)   
 -27.116 -0.338E-04 -0.338E-04
 -27.106 -0.365E-04 -0.365E-04
 -27.096 -0.394E-04 -0.394E-04
 -27.086 -0.425E-04 -0.425E-04
 -27.076 -0.458E-04 -0.458E-04
 -27.066 -0.493E-04 -0.493E-04
 -27.056 -0.530E-04 -0.530E-04
 -27.046 -0.571E-04 -0.571E-04
 -27.036 -0.614E-04 -0.614E-04
 -27.026 -0.659E-04 -0.659E-04
 -27.016 -0.708E-04 -0.708E-04
 -27.006 -0.760E-04 -0.760E-04
 -26.996 -0.816E-04 -0.816E-04
 -26.986 -0.875E-04 -0.875E-04
 -26.976 -0.938E-04 -0.938E-04
 -26.966 -0.100E-03 -0.100E-03
 -26.956 -0.108E-03 -0.108E-03
 -26.946 -0.115E-03 -0.115E-03
 -26.936 -0.123E-03 -0.123E-03
 -26.926 -0.132E-03 -0.132E-03
 -26.916 -0.141E-03 -0.141E-03
 -26.906 -0.150E-03 -0.150E-03
 -26.896 -0.160E-03 -0.160E-03
 -26.886 -0.171E-03 -0.171E-03
 -26.876 -0.182E-03 -0.182E-03
 -26.866 -0.194E-03 -0.194E-03
 -26.856 -0.207E-03 -0.207E-03
 -26.846 -0.220E-03 -0.220E-03
 -26.836 -0.234E-03 -0.234E-03
 -26.826 -0.249E-03 -0.249E-03
 -26.816 -0.264E-03 -0.264E-03
 -26.806 -0.281E-03 -0.281E-03
 -26.796 -0.298E-03 -0.298E-03
 -26.786 -0.316E-03 -0.316E-03
 -26.776 -0.335E-03 -0.335E-03
 -26.766 -0.355E-03 -0.355E-03
 -26.756 -0.376E-03 -0.376E-03
 -26.746 -0.398E-03 -0.398E-03
 -26.736 -0.421E-03 -0.421E-03
 -26.726 -0.445E-03 -0.445E-03
 -26.716 -0.470E-03 -0.470E-03
 -26.706 -0.496E-03 -0.496E-03
 -26.696 -0.523E-03 -0.523E-03
 -26.686 -0.551E-03 -0.551E-03
 -26.676 -0.581E-03 -0.581E-03
 -26.666 -0.612E-03 -0.612E-03
 -26.656 -0.644E-03 -0.644E-03
 -26.646 -0.677E-03 -0.677E-03
 -26.636 -0.712E-03 -0.712E-03
 -26.626 -0.748E-03 -0.748E-03
 -26.616 -0.785E-03 -0.785E-03
 -26.606 -0.824E-03 -0.824E-03
 -26.596 -0.864E-03 -0.864E-03
 -26.586 -0.905E-03 -0.905E-03
 -26.576 -0.947E-03 -0.947E-03
 -26.566 -0.991E-03 -0.991E-03
 -26.556 -0.104E-02 -0.104E-02
 -26.546 -0.108E-02 -0.108E-02
 -26.536 -0.113E-02 -0.113E-02
 -26.526 -0.118E-02 -0.118E-02
 -26.516 -0.123E-02 -0.123E-02
 -26.506 -0.128E-02 -0.128E-02
 -26.496 -0.133E-02 -0.133E-02
 -26.486 -0.139E-02 -0.139E-02
 -26.476 -0.144E-02 -0.144E-02
 -26.466 -0.150E-02 -0.150E-02
 -26.456 -0.156E-02 -0.156E-02
 -26.446 -0.161E-02 -0.161E-02
 -26.436 -0.167E-02 -0.167E-02
 -26.426 -0.173E-02 -0.173E-02
 -26.416 -0.179E-02 -0.179E-02
 -26.406 -0.185E-02 -0.185E-02
 -26.396 -0.191E-02 -0.191E-02
 -26.386 -0.197E-02 -0.197E-02
 -26.376 -0.204E-02 -0.204E-02
 -26.366 -0.210E-02 -0.210E-02
 -26.356 -0.216E-02 -0.216E-02
 -26.346 -0.222E-02 -0.222E-02
 -26.336 -0.228E-02 -0.228E-02
 -26.326 -0.234E-02 -0.234E-02
 -26.316 -0.240E-02 -0.240E-02
 -26.306 -0.246E-02 -0.246E-02
 -26.296 -0.251E-02 -0.251E-02
 -26.286 -0.257E-02 -0.257E-02
 -26.276 -0.262E-02 -0.262E-02
 -26.266 -0.267E-02 -0.267E-02
 -26.256 -0.272E-02 -0.272E-02
 -26.246 -0.276E-02 -0.276E-02
 -26.236 -0.281E-02 -0.281E-02
 -26.226 -0.285E-02 -0.285E-02
 -26.216 -0.288E-02 -0.288E-02
 -26.206 -0.291E-02 -0.291E-02
 -26.196 -0.294E-02 -0.294E-02
 -26.186 -0.296E-02 -0.296E-02
 -26.176 -0.298E-02 -0.298E-02
 -26.166 -0.299E-02 -0.299E-02
 -26.156 -0.300E-02 -0.300E-02
 -26.146 -0.300E-02 -0.300E-02
 -26.136 -0.299E-02 -0.299E-02
 -26.126 -0.298E-02 -0.298E-02
 -26.116 -0.296E-02 -0.296E-02
 -26.106 -0.293E-02 -0.293E-02
 -26.096 -0.289E-02 -0.289E-02
 -26.086 -0.285E-02 -0.285E-02
 -26.076 -0.279E-02 -0.279E-02
 -26.066 -0.272E-02 -0.272E-02
 -26.056 -0.265E-02 -0.265E-02
 -26.046 -0.256E-02 -0.256E-02
 -26.036 -0.246E-02 -0.246E-02
 -26.026 -0.235E-02 -0.235E-02
 -26.016 -0.223E-02 -0.223E-02
 -26.006 -0.209E-02 -0.209E-02
 -25.996 -0.194E-02 -0.194E-02
 -25.986 -0.178E-02 -0.178E-02
 -25.976 -0.161E-02 -0.161E-02
 -25.966 -0.141E-02 -0.141E-02
 -25.956 -0.121E-02 -0.121E-02
 -25.946 -0.985E-03 -0.985E-03
 -25.936 -0.747E-03 -0.747E-03
 -25.926 -0.492E-03 -0.492E-03
 -25.916 -0.220E-03 -0.220E-03
 -25.906  0.687E-04  0.687E-04
 -25.896  0.375E-03  0.375E-03
 -25.886  0.700E-03  0.700E-03
 -25.876  0.104E-02  0.104E-02
 -25.866  0.141E-02  0.141E-02
 -25.856  0.179E-02  0.179E-02
 -25.846  0.219E-02  0.219E-02
 -25.836  0.261E-02  0.261E-02
 -25.826  0.305E-02  0.305E-02
 -25.816  0.351E-02  0.351E-02
 -25.806  0.399E-02  0.399E-02
 -25.796  0.449E-02  0.449E-02
 -25.786  0.501E-02  0.501E-02
 -25.776  0.555E-02  0.555E-02
 -25.766  0.611E-02  0.611E-02
 -25.756  0.669E-02  0.669E-02
 -25.746  0.729E-02  0.729E-02
 -25.736  0.792E-02  0.792E-02
 -25.726  0.856E-02  0.856E-02
 -25.716  0.922E-02  0.922E-02
 -25.706  0.990E-02  0.990E-02
 -25.696  0.106E-01  0.106E-01
 -25.686  0.113E-01  0.113E-01
 -25.676  0.121E-01  0.121E-01
 -25.666  0.128E-01  0.128E-01
 -25.656  0.136E-01  0.136E-01
 -25.646  0.144E-01  0.144E-01
 -25.636  0.152E-01  0.152E-01
 -25.626  0.160E-01  0.160E-01
 -25.616  0.169E-01  0.169E-01
 -25.606  0.177E-01  0.177E-01
 -25.596  0.186E-01  0.186E-01
 -25.586  0.195E-01  0.195E-01
 -25.576  0.204E-01  0.204E-01
 -25.566  0.213E-01  0.213E-01
 -25.556  0.222E-01  0.222E-01
 -25.546  0.231E-01  0.231E-01
 -25.536  0.241E-01  0.241E-01
 -25.526  0.250E-01  0.250E-01
 -25.516  0.260E-01  0.260E-01
 -25.506  0.269E-01  0.269E-01
 -25.496  0.279E-01  0.279E-01
 -25.486  0.288E-01  0.288E-01
 -25.476  0.298E-01  0.298E-01
 -25.466  0.308E-01  0.308E-01
 -25.456  0.317E-01  0.317E-01
 -25.446  0.327E-01  0.327E-01
 -25.436  0.336E-01  0.336E-01
 -25.426  0.346E-01  0.346E-01
 -25.416  0.355E-01  0.355E-01
 -25.406  0.365E-01  0.365E-01
 -25.396  0.374E-01  0.374E-01
 -25.386  0.383E-01  0.383E-01
 -25.376  0.392E-01  0.392E-01
 -25.366  0.401E-01  0.401E-01
 -25.356  0.410E-01  0.410E-01
 -25.346  0.419E-01  0.419E-01
 -25.336  0.427E-01  0.427E-01
 -25.326  0.435E-01  0.435E-01
 -25.316  0.443E-01  0.443E-01
 -25.306  0.451E-01  0.451E-01
 -25.296  0.459E-01  0.459E-01
 -25.286  0.466E-01  0.466E-01
 -25.276  0.474E-01  0.474E-01
 -25.266  0.480E-01  0.480E-01
 -25.256  0.487E-01  0.487E-01
 -25.246  0.493E-01  0.493E-01
 -25.236  0.499E-01  0.499E-01
 -25.226  0.505E-01  0.505E-01
 -25.216  0.510E-01  0.510E-01
 -25.206  0.516E-01  0.516E-01
 -25.196  0.520E-01  0.520E-01
 -25.186  0.525E-01  0.525E-01
 -25.176  0.529E-01  0.529E-01
 -25.166  0.532E-01  0.532E-01
 -25.156  0.536E-01  0.536E-01
 -25.146  0.539E-01  0.539E-01
 -25.136  0.541E-01  0.541E-01
 -25.126  0.543E-01  0.543E-01
 -25.116  0.545E-01  0.545E-01
 -25.106  0.547E-01  0.547E-01
 -25.096  0.548E-01  0.548E-01
 -25.086  0.548E-01  0.548E-01
 -25.076  0.549E-01  0.549E-01
 -25.066  0.548E-01  0.548E-01
 -25.056  0.548E-01  0.548E-01
 -25.046  0.547E-01  0.547E-01
 -25.036  0.545E-01  0.545E-01
 -25.026  0.544E-01  0.544E-01
 -25.016  0.542E-01  0.542E-01
 -25.006  0.539E-01  0.539E-01
 -24.996  0.536E-01  0.536E-01
 -24.986  0.533E-01  0.533E-01
 -24.976  0.529E-01  0.529E-01
 -24.966  0.525E-01  0.525E-01
 -24.956  0.521E-01  0.521E-01
 -24.946  0.516E-01  0.516E-01
 -24.936  0.511E-01  0.511E-01
 -24.926  0.506E-01  0.506E-01
 -24.916  0.500E-01  0.500E-01
 -24.906  0.494E-01  0.494E-01
 -24.896  0.488E-01  0.488E-01
 -24.886  0.482E-01  0.482E-01
 -24.876  0.475E-01  0.475E-01
 -24.866  0.468E-01  0.468E-01
 -24.856  0.460E-01  0.460E-01
 -24.846  0.453E-01  0.453E-01
 -24.836  0.445E-01  0.445E-01
 -24.826  0.437E-01  0.437E-01
 -24.816  0.429E-01  0.429E-01
 -24.806  0.420E-01  0.420E-01
 -24.796  0.411E-01  0.411E-01
 -24.786  0.403E-01  0.403E-01
 -24.776  0.394E-01  0.394E-01
 -24.766  0.385E-01  0.385E-01
 -24.756  0.376E-01  0.376E-01
 -24.746  0.366E-01  0.366E-01
 -24.736  0.357E-01  0.357E-01
 -24.726  0.347E-01  0.347E-01
 -24.716  0.338E-01  0.338E-01
 -24.706  0.328E-01  0.328E-01
 -24.696  0.319E-01  0.319E-01
 -24.686  0.309E-01  0.309E-01
 -24.676  0.300E-01  0.300E-01
 -24.666  0.290E-01  0.290E-01
 -24.656  0.280E-01  0.280E-01
 -24.646  0.271E-01  0.271E-01
 -24.636  0.261E-01  0.261E-01
 -24.626  0.252E-01  0.252E-01
 -24.616  0.242E-01  0.242E-01
 -24.606  0.233E-01  0.233E-01
 -24.596  0.224E-01  0.224E-01
 -24.586  0.214E-01  0.214E-01
 -24.576  0.205E-01  0.205E-01
 -24.566  0.196E-01  0.196E-01
 -24.556  0.187E-01  0.187E-01
 -24.546  0.179E-01  0.179E-01
 -24.536  0.170E-01  0.170E-01
 -24.526  0.162E-01  0.162E-01
 -24.516  0.153E-01  0.153E-01
 -24.506  0.145E-01  0.145E-01
 -24.496  0.137E-01  0.137E-01
 -24.486  0.130E-01  0.130E-01
 -24.476  0.122E-01  0.122E-01
 -24.466  0.115E-01  0.115E-01
 -24.456  0.107E-01  0.107E-01
 -24.446  0.100E-01  0.100E-01
 -24.436  0.934E-02  0.934E-02
 -24.426  0.867E-02  0.867E-02
 -24.416  0.803E-02  0.803E-02
 -24.406  0.740E-02  0.740E-02
 -24.396  0.679E-02  0.679E-02
 -24.386  0.621E-02  0.621E-02
 -24.376  0.564E-02  0.564E-02
 -24.366  0.510E-02  0.510E-02
 -24.356  0.457E-02  0.457E-02
 -24.346  0.407E-02  0.407E-02
 -24.336  0.359E-02  0.359E-02
 -24.326  0.312E-02  0.312E-02
 -24.316  0.268E-02  0.268E-02
 -24.306  0.226E-02  0.226E-02
 -24.296  0.185E-02  0.185E-02
 -24.286  0.147E-02  0.147E-02
 -24.276  0.110E-02  0.110E-02
 -24.266  0.758E-03  0.758E-03
 -24.256  0.430E-03  0.430E-03
 -24.246  0.120E-03  0.120E-03
 -24.236 -0.172E-03 -0.172E-03
 -24.226 -0.447E-03 -0.447E-03
 -24.216 -0.705E-03 -0.705E-03
 -24.206 -0.946E-03 -0.946E-03
 -24.196 -0.117E-02 -0.117E-02
 -24.186 -0.138E-02 -0.138E-02
 -24.176 -0.157E-02 -0.157E-02
 -24.166 -0.175E-02 -0.175E-02
 -24.156 -0.192E-02 -0.192E-02
 -24.146 -0.207E-02 -0.207E-02
 -24.136 -0.221E-02 -0.221E-02
 -24.126 -0.233E-02 -0.233E-02
 -24.116 -0.244E-02 -0.244E-02
 -24.106 -0.254E-02 -0.254E-02
 -24.096 -0.263E-02 -0.263E-02
 -24.086 -0.271E-02 -0.271E-02
 -24.076 -0.278E-02 -0.278E-02
 -24.066 -0.284E-02 -0.284E-02
 -24.056 -0.289E-02 -0.289E-02
 -24.046 -0.292E-02 -0.292E-02
 -24.036 -0.296E-02 -0.296E-02
 -24.026 -0.298E-02 -0.298E-02
 -24.016 -0.299E-02 -0.299E-02
 -24.006 -0.300E-02 -0.300E-02
 -23.996 -0.300E-02 -0.300E-02
 -23.986 -0.300E-02 -0.300E-02
 -23.976 -0.298E-02 -0.298E-02
 -23.966 -0.297E-02 -0.297E-02
 -23.956 -0.295E-02 -0.295E-02
 -23.946 -0.292E-02 -0.292E-02
 -23.936 -0.289E-02 -0.289E-02
 -23.926 -0.285E-02 -0.285E-02
 -23.916 -0.281E-02 -0.281E-02
 -23.906 -0.277E-02 -0.277E-02
 -23.896 -0.273E-02 -0.273E-02
 -23.886 -0.268E-02 -0.268E-02
 -23.876 -0.263E-02 -0.263E-02
 -23.866 -0.258E-02 -0.258E-02
 -23.856 -0.252E-02 -0.252E-02
 -23.846 -0.247E-02 -0.247E-02
 -23.836 -0.241E-02 -0.241E-02
 -23.826 -0.235E-02 -0.235E-02
 -23.816 -0.229E-02 -0.229E-02
 -23.806 -0.223E-02 -0.223E-02
 -23.796 -0.217E-02 -0.217E-02
 -23.786 -0.211E-02 -0.211E-02
 -23.776 -0.205E-02 -0.205E-02
 -23.766 -0.199E-02 -0.199E-02
 -23.756 -0.192E-02 -0.192E-02
 -23.746 -0.186E-02 -0.186E-02
 -23.736 -0.180E-02 -0.180E-02
 -23.726 -0.174E-02 -0.174E-02
 -23.716 -0.168E-02 -0.168E-02
 -23.706 -0.162E-02 -0.162E-02
 -23.696 -0.157E-02 -0.157E-02
 -23.686 -0.151E-02 -0.151E-02
 -23.676 -0.145E-02 -0.145E-02
 -23.666 -0.140E-02 -0.140E-02
 -23.656 -0.134E-02 -0.134E-02
 -23.646 -0.129E-02 -0.129E-02
 -23.636 -0.124E-02 -0.124E-02
 -23.626 -0.119E-02 -0.119E-02
 -23.616 -0.114E-02 -0.114E-02
 -23.606 -0.109E-02 -0.109E-02
 -23.596 -0.104E-02 -0.104E-02
 -23.586 -0.999E-03 -0.999E-03
 -23.576 -0.955E-03 -0.955E-03
 -23.566 -0.912E-03 -0.912E-03
 -23.556 -0.871E-03 -0.871E-03
 -23.546 -0.830E-03 -0.830E-03
 -23.536 -0.792E-03 -0.792E-03
 -23.526 -0.754E-03 -0.754E-03
 -23.516 -0.718E-03 -0.718E-03
 -23.506 -0.683E-03 -0.683E-03
 -23.496 -0.650E-03 -0.650E-03
 -23.486 -0.617E-03 -0.617E-03
 -23.476 -0.586E-03 -0.586E-03
 -23.466 -0.556E-03 -0.556E-03
 -23.456 -0.528E-03 -0.528E-03
 -23.446 -0.500E-03 -0.500E-03
 -23.436 -0.474E-03 -0.474E-03
 -23.426 -0.449E-03 -0.449E-03
 -23.416 -0.425E-03 -0.425E-03
 -23.406 -0.402E-03 -0.402E-03
 -23.396 -0.379E-03 -0.379E-03
 -23.386 -0.358E-03 -0.358E-03
 -23.376 -0.338E-03 -0.338E-03
 -23.366 -0.319E-03 -0.319E-03
 -23.356 -0.301E-03 -0.301E-03
 -23.346 -0.284E-03 -0.284E-03
 -23.336 -0.267E-03 -0.267E-03
 -23.326 -0.251E-03 -0.251E-03
 -23.316 -0.237E-03 -0.237E-03
 -23.306 -0.222E-03 -0.222E-03
 -23.296 -0.209E-03 -0.209E-03
 -23.286 -0.196E-03 -0.196E-03
 -23.276 -0.184E-03 -0.184E-03
 -23.266 -0.173E-03 -0.173E-03
 -23.256 -0.162E-03 -0.162E-03
 -23.246 -0.152E-03 -0.152E-03
 -23.236 -0.142E-03 -0.142E-03
 -23.226 -0.133E-03 -0.133E-03
 -23.216 -0.125E-03 -0.125E-03
 -23.206 -0.116E-03 -0.116E-03
 -23.196 -0.109E-03 -0.109E-03
 -23.186 -0.102E-03 -0.102E-03
 -23.176 -0.949E-04 -0.949E-04
 -23.166 -0.886E-04 -0.886E-04
 -23.156 -0.826E-04 -0.826E-04
 -23.146 -0.770E-04 -0.770E-04
 -23.136 -0.717E-04 -0.717E-04
 -23.126 -0.668E-04 -0.668E-04
 -23.116 -0.622E-04 -0.622E-04
 -23.106 -0.578E-04 -0.578E-04
 -23.096 -0.538E-04 -0.538E-04
 -23.086 -0.500E-04 -0.500E-04
 -23.076 -0.464E-04 -0.464E-04
 -23.066 -0.431E-04 -0.431E-04
 -23.056 -0.400E-04 -0.400E-04
 -23.046 -0.371E-04 -0.371E-04
 -23.036 -0.344E-04 -0.344E-04
 -23.026 -0.319E-04 -0.319E-04
 -23.016 -0.295E-04 -0.295E-04
 -23.006 -0.274E-04 -0.274E-04
 -22.996 -0.253E-04 -0.253E-04
 -22.986 -0.234E-04 -0.234E-04
 -22.976 -0.217E-04 -0.217E-04
 -22.966 -0.201E-04 -0.201E-04
 -22.956 -0.186E-04 -0.186E-04
 -22.946 -0.172E-04 -0.172E-04
 -22.936 -0.159E-04 -0.159E-04
 -22.926 -0.147E-04 -0.147E-04
 -22.916 -0.136E-04 -0.136E-04
 -22.906 -0.126E-04 -0.126E-04
 -22.896 -0.117E-04 -0.117E-04
 -22.886 -0.108E-04 -0.108E-04
 -22.876 -0.100E-04 -0.100E-04
 -22.866 -0.934E-05 -0.934E-05
 -22.856 -0.870E-05 -0.870E-05
 -22.846 -0.812E-05 -0.812E-05
 -22.836 -0.759E-05 -0.759E-05
 -22.826 -0.713E-05 -0.713E-05
 -22.816 -0.671E-05 -0.671E-05
 -22.806 -0.635E-05 -0.635E-05
 -22.796 -0.604E-05 -0.604E-05
 -22.786 -0.577E-05 -0.577E-05
 -22.776 -0.554E-05 -0.554E-05
 -22.766 -0.537E-05 -0.537E-05
 -22.756 -0.523E-05 -0.523E-05
 -22.746 -0.514E-05 -0.514E-05
 -22.736 -0.509E-05 -0.509E-05
 -22.726 -0.508E-05 -0.508E-05
 -22.716 -0.512E-05 -0.512E-05
 -22.706 -0.520E-05 -0.520E-05
 -22.696 -0.532E-05 -0.532E-05
 -22.686 -0.548E-05 -0.548E-05
 -22.676 -0.570E-05 -0.570E-05
 -22.666 -0.595E-05 -0.595E-05
 -22.656 -0.626E-05 -0.626E-05
 -22.646 -0.662E-05 -0.662E-05
 -22.636 -0.704E-05 -0.704E-05
 -22.626 -0.751E-05 -0.751E-05
 -22.616 -0.804E-05 -0.804E-05
 -22.606 -0.863E-05 -0.863E-05
 -22.596 -0.929E-05 -0.929E-05
 -22.586 -0.100E-04 -0.100E-04
 -22.576 -0.108E-04 -0.108E-04
 -22.566 -0.117E-04 -0.117E-04
 -22.556 -0.127E-04 -0.127E-04
 -22.546 -0.138E-04 -0.138E-04
 -22.536 -0.149E-04 -0.149E-04
 -22.526 -0.162E-04 -0.162E-04
 -22.516 -0.176E-04 -0.176E-04
 -22.506 -0.191E-04 -0.191E-04
 -22.496 -0.208E-04 -0.208E-04
 -22.486 -0.225E-04 -0.225E-04
 -22.476 -0.245E-04 -0.245E-04
 -22.466 -0.266E-04 -0.266E-04
 -22.456 -0.288E-04 -0.288E-04
 -22.446 -0.313E-04 -0.313E-04
 -22.436 -0.339E-04 -0.339E-04
 -22.426 -0.368E-04 -0.368E-04
 -22.416 -0.399E-04 -0.399E-04
 -22.406 -0.432E-04 -0.432E-04
 -22.396 -0.468E-04 -0.468E-04
 -22.386 -0.507E-04 -0.507E-04
 -22.376 -0.548E-04 -0.548E-04
 -22.366 -0.593E-04 -0.593E-04
 -22.356 -0.641E-04 -0.641E-04
 -22.346 -0.692E-04 -0.692E-04
 -22.336 -0.748E-04 -0.748E-04
 -22.326 -0.807E-04 -0.807E-04
 -22.316 -0.871E-04 -0.871E-04
 -22.306 -0.939E-04 -0.939E-04
 -22.296 -0.101E-03 -0.101E-03
 -22.286 -0.109E-03 -0.109E-03
 -22.276 -0.117E-03 -0.117E-03
 -22.266 -0.126E-03 -0.126E-03
 -22.256 -0.136E-03 -0.136E-03
 -22.246 -0.146E-03 -0.146E-03
 -22.236 -0.157E-03 -0.157E-03
 -22.226 -0.169E-03 -0.169E-03
 -22.216 -0.181E-03 -0.181E-03
 -22.206 -0.194E-03 -0.194E-03
 -22.196 -0.208E-03 -0.208E-03
 -22.186 -0.223E-03 -0.223E-03
 -22.176 -0.239E-03 -0.239E-03
 -22.166 -0.256E-03 -0.256E-03
 -22.156 -0.274E-03 -0.274E-03
 -22.146 -0.293E-03 -0.293E-03
 -22.136 -0.313E-03 -0.313E-03
 -22.126 -0.334E-03 -0.334E-03
 -22.116 -0.357E-03 -0.357E-03
 -22.106 -0.381E-03 -0.381E-03
 -22.096 -0.406E-03 -0.406E-03
 -22.086 -0.433E-03 -0.433E-03
 -22.076 -0.461E-03 -0.461E-03
 -22.066 -0.491E-03 -0.491E-03
 -22.056 -0.522E-03 -0.522E-03
 -22.046 -0.555E-03 -0.555E-03
 -22.036 -0.590E-03 -0.590E-03
 -22.026 -0.627E-03 -0.627E-03
 -22.016 -0.666E-03 -0.666E-03
 -22.006 -0.707E-03 -0.707E-03
 -21.996 -0.749E-03 -0.749E-03
 -21.986 -0.794E-03 -0.794E-03
 -21.976 -0.841E-03 -0.841E-03
 -21.966 -0.891E-03 -0.891E-03
 -21.956 -0.942E-03 -0.942E-03
 -21.946 -0.996E-03 -0.996E-03
 -21.936 -0.105E-02 -0.105E-02
 -21.926 -0.111E-02 -0.111E-02
 -21.916 -0.117E-02 -0.117E-02
 -21.906 -0.124E-02 -0.124E-02
 -21.896 -0.131E-02 -0.131E-02
 -21.886 -0.138E-02 -0.138E-02
 -21.876 -0.145E-02 -0.145E-02
 -21.866 -0.152E-02 -0.152E-02
 -21.856 -0.160E-02 -0.160E-02
 -21.846 -0.168E-02 -0.168E-02
 -21.836 -0.177E-02 -0.177E-02
 -21.826 -0.186E-02 -0.186E-02
 -21.816 -0.195E-02 -0.195E-02
 -21.806 -0.204E-02 -0.204E-02
 -21.796 -0.214E-02 -0.214E-02
 -21.786 -0.224E-02 -0.224E-02
 -21.776 -0.234E-02 -0.234E-02
 -21.766 -0.245E-02 -0.245E-02
 -21.756 -0.256E-02 -0.256E-02
 -21.746 -0.267E-02 -0.267E-02
 -21.736 -0.278E-02 -0.278E-02
 -21.726 -0.290E-02 -0.290E-02
 -21.716 -0.302E-02 -0.302E-02
 -21.706 -0.315E-02 -0.315E-02
 -21.696 -0.327E-02 -0.327E-02
 -21.686 -0.340E-02 -0.340E-02
 -21.676 -0.353E-02 -0.353E-02
 -21.666 -0.367E-02 -0.367E-02
 -21.656 -0.380E-02 -0.380E-02
 -21.646 -0.394E-02 -0.394E-02
 -21.636 -0.408E-02 -0.408E-02
 -21.626 -0.422E-02 -0.422E-02
 -21.616 -0.436E-02 -0.436E-02
 -21.606 -0.450E-02 -0.450E-02
 -21.596 -0.464E-02 -0.464E-02
 -21.586 -0.479E-02 -0.479E-02
 -21.576 -0.493E-02 -0.493E-02
 -21.566 -0.507E-02 -0.507E-02
 -21.556 -0.521E-02 -0.521E-02
 -21.546 -0.535E-02 -0.535E-02
 -21.536 -0.549E-02 -0.549E-02
 -21.526 -0.563E-02 -0.563E-02
 -21.516 -0.576E-02 -0.576E-02
 -21.506 -0.589E-02 -0.589E-02
 -21.496 -0.602E-02 -0.602E-02
 -21.486 -0.614E-02 -0.614E-02
 -21.476 -0.626E-02 -0.626E-02
 -21.466 -0.637E-02 -0.637E-02
 -21.456 -0.647E-02 -0.647E-02
 -21.446 -0.657E-02 -0.657E-02
 -21.436 -0.666E-02 -0.666E-02
 -21.426 -0.674E-02 -0.674E-02
 -21.416 -0.681E-02 -0.681E-02
 -21.406 -0.687E-02 -0.687E-02
 -21.396 -0.692E-02 -0.692E-02
 -21.386 -0.696E-02 -0.696E-02
 -21.376 -0.698E-02 -0.698E-02
 -21.366 -0.700E-02 -0.700E-02
 -21.356 -0.699E-02 -0.699E-02
 -21.346 -0.697E-02 -0.697E-02
 -21.336 -0.693E-02 -0.693E-02
 -21.326 -0.688E-02 -0.688E-02
 -21.316 -0.681E-02 -0.681E-02
 -21.306 -0.671E-02 -0.671E-02
 -21.296 -0.660E-02 -0.660E-02
 -21.286 -0.646E-02 -0.646E-02
 -21.276 -0.630E-02 -0.630E-02
 -21.266 -0.611E-02 -0.611E-02
 -21.256 -0.590E-02 -0.590E-02
 -21.246 -0.567E-02 -0.567E-02
 -21.236 -0.540E-02 -0.540E-02
 -21.226 -0.511E-02 -0.511E-02
 -21.216 -0.478E-02 -0.478E-02
 -21.206 -0.443E-02 -0.443E-02
 -21.196 -0.404E-02 -0.404E-02
 -21.186 -0.362E-02 -0.362E-02
 -21.176 -0.316E-02 -0.316E-02
 -21.166 -0.267E-02 -0.267E-02
 -21.156 -0.214E-02 -0.214E-02
 -21.146 -0.157E-02 -0.157E-02
 -21.136 -0.967E-03 -0.967E-03
 -21.126 -0.322E-03 -0.322E-03
 -21.116  0.363E-03  0.363E-03
 -21.106  0.109E-02  0.109E-02
 -21.096  0.186E-02  0.186E-02
 -21.086  0.267E-02  0.267E-02
 -21.076  0.353E-02  0.353E-02
 -21.066  0.443E-02  0.443E-02
 -21.056  0.538E-02  0.538E-02
 -21.046  0.637E-02  0.637E-02
 -21.036  0.741E-02  0.741E-02
 -21.026  0.849E-02  0.849E-02
 -21.016  0.963E-02  0.963E-02
 -21.006  0.108E-01  0.108E-01
 -20.996  0.120E-01  0.120E-01
 -20.986  0.133E-01  0.133E-01
 -20.976  0.146E-01  0.146E-01
 -20.966  0.160E-01  0.160E-01
 -20.956  0.174E-01  0.174E-01
 -20.946  0.189E-01  0.189E-01
 -20.936  0.204E-01  0.204E-01
 -20.926  0.219E-01  0.219E-01
 -20.916  0.236E-01  0.236E-01
 -20.906  0.252E-01  0.252E-01
 -20.896  0.269E-01  0.269E-01
 -20.886  0.286E-01  0.286E-01
 -20.876  0.304E-01  0.304E-01
 -20.866  0.322E-01  0.322E-01
 -20.856  0.341E-01  0.341E-01
 -20.846  0.360E-01  0.360E-01
 -20.836  0.379E-01  0.379E-01
 -20.826  0.399E-01  0.399E-01
 -20.816  0.419E-01  0.419E-01
 -20.806  0.439E-01  0.439E-01
 -20.796  0.460E-01  0.460E-01
 -20.786  0.481E-01  0.481E-01
 -20.776  0.502E-01  0.502E-01
 -20.766  0.523E-01  0.523E-01
 -20.756  0.545E-01  0.545E-01
 -20.746  0.567E-01  0.567E-01
 -20.736  0.589E-01  0.589E-01
 -20.726  0.611E-01  0.611E-01
 -20.716  0.633E-01  0.633E-01
 -20.706  0.656E-01  0.656E-01
 -20.696  0.678E-01  0.678E-01
 -20.686  0.701E-01  0.701E-01
 -20.676  0.723E-01  0.723E-01
 -20.666  0.746E-01  0.746E-01
 -20.656  0.768E-01  0.768E-01
 -20.646  0.790E-01  0.790E-01
 -20.636  0.812E-01  0.812E-01
 -20.626  0.834E-01  0.834E-01
 -20.616  0.856E-01  0.856E-01
 -20.606  0.878E-01  0.878E-01
 -20.596  0.899E-01  0.899E-01
 -20.586  0.920E-01  0.920E-01
 -20.576  0.941E-01  0.941E-01
 -20.566  0.961E-01  0.961E-01
 -20.556  0.981E-01  0.981E-01
 -20.546  0.100E+00  0.100E+00
 -20.536  0.102E+00  0.102E+00
 -20.526  0.104E+00  0.104E+00
 -20.516  0.106E+00  0.106E+00
 -20.506  0.107E+00  0.107E+00
 -20.496  0.109E+00  0.109E+00
 -20.486  0.111E+00  0.111E+00
 -20.476  0.112E+00  0.112E+00
 -20.466  0.114E+00  0.114E+00
 -20.456  0.115E+00  0.115E+00
 -20.446  0.117E+00  0.117E+00
 -20.436  0.118E+00  0.118E+00
 -20.426  0.119E+00  0.119E+00
 -20.416  0.120E+00  0.120E+00
 -20.406  0.122E+00  0.122E+00
 -20.396  0.122E+00  0.122E+00
 -20.386  0.123E+00  0.123E+00
 -20.376  0.124E+00  0.124E+00
 -20.366  0.125E+00  0.125E+00
 -20.356  0.126E+00  0.126E+00
 -20.346  0.126E+00  0.126E+00
 -20.336  0.127E+00  0.127E+00
 -20.326  0.127E+00  0.127E+00
 -20.316  0.127E+00  0.127E+00
 -20.306  0.128E+00  0.128E+00
 -20.296  0.128E+00  0.128E+00
 -20.286  0.128E+00  0.128E+00
 -20.276  0.128E+00  0.128E+00
 -20.266  0.128E+00  0.128E+00
 -20.256  0.127E+00  0.127E+00
 -20.246  0.127E+00  0.127E+00
 -20.236  0.126E+00  0.126E+00
 -20.226  0.126E+00  0.126E+00
 -20.216  0.125E+00  0.125E+00
 -20.206  0.125E+00  0.125E+00
 -20.196  0.124E+00  0.124E+00
 -20.186  0.123E+00  0.123E+00
 -20.176  0.122E+00  0.122E+00
 -20.166  0.121E+00  0.121E+00
 -20.156  0.120E+00  0.120E+00
 -20.146  0.119E+00  0.119E+00
 -20.136  0.117E+00  0.117E+00
 -20.126  0.116E+00  0.116E+00
 -20.116  0.115E+00  0.115E+00
 -20.106  0.113E+00  0.113E+00
 -20.096  0.112E+00  0.112E+00
 -20.086  0.110E+00  0.110E+00
 -20.076  0.108E+00  0.108E+00
 -20.066  0.107E+00  0.107E+00
 -20.056  0.105E+00  0.105E+00
 -20.046  0.103E+00  0.103E+00
 -20.036  0.101E+00  0.101E+00
 -20.026  0.992E-01  0.992E-01
 -20.016  0.972E-01  0.972E-01
 -20.006  0.952E-01  0.952E-01
 -19.996  0.931E-01  0.931E-01
 -19.986  0.910E-01  0.910E-01
 -19.976  0.889E-01  0.889E-01
 -19.966  0.868E-01  0.868E-01
 -19.956  0.846E-01  0.846E-01
 -19.946  0.824E-01  0.824E-01
 -19.936  0.802E-01  0.802E-01
 -19.926  0.780E-01  0.780E-01
 -19.916  0.758E-01  0.758E-01
 -19.906  0.736E-01  0.736E-01
 -19.896  0.713E-01  0.713E-01
 -19.886  0.691E-01  0.691E-01
 -19.876  0.669E-01  0.669E-01
 -19.866  0.646E-01  0.646E-01
 -19.856  0.624E-01  0.624E-01
 -19.846  0.602E-01  0.602E-01
 -19.836  0.580E-01  0.580E-01
 -19.826  0.558E-01  0.558E-01
 -19.816  0.537E-01  0.537E-01
 -19.806  0.515E-01  0.515E-01
 -19.796  0.494E-01  0.494E-01
 -19.786  0.473E-01  0.473E-01
 -19.776  0.452E-01  0.452E-01
 -19.766  0.432E-01  0.432E-01
 -19.756  0.412E-01  0.412E-01
 -19.746  0.392E-01  0.392E-01
 -19.736  0.373E-01  0.373E-01
 -19.726  0.354E-01  0.354E-01
 -19.716  0.335E-01  0.335E-01
 -19.706  0.317E-01  0.317E-01
 -19.696  0.300E-01  0.300E-01
 -19.686  0.282E-01  0.282E-01
 -19.676  0.265E-01  0.265E-01
 -19.666  0.249E-01  0.249E-01
 -19.656  0.233E-01  0.233E-01
 -19.646  0.217E-01  0.217E-01
 -19.636  0.202E-01  0.202E-01
 -19.626  0.188E-01  0.188E-01
 -19.616  0.174E-01  0.174E-01
 -19.606  0.160E-01  0.160E-01
 -19.596  0.147E-01  0.147E-01
 -19.586  0.134E-01  0.134E-01
 -19.576  0.122E-01  0.122E-01
 -19.566  0.110E-01  0.110E-01
 -19.556  0.990E-02  0.990E-02
 -19.546  0.883E-02  0.883E-02
 -19.536  0.780E-02  0.780E-02
 -19.526  0.682E-02  0.682E-02
 -19.516  0.589E-02  0.589E-02
 -19.506  0.500E-02  0.500E-02
 -19.496  0.416E-02  0.416E-02
 -19.486  0.336E-02  0.336E-02
 -19.476  0.261E-02  0.261E-02
 -19.466  0.190E-02  0.190E-02
 -19.456  0.124E-02  0.124E-02
 -19.446  0.613E-03  0.613E-03
 -19.436  0.291E-04  0.291E-04
 -19.426 -0.516E-03 -0.516E-03
 -19.416 -0.102E-02 -0.102E-02
 -19.406 -0.149E-02 -0.149E-02
 -19.396 -0.192E-02 -0.192E-02
 -19.386 -0.232E-02 -0.232E-02
 -19.376 -0.268E-02 -0.268E-02
 -19.366 -0.301E-02 -0.301E-02
 -19.356 -0.331E-02 -0.331E-02
 -19.346 -0.358E-02 -0.358E-02
 -19.336 -0.382E-02 -0.382E-02
 -19.326 -0.403E-02 -0.403E-02
 -19.316 -0.421E-02 -0.421E-02
 -19.306 -0.437E-02 -0.437E-02
 -19.296 -0.450E-02 -0.450E-02
 -19.286 -0.461E-02 -0.461E-02
 -19.276 -0.470E-02 -0.470E-02
 -19.266 -0.477E-02 -0.477E-02
 -19.256 -0.481E-02 -0.481E-02
 -19.246 -0.484E-02 -0.484E-02
 -19.236 -0.485E-02 -0.485E-02
 -19.226 -0.485E-02 -0.485E-02
 -19.216 -0.483E-02 -0.483E-02
 -19.206 -0.479E-02 -0.479E-02
 -19.196 -0.474E-02 -0.474E-02
 -19.186 -0.468E-02 -0.468E-02
 -19.176 -0.461E-02 -0.461E-02
 -19.166 -0.453E-02 -0.453E-02
 -19.156 -0.443E-02 -0.443E-02
 -19.146 -0.433E-02 -0.433E-02
 -19.136 -0.423E-02 -0.423E-02
 -19.126 -0.411E-02 -0.411E-02
 -19.116 -0.399E-02 -0.399E-02
 -19.106 -0.386E-02 -0.386E-02
 -19.096 -0.373E-02 -0.373E-02
 -19.086 -0.360E-02 -0.360E-02
 -19.076 -0.346E-02 -0.346E-02
 -19.066 -0.332E-02 -0.332E-02
 -19.056 -0.318E-02 -0.318E-02
 -19.046 -0.304E-02 -0.304E-02
 -19.036 -0.289E-02 -0.289E-02
 -19.026 -0.275E-02 -0.275E-02
 -19.016 -0.261E-02 -0.261E-02
 -19.006 -0.246E-02 -0.246E-02
 -18.996 -0.232E-02 -0.232E-02
 -18.986 -0.218E-02 -0.218E-02
 -18.976 -0.204E-02 -0.204E-02
 -18.966 -0.190E-02 -0.190E-02
 -18.956 -0.177E-02 -0.177E-02
 -18.946 -0.164E-02 -0.164E-02
 -18.936 -0.151E-02 -0.151E-02
 -18.926 -0.139E-02 -0.139E-02
 -18.916 -0.126E-02 -0.126E-02
 -18.906 -0.115E-02 -0.115E-02
 -18.896 -0.103E-02 -0.103E-02
 -18.886 -0.923E-03 -0.923E-03
 -18.876 -0.817E-03 -0.817E-03
 -18.866 -0.715E-03 -0.715E-03
 -18.856 -0.617E-03 -0.617E-03
 -18.846 -0.524E-03 -0.524E-03
 -18.836 -0.434E-03 -0.434E-03
 -18.826 -0.350E-03 -0.350E-03
 -18.816 -0.269E-03 -0.269E-03
 -18.806 -0.193E-03 -0.193E-03
 -18.796 -0.121E-03 -0.121E-03
 -18.786 -0.533E-04 -0.533E-04
 -18.776  0.101E-04  0.101E-04
 -18.766  0.694E-04  0.694E-04
 -18.756  0.124E-03  0.124E-03
 -18.746  0.176E-03  0.176E-03
 -18.736  0.223E-03  0.223E-03
 -18.726  0.266E-03  0.266E-03
 -18.716  0.305E-03  0.305E-03
 -18.706  0.341E-03  0.341E-03
 -18.696  0.374E-03  0.374E-03
 -18.686  0.402E-03  0.402E-03
 -18.676  0.428E-03  0.428E-03
 -18.666  0.450E-03  0.450E-03
 -18.656  0.470E-03  0.470E-03
 -18.646  0.486E-03  0.486E-03
 -18.636  0.499E-03  0.499E-03
 -18.626  0.510E-03  0.510E-03
 -18.616  0.518E-03  0.518E-03
 -18.606  0.524E-03  0.524E-03
 -18.596  0.527E-03  0.527E-03
 -18.586  0.529E-03  0.529E-03
 -18.576  0.528E-03  0.528E-03
 -18.566  0.525E-03  0.525E-03
 -18.556  0.521E-03  0.521E-03
 -18.546  0.514E-03  0.514E-03
 -18.536  0.507E-03  0.507E-03
 -18.526  0.498E-03  0.498E-03
 -18.516  0.487E-03  0.487E-03
 -18.506  0.475E-03  0.475E-03
 -18.496  0.463E-03  0.463E-03
 -18.486  0.449E-03  0.449E-03
 -18.476  0.434E-03  0.434E-03
 -18.466  0.419E-03  0.419E-03
 -18.456  0.402E-03  0.402E-03
 -18.446  0.386E-03  0.386E-03
 -18.436  0.368E-03  0.368E-03
 -18.426  0.351E-03  0.351E-03
 -18.416  0.333E-03  0.333E-03
 -18.406  0.314E-03  0.314E-03
 -18.396  0.296E-03  0.296E-03
 -18.386  0.277E-03  0.277E-03
 -18.376  0.259E-03  0.259E-03
 -18.366  0.240E-03  0.240E-03
 -18.356  0.222E-03  0.222E-03
 -18.346  0.203E-03  0.203E-03
 -18.336  0.185E-03  0.185E-03
 -18.326  0.167E-03  0.167E-03
 -18.316  0.149E-03  0.149E-03
 -18.306  0.131E-03  0.131E-03
 -18.296  0.114E-03  0.114E-03
 -18.286  0.974E-04  0.974E-04
 -18.276  0.810E-04  0.810E-04
 -18.266  0.650E-04  0.650E-04
 -18.256  0.494E-04  0.494E-04
 -18.246  0.343E-04  0.343E-04
 -18.236  0.197E-04  0.197E-04
 -18.226  0.557E-05  0.557E-05
 -18.216 -0.807E-05 -0.807E-05
 -18.206 -0.212E-04 -0.212E-04
 -18.196 -0.338E-04 -0.338E-04
 -18.186 -0.459E-04 -0.459E-04
 -18.176 -0.574E-04 -0.574E-04
 -18.166 -0.685E-04 -0.685E-04
 -18.156 -0.790E-04 -0.790E-04
 -18.146 -0.890E-04 -0.890E-04
 -18.136 -0.985E-04 -0.985E-04
 -18.126 -0.107E-03 -0.107E-03
 -18.116 -0.116E-03 -0.116E-03
 -18.106 -0.124E-03 -0.124E-03
 -18.096 -0.131E-03 -0.131E-03
 -18.086 -0.139E-03 -0.139E-03
 -18.076 -0.145E-03 -0.145E-03
 -18.066 -0.151E-03 -0.151E-03
 -18.056 -0.157E-03 -0.157E-03
 -18.046 -0.162E-03 -0.162E-03
 -18.036 -0.167E-03 -0.167E-03
 -18.026 -0.172E-03 -0.172E-03
 -18.016 -0.176E-03 -0.176E-03
 -18.006 -0.180E-03 -0.180E-03
 -17.996 -0.184E-03 -0.184E-03
 -17.986 -0.187E-03 -0.187E-03
 -17.976 -0.190E-03 -0.190E-03
 -17.966 -0.193E-03 -0.193E-03
 -17.956 -0.196E-03 -0.196E-03
 -17.946 -0.198E-03 -0.198E-03
 -17.936 -0.200E-03 -0.200E-03
 -17.926 -0.202E-03 -0.202E-03
 -17.916 -0.204E-03 -0.204E-03
 -17.906 -0.206E-03 -0.206E-03
 -17.896 -0.207E-03 -0.207E-03
 -17.886 -0.209E-03 -0.209E-03
 -17.876 -0.210E-03 -0.210E-03
 -17.866 -0.212E-03 -0.212E-03
 -17.856 -0.213E-03 -0.213E-03
 -17.846 -0.214E-03 -0.214E-03
 -17.836 -0.216E-03 -0.216E-03
 -17.826 -0.217E-03 -0.217E-03
 -17.816 -0.218E-03 -0.218E-03
 -17.806 -0.220E-03 -0.220E-03
 -17.796 -0.221E-03 -0.221E-03
 -17.786 -0.223E-03 -0.223E-03
 -17.776 -0.225E-03 -0.225E-03
 -17.766 -0.227E-03 -0.227E-03
 -17.756 -0.229E-03 -0.229E-03
 -17.746 -0.231E-03 -0.231E-03
 -17.736 -0.233E-03 -0.233E-03
 -17.726 -0.235E-03 -0.235E-03
 -17.716 -0.238E-03 -0.238E-03
 -17.706 -0.241E-03 -0.241E-03
 -17.696 -0.244E-03 -0.244E-03
 -17.686 -0.247E-03 -0.247E-03
 -17.676 -0.251E-03 -0.251E-03
 -17.666 -0.254E-03 -0.254E-03
 -17.656 -0.258E-03 -0.258E-03
 -17.646 -0.263E-03 -0.263E-03
 -17.636 -0.267E-03 -0.267E-03
 -17.626 -0.272E-03 -0.272E-03
 -17.616 -0.277E-03 -0.277E-03
 -17.606 -0.282E-03 -0.282E-03
 -17.596 -0.287E-03 -0.287E-03
 -17.586 -0.293E-03 -0.293E-03
 -17.576 -0.299E-03 -0.299E-03
 -17.566 -0.306E-03 -0.306E-03
 -17.556 -0.312E-03 -0.312E-03
 -17.546 -0.319E-03 -0.319E-03
 -17.536 -0.326E-03 -0.326E-03
 -17.526 -0.333E-03 -0.333E-03
 -17.516 -0.341E-03 -0.341E-03
 -17.506 -0.349E-03 -0.349E-03
 -17.496 -0.357E-03 -0.357E-03
 -17.486 -0.365E-03 -0.365E-03
 -17.476 -0.373E-03 -0.373E-03
 -17.466 -0.382E-03 -0.382E-03
 -17.456 -0.390E-03 -0.390E-03
 -17.446 -0.399E-03 -0.399E-03
 -17.436 -0.408E-03 -0.408E-03
 -17.426 -0.417E-03 -0.417E-03
 -17.416 -0.426E-03 -0.426E-03
 -17.406 -0.435E-03 -0.435E-03
 -17.396 -0.444E-03 -0.444E-03
 -17.386 -0.453E-03 -0.453E-03
 -17.376 -0.462E-03 -0.462E-03
 -17.366 -0.471E-03 -0.471E-03
 -17.356 -0.479E-03 -0.479E-03
 -17.346 -0.487E-03 -0.487E-03
 -17.336 -0.495E-03 -0.495E-03
 -17.326 -0.503E-03 -0.503E-03
 -17.316 -0.510E-03 -0.510E-03
 -17.306 -0.517E-03 -0.517E-03
 -17.296 -0.524E-03 -0.524E-03
 -17.286 -0.529E-03 -0.529E-03
 -17.276 -0.534E-03 -0.534E-03
 -17.266 -0.539E-03 -0.539E-03
 -17.256 -0.543E-03 -0.543E-03
 -17.246 -0.545E-03 -0.545E-03
 -17.236 -0.547E-03 -0.547E-03
 -17.226 -0.548E-03 -0.548E-03
 -17.216 -0.548E-03 -0.548E-03
 -17.206 -0.546E-03 -0.546E-03
 -17.196 -0.544E-03 -0.544E-03
 -17.186 -0.540E-03 -0.540E-03
 -17.176 -0.534E-03 -0.534E-03
 -17.166 -0.527E-03 -0.527E-03
 -17.156 -0.518E-03 -0.518E-03
 -17.146 -0.508E-03 -0.508E-03
 -17.136 -0.495E-03 -0.495E-03
 -17.126 -0.481E-03 -0.481E-03
 -17.116 -0.464E-03 -0.464E-03
 -17.106 -0.446E-03 -0.446E-03
 -17.096 -0.425E-03 -0.425E-03
 -17.086 -0.401E-03 -0.401E-03
 -17.076 -0.375E-03 -0.375E-03
 -17.066 -0.346E-03 -0.346E-03
 -17.056 -0.315E-03 -0.315E-03
 -17.046 -0.280E-03 -0.280E-03
 -17.036 -0.243E-03 -0.243E-03
 -17.026 -0.202E-03 -0.202E-03
 -17.016 -0.159E-03 -0.159E-03
 -17.006 -0.111E-03 -0.111E-03
 -16.996 -0.609E-04 -0.609E-04
 -16.986 -0.664E-05 -0.664E-05
 -16.976  0.513E-04  0.513E-04
 -16.966  0.113E-03  0.113E-03
 -16.956  0.179E-03  0.179E-03
 -16.946  0.248E-03  0.248E-03
 -16.936  0.322E-03  0.322E-03
 -16.926  0.400E-03  0.400E-03
 -16.916  0.482E-03  0.482E-03
 -16.906  0.569E-03  0.569E-03
 -16.896  0.660E-03  0.660E-03
 -16.886  0.756E-03  0.756E-03
 -16.876  0.856E-03  0.856E-03
 -16.866  0.961E-03  0.961E-03
 -16.856  0.107E-02  0.107E-02
 -16.846  0.119E-02  0.119E-02
 -16.836  0.130E-02  0.130E-02
 -16.826  0.143E-02  0.143E-02
 -16.816  0.156E-02  0.156E-02
 -16.806  0.169E-02  0.169E-02
 -16.796  0.183E-02  0.183E-02
 -16.786  0.197E-02  0.197E-02
 -16.776  0.212E-02  0.212E-02
 -16.766  0.228E-02  0.228E-02
 -16.756  0.244E-02  0.244E-02
 -16.746  0.260E-02  0.260E-02
 -16.736  0.277E-02  0.277E-02
 -16.726  0.294E-02  0.294E-02
 -16.716  0.312E-02  0.312E-02
 -16.706  0.330E-02  0.330E-02
 -16.696  0.348E-02  0.348E-02
 -16.686  0.367E-02  0.367E-02
 -16.676  0.387E-02  0.387E-02
 -16.666  0.407E-02  0.407E-02
 -16.656  0.427E-02  0.427E-02
 -16.646  0.448E-02  0.448E-02
 -16.636  0.469E-02  0.469E-02
 -16.626  0.490E-02  0.490E-02
 -16.616  0.512E-02  0.512E-02
 -16.606  0.534E-02  0.534E-02
 -16.596  0.556E-02  0.556E-02
 -16.586  0.578E-02  0.578E-02
 -16.576  0.601E-02  0.601E-02
 -16.566  0.624E-02  0.624E-02
 -16.556  0.647E-02  0.647E-02
 -16.546  0.670E-02  0.670E-02
 -16.536  0.694E-02  0.694E-02
 -16.526  0.717E-02  0.717E-02
 -16.516  0.741E-02  0.741E-02
 -16.506  0.765E-02  0.765E-02
 -16.496  0.788E-02  0.788E-02
 -16.486  0.812E-02  0.812E-02
 -16.476  0.835E-02  0.835E-02
 -16.466  0.859E-02  0.859E-02
 -16.456  0.882E-02  0.882E-02
 -16.446  0.905E-02  0.905E-02
 -16.436  0.928E-02  0.928E-02
 -16.426  0.951E-02  0.951E-02
 -16.416  0.974E-02  0.974E-02
 -16.406  0.996E-02  0.996E-02
 -16.396  0.102E-01  0.102E-01
 -16.386  0.104E-01  0.104E-01
 -16.376  0.106E-01  0.106E-01
 -16.366  0.108E-01  0.108E-01
 -16.356  0.110E-01  0.110E-01
 -16.346  0.112E-01  0.112E-01
 -16.336  0.114E-01  0.114E-01
 -16.326  0.116E-01  0.116E-01
 -16.316  0.118E-01  0.118E-01
 -16.306  0.120E-01  0.120E-01
 -16.296  0.121E-01  0.121E-01
 -16.286  0.123E-01  0.123E-01
 -16.276  0.124E-01  0.124E-01
 -16.266  0.126E-01  0.126E-01
 -16.256  0.127E-01  0.127E-01
 -16.246  0.129E-01  0.129E-01
 -16.236  0.130E-01  0.130E-01
 -16.226  0.131E-01  0.131E-01
 -16.216  0.132E-01  0.132E-01
 -16.206  0.133E-01  0.133E-01
 -16.196  0.134E-01  0.134E-01
 -16.186  0.135E-01  0.135E-01
 -16.176  0.135E-01  0.135E-01
 -16.166  0.136E-01  0.136E-01
 -16.156  0.137E-01  0.137E-01
 -16.146  0.137E-01  0.137E-01
 -16.136  0.137E-01  0.137E-01
 -16.126  0.138E-01  0.138E-01
 -16.116  0.138E-01  0.138E-01
 -16.106  0.138E-01  0.138E-01
 -16.096  0.138E-01  0.138E-01
 -16.086  0.137E-01  0.137E-01
 -16.076  0.137E-01  0.137E-01
 -16.066  0.137E-01  0.137E-01
 -16.056  0.136E-01  0.136E-01
 -16.046  0.136E-01  0.136E-01
 -16.036  0.135E-01  0.135E-01
 -16.026  0.134E-01  0.134E-01
 -16.016  0.134E-01  0.134E-01
 -16.006  0.133E-01  0.133E-01
 -15.996  0.132E-01  0.132E-01
 -15.986  0.131E-01  0.131E-01
 -15.976  0.129E-01  0.129E-01
 -15.966  0.128E-01  0.128E-01
 -15.956  0.127E-01  0.127E-01
 -15.946  0.125E-01  0.125E-01
 -15.936  0.124E-01  0.124E-01
 -15.926  0.122E-01  0.122E-01
 -15.916  0.121E-01  0.121E-01
 -15.906  0.119E-01  0.119E-01
 -15.896  0.117E-01  0.117E-01
 -15.886  0.115E-01  0.115E-01
 -15.876  0.113E-01  0.113E-01
 -15.866  0.111E-01  0.111E-01
 -15.856  0.109E-01  0.109E-01
 -15.846  0.107E-01  0.107E-01
 -15.836  0.105E-01  0.105E-01
 -15.826  0.103E-01  0.103E-01
 -15.816  0.100E-01  0.100E-01
 -15.806  0.982E-02  0.982E-02
 -15.796  0.959E-02  0.959E-02
 -15.786  0.935E-02  0.935E-02
 -15.776  0.911E-02  0.911E-02
 -15.766  0.887E-02  0.887E-02
 -15.756  0.863E-02  0.863E-02
 -15.746  0.838E-02  0.838E-02
 -15.736  0.813E-02  0.813E-02
 -15.726  0.789E-02  0.789E-02
 -15.716  0.764E-02  0.764E-02
 -15.706  0.738E-02  0.738E-02
 -15.696  0.713E-02  0.713E-02
 -15.686  0.688E-02  0.688E-02
 -15.676  0.663E-02  0.663E-02
 -15.666  0.638E-02  0.638E-02
 -15.656  0.613E-02  0.613E-02
 -15.646  0.588E-02  0.588E-02
 -15.636  0.563E-02  0.563E-02
 -15.626  0.538E-02  0.538E-02
 -15.616  0.513E-02  0.513E-02
 -15.606  0.489E-02  0.489E-02
 -15.596  0.464E-02  0.464E-02
 -15.586  0.440E-02  0.440E-02
 -15.576  0.416E-02  0.416E-02
 -15.566  0.392E-02  0.392E-02
 -15.556  0.369E-02  0.369E-02
 -15.546  0.346E-02  0.346E-02
 -15.536  0.323E-02  0.323E-02
 -15.526  0.300E-02  0.300E-02
 -15.516  0.277E-02  0.277E-02
 -15.506  0.255E-02  0.255E-02
 -15.496  0.233E-02  0.233E-02
 -15.486  0.212E-02  0.212E-02
 -15.476  0.190E-02  0.190E-02
 -15.466  0.169E-02  0.169E-02
 -15.456  0.149E-02  0.149E-02
 -15.446  0.128E-02  0.128E-02
 -15.436  0.108E-02  0.108E-02
 -15.426  0.882E-03  0.882E-03
 -15.416  0.687E-03  0.687E-03
 -15.406  0.493E-03  0.493E-03
 -15.396  0.303E-03  0.303E-03
 -15.386  0.115E-03  0.115E-03
 -15.376 -0.711E-04 -0.711E-04
 -15.366 -0.254E-03 -0.254E-03
 -15.356 -0.435E-03 -0.435E-03
 -15.346 -0.614E-03 -0.614E-03
 -15.336 -0.791E-03 -0.791E-03
 -15.326 -0.967E-03 -0.967E-03
 -15.316 -0.114E-02 -0.114E-02
 -15.306 -0.131E-02 -0.131E-02
 -15.296 -0.148E-02 -0.148E-02
 -15.286 -0.165E-02 -0.165E-02
 -15.276 -0.182E-02 -0.182E-02
 -15.266 -0.199E-02 -0.199E-02
 -15.256 -0.215E-02 -0.215E-02
 -15.246 -0.232E-02 -0.232E-02
 -15.236 -0.249E-02 -0.249E-02
 -15.226 -0.265E-02 -0.265E-02
 -15.216 -0.282E-02 -0.282E-02
 -15.206 -0.298E-02 -0.298E-02
 -15.196 -0.315E-02 -0.315E-02
 -15.186 -0.331E-02 -0.331E-02
 -15.176 -0.348E-02 -0.348E-02
 -15.166 -0.364E-02 -0.364E-02
 -15.156 -0.381E-02 -0.381E-02
 -15.146 -0.398E-02 -0.398E-02
 -15.136 -0.415E-02 -0.415E-02
 -15.126 -0.432E-02 -0.432E-02
 -15.116 -0.449E-02 -0.449E-02
 -15.106 -0.466E-02 -0.466E-02
 -15.096 -0.484E-02 -0.484E-02
 -15.086 -0.501E-02 -0.501E-02
 -15.076 -0.519E-02 -0.519E-02
 -15.066 -0.536E-02 -0.536E-02
 -15.056 -0.554E-02 -0.554E-02
 -15.046 -0.572E-02 -0.572E-02
 -15.036 -0.590E-02 -0.590E-02
 -15.026 -0.609E-02 -0.609E-02
 -15.016 -0.627E-02 -0.627E-02
 -15.006 -0.645E-02 -0.645E-02
 -14.996 -0.664E-02 -0.664E-02
 -14.986 -0.682E-02 -0.682E-02
 -14.976 -0.701E-02 -0.701E-02
 -14.966 -0.720E-02 -0.720E-02
 -14.956 -0.738E-02 -0.738E-02
 -14.946 -0.757E-02 -0.757E-02
 -14.936 -0.775E-02 -0.775E-02
 -14.926 -0.793E-02 -0.793E-02
 -14.916 -0.812E-02 -0.812E-02
 -14.906 -0.830E-02 -0.830E-02
 -14.896 -0.848E-02 -0.848E-02
 -14.886 -0.865E-02 -0.865E-02
 -14.876 -0.882E-02 -0.882E-02
 -14.866 -0.899E-02 -0.899E-02
 -14.856 -0.915E-02 -0.915E-02
 -14.846 -0.931E-02 -0.931E-02
 -14.836 -0.947E-02 -0.947E-02
 -14.826 -0.961E-02 -0.961E-02
 -14.816 -0.975E-02 -0.975E-02
 -14.806 -0.988E-02 -0.988E-02
 -14.796 -0.100E-01 -0.100E-01
 -14.786 -0.101E-01 -0.101E-01
 -14.776 -0.102E-01 -0.102E-01
 -14.766 -0.103E-01 -0.103E-01
 -14.756 -0.104E-01 -0.104E-01
 -14.746 -0.105E-01 -0.105E-01
 -14.736 -0.105E-01 -0.105E-01
 -14.726 -0.106E-01 -0.106E-01
 -14.716 -0.106E-01 -0.106E-01
 -14.706 -0.106E-01 -0.106E-01
 -14.696 -0.106E-01 -0.106E-01
 -14.686 -0.105E-01 -0.105E-01
 -14.676 -0.105E-01 -0.105E-01
 -14.666 -0.104E-01 -0.104E-01
 -14.656 -0.103E-01 -0.103E-01
 -14.646 -0.102E-01 -0.102E-01
 -14.636 -0.100E-01 -0.100E-01
 -14.626 -0.985E-02 -0.985E-02
 -14.616 -0.965E-02 -0.965E-02
 -14.606 -0.941E-02 -0.941E-02
 -14.596 -0.914E-02 -0.914E-02
 -14.586 -0.884E-02 -0.884E-02
 -14.576 -0.850E-02 -0.850E-02
 -14.566 -0.813E-02 -0.813E-02
 -14.556 -0.772E-02 -0.772E-02
 -14.546 -0.727E-02 -0.727E-02
 -14.536 -0.678E-02 -0.678E-02
 -14.526 -0.625E-02 -0.625E-02
 -14.516 -0.568E-02 -0.568E-02
 -14.506 -0.506E-02 -0.506E-02
 -14.496 -0.439E-02 -0.439E-02
 -14.486 -0.368E-02 -0.368E-02
 -14.476 -0.291E-02 -0.291E-02
 -14.466 -0.210E-02 -0.210E-02
 -14.456 -0.123E-02 -0.123E-02
 -14.446 -0.311E-03 -0.311E-03
 -14.436  0.665E-03  0.665E-03
 -14.426  0.170E-02  0.170E-02
 -14.416  0.279E-02  0.279E-02
 -14.406  0.394E-02  0.394E-02
 -14.396  0.515E-02  0.515E-02
 -14.386  0.642E-02  0.642E-02
 -14.376  0.776E-02  0.776E-02
 -14.366  0.916E-02  0.916E-02
 -14.356  0.106E-01  0.106E-01
 -14.346  0.122E-01  0.122E-01
 -14.336  0.138E-01  0.138E-01
 -14.326  0.154E-01  0.154E-01
 -14.316  0.172E-01  0.172E-01
 -14.306  0.190E-01  0.190E-01
 -14.296  0.209E-01  0.209E-01
 -14.286  0.228E-01  0.228E-01
 -14.276  0.248E-01  0.248E-01
 -14.266  0.269E-01  0.269E-01
 -14.256  0.291E-01  0.291E-01
 -14.246  0.313E-01  0.313E-01
 -14.236  0.336E-01  0.336E-01
 -14.226  0.360E-01  0.360E-01
 -14.216  0.385E-01  0.385E-01
 -14.206  0.410E-01  0.410E-01
 -14.196  0.436E-01  0.436E-01
 -14.186  0.463E-01  0.463E-01
 -14.176  0.491E-01  0.491E-01
 -14.166  0.519E-01  0.519E-01
 -14.156  0.548E-01  0.548E-01
 -14.146  0.578E-01  0.578E-01
 -14.136  0.608E-01  0.608E-01
 -14.126  0.639E-01  0.639E-01
 -14.116  0.671E-01  0.671E-01
 -14.106  0.703E-01  0.703E-01
 -14.096  0.736E-01  0.736E-01
 -14.086  0.770E-01  0.770E-01
 -14.076  0.804E-01  0.804E-01
 -14.066  0.839E-01  0.839E-01
 -14.056  0.874E-01  0.874E-01
 -14.046  0.910E-01  0.910E-01
 -14.036  0.947E-01  0.947E-01
 -14.026  0.983E-01  0.983E-01
 -14.016  0.102E+00  0.102E+00
 -14.006  0.106E+00  0.106E+00
 -13.996  0.110E+00  0.110E+00
 -13.986  0.114E+00  0.114E+00
 -13.976  0.117E+00  0.117E+00
 -13.966  0.121E+00  0.121E+00
 -13.956  0.125E+00  0.125E+00
 -13.946  0.129E+00  0.129E+00
 -13.936  0.133E+00  0.133E+00
 -13.926  0.137E+00  0.137E+00
 -13.916  0.141E+00  0.141E+00
 -13.906  0.146E+00  0.146E+00
 -13.896  0.150E+00  0.150E+00
 -13.886  0.154E+00  0.154E+00
 -13.876  0.158E+00  0.158E+00
 -13.866  0.162E+00  0.162E+00
 -13.856  0.166E+00  0.166E+00
 -13.846  0.170E+00  0.170E+00
 -13.836  0.174E+00  0.174E+00
 -13.826  0.178E+00  0.178E+00
 -13.816  0.182E+00  0.182E+00
 -13.806  0.186E+00  0.186E+00
 -13.796  0.190E+00  0.190E+00
 -13.786  0.194E+00  0.194E+00
 -13.776  0.197E+00  0.197E+00
 -13.766  0.201E+00  0.201E+00
 -13.756  0.205E+00  0.205E+00
 -13.746  0.209E+00  0.209E+00
 -13.736  0.212E+00  0.212E+00
 -13.726  0.216E+00  0.216E+00
 -13.716  0.219E+00  0.219E+00
 -13.706  0.223E+00  0.223E+00
 -13.696  0.226E+00  0.226E+00
 -13.686  0.229E+00  0.229E+00
 -13.676  0.232E+00  0.232E+00
 -13.666  0.235E+00  0.235E+00
 -13.656  0.238E+00  0.238E+00
 -13.646  0.241E+00  0.241E+00
 -13.636  0.244E+00  0.244E+00
 -13.626  0.246E+00  0.246E+00
 -13.616  0.249E+00  0.249E+00
 -13.606  0.251E+00  0.251E+00
 -13.596  0.253E+00  0.253E+00
 -13.586  0.256E+00  0.256E+00
 -13.576  0.258E+00  0.258E+00
 -13.566  0.259E+00  0.259E+00
 -13.556  0.261E+00  0.261E+00
 -13.546  0.263E+00  0.263E+00
 -13.536  0.264E+00  0.264E+00
 -13.526  0.266E+00  0.266E+00
 -13.516  0.267E+00  0.267E+00
 -13.506  0.268E+00  0.268E+00
 -13.496  0.269E+00  0.269E+00
 -13.486  0.270E+00  0.270E+00
 -13.476  0.270E+00  0.270E+00
 -13.466  0.271E+00  0.271E+00
 -13.456  0.271E+00  0.271E+00
 -13.446  0.271E+00  0.271E+00
 -13.436  0.271E+00  0.271E+00
 -13.426  0.271E+00  0.271E+00
 -13.416  0.271E+00  0.271E+00
 -13.406  0.271E+00  0.271E+00
 -13.396  0.270E+00  0.270E+00
 -13.386  0.269E+00  0.269E+00
 -13.376  0.268E+00  0.268E+00
 -13.366  0.267E+00  0.267E+00
 -13.356  0.266E+00  0.266E+00
 -13.346  0.265E+00  0.265E+00
 -13.336  0.264E+00  0.264E+00
 -13.326  0.262E+00  0.262E+00
 -13.316  0.260E+00  0.260E+00
 -13.306  0.259E+00  0.259E+00
 -13.296  0.257E+00  0.257E+00
 -13.286  0.254E+00  0.254E+00
 -13.276  0.252E+00  0.252E+00
 -13.266  0.250E+00  0.250E+00
 -13.256  0.247E+00  0.247E+00
 -13.246  0.245E+00  0.245E+00
 -13.236  0.242E+00  0.242E+00
 -13.226  0.239E+00  0.239E+00
 -13.216  0.237E+00  0.237E+00
 -13.206  0.234E+00  0.234E+00
 -13.196  0.230E+00  0.230E+00
 -13.186  0.227E+00  0.227E+00
 -13.176  0.224E+00  0.224E+00
 -13.166  0.221E+00  0.221E+00
 -13.156  0.217E+00  0.217E+00
 -13.146  0.214E+00  0.214E+00
 -13.136  0.210E+00  0.210E+00
 -13.126  0.207E+00  0.207E+00
 -13.116  0.203E+00  0.203E+00
 -13.106  0.199E+00  0.199E+00
 -13.096  0.195E+00  0.195E+00
 -13.086  0.191E+00  0.191E+00
 -13.076  0.188E+00  0.188E+00
 -13.066  0.184E+00  0.184E+00
 -13.056  0.180E+00  0.180E+00
 -13.046  0.176E+00  0.176E+00
 -13.036  0.172E+00  0.172E+00
 -13.026  0.168E+00  0.168E+00
 -13.016  0.164E+00  0.164E+00
 -13.006  0.159E+00  0.159E+00
 -12.996  0.155E+00  0.155E+00
 -12.986  0.151E+00  0.151E+00
 -12.976  0.147E+00  0.147E+00
 -12.966  0.143E+00  0.143E+00
 -12.956  0.139E+00  0.139E+00
 -12.946  0.135E+00  0.135E+00
 -12.936  0.131E+00  0.131E+00
 -12.926  0.127E+00  0.127E+00
 -12.916  0.123E+00  0.123E+00
 -12.906  0.119E+00  0.119E+00
 -12.896  0.115E+00  0.115E+00
 -12.886  0.111E+00  0.111E+00
 -12.876  0.107E+00  0.107E+00
 -12.866  0.104E+00  0.104E+00
 -12.856  0.998E-01  0.998E-01
 -12.846  0.961E-01  0.961E-01
 -12.836  0.924E-01  0.924E-01
 -12.826  0.888E-01  0.888E-01
 -12.816  0.852E-01  0.852E-01
 -12.806  0.817E-01  0.817E-01
 -12.796  0.783E-01  0.783E-01
 -12.786  0.749E-01  0.749E-01
 -12.776  0.715E-01  0.715E-01
 -12.766  0.682E-01  0.682E-01
 -12.756  0.650E-01  0.650E-01
 -12.746  0.619E-01  0.619E-01
 -12.736  0.588E-01  0.588E-01
 -12.726  0.557E-01  0.557E-01
 -12.716  0.528E-01  0.528E-01
 -12.706  0.499E-01  0.499E-01
 -12.696  0.471E-01  0.471E-01
 -12.686  0.443E-01  0.443E-01
 -12.676  0.417E-01  0.417E-01
 -12.666  0.390E-01  0.390E-01
 -12.656  0.365E-01  0.365E-01
 -12.646  0.340E-01  0.340E-01
 -12.636  0.316E-01  0.316E-01
 -12.626  0.293E-01  0.293E-01
 -12.616  0.270E-01  0.270E-01
 -12.606  0.248E-01  0.248E-01
 -12.596  0.227E-01  0.227E-01
 -12.586  0.207E-01  0.207E-01
 -12.576  0.187E-01  0.187E-01
 -12.566  0.168E-01  0.168E-01
 -12.556  0.149E-01  0.149E-01
 -12.546  0.131E-01  0.131E-01
 -12.536  0.114E-01  0.114E-01
 -12.526  0.973E-02  0.973E-02
 -12.516  0.814E-02  0.814E-02
 -12.506  0.661E-02  0.661E-02
 -12.496  0.514E-02  0.514E-02
 -12.486  0.373E-02  0.373E-02
 -12.476  0.238E-02  0.238E-02
 -12.466  0.108E-02  0.108E-02
 -12.456 -0.151E-03 -0.151E-03
 -12.446 -0.133E-02 -0.133E-02
 -12.436 -0.245E-02 -0.245E-02
 -12.426 -0.352E-02 -0.352E-02
 -12.416 -0.453E-02 -0.453E-02
 -12.406 -0.549E-02 -0.549E-02
 -12.396 -0.640E-02 -0.640E-02
 -12.386 -0.726E-02 -0.726E-02
 -12.376 -0.807E-02 -0.807E-02
 -12.366 -0.883E-02 -0.883E-02
 -12.356 -0.954E-02 -0.954E-02
 -12.346 -0.102E-01 -0.102E-01
 -12.336 -0.108E-01 -0.108E-01
 -12.326 -0.114E-01 -0.114E-01
 -12.316 -0.119E-01 -0.119E-01
 -12.306 -0.124E-01 -0.124E-01
 -12.296 -0.129E-01 -0.129E-01
 -12.286 -0.133E-01 -0.133E-01
 -12.276 -0.136E-01 -0.136E-01
 -12.266 -0.139E-01 -0.139E-01
 -12.256 -0.142E-01 -0.142E-01
 -12.246 -0.144E-01 -0.144E-01
 -12.236 -0.146E-01 -0.146E-01
 -12.226 -0.148E-01 -0.148E-01
 -12.216 -0.149E-01 -0.149E-01
 -12.206 -0.150E-01 -0.150E-01
 -12.196 -0.150E-01 -0.150E-01
 -12.186 -0.150E-01 -0.150E-01
 -12.176 -0.150E-01 -0.150E-01
 -12.166 -0.149E-01 -0.149E-01
 -12.156 -0.148E-01 -0.148E-01
 -12.146 -0.146E-01 -0.146E-01
 -12.136 -0.144E-01 -0.144E-01
 -12.126 -0.142E-01 -0.142E-01
 -12.116 -0.139E-01 -0.139E-01
 -12.106 -0.136E-01 -0.136E-01
 -12.096 -0.133E-01 -0.133E-01
 -12.086 -0.129E-01 -0.129E-01
 -12.076 -0.125E-01 -0.125E-01
 -12.066 -0.120E-01 -0.120E-01
 -12.056 -0.115E-01 -0.115E-01
 -12.046 -0.109E-01 -0.109E-01
 -12.036 -0.104E-01 -0.104E-01
 -12.026 -0.973E-02 -0.973E-02
 -12.016 -0.906E-02 -0.906E-02
 -12.006 -0.835E-02 -0.835E-02
 -11.996 -0.760E-02 -0.760E-02
 -11.986 -0.681E-02 -0.681E-02
 -11.976 -0.597E-02 -0.597E-02
 -11.966 -0.510E-02 -0.510E-02
 -11.956 -0.418E-02 -0.418E-02
 -11.946 -0.321E-02 -0.321E-02
 -11.936 -0.221E-02 -0.221E-02
 -11.926 -0.116E-02 -0.116E-02
 -11.916 -0.671E-04 -0.671E-04
 -11.906  0.107E-02  0.107E-02
 -11.896  0.225E-02  0.225E-02
 -11.886  0.347E-02  0.347E-02
 -11.876  0.473E-02  0.473E-02
 -11.866  0.604E-02  0.604E-02
 -11.856  0.739E-02  0.739E-02
 -11.846  0.879E-02  0.879E-02
 -11.836  0.102E-01  0.102E-01
 -11.826  0.117E-01  0.117E-01
 -11.816  0.132E-01  0.132E-01
 -11.806  0.148E-01  0.148E-01
 -11.796  0.164E-01  0.164E-01
 -11.786  0.180E-01  0.180E-01
 -11.776  0.197E-01  0.197E-01
 -11.766  0.214E-01  0.214E-01
 -11.756  0.232E-01  0.232E-01
 -11.746  0.250E-01  0.250E-01
 -11.736  0.268E-01  0.268E-01
 -11.726  0.287E-01  0.287E-01
 -11.716  0.305E-01  0.305E-01
 -11.706  0.325E-01  0.325E-01
 -11.696  0.344E-01  0.344E-01
 -11.686  0.364E-01  0.364E-01
 -11.676  0.384E-01  0.384E-01
 -11.666  0.404E-01  0.404E-01
 -11.656  0.425E-01  0.425E-01
 -11.646  0.446E-01  0.446E-01
 -11.636  0.466E-01  0.466E-01
 -11.626  0.488E-01  0.488E-01
 -11.616  0.509E-01  0.509E-01
 -11.606  0.530E-01  0.530E-01
 -11.596  0.552E-01  0.552E-01
 -11.586  0.573E-01  0.573E-01
 -11.576  0.595E-01  0.595E-01
 -11.566  0.616E-01  0.616E-01
 -11.556  0.638E-01  0.638E-01
 -11.546  0.659E-01  0.659E-01
 -11.536  0.681E-01  0.681E-01
 -11.526  0.702E-01  0.702E-01
 -11.516  0.723E-01  0.723E-01
 -11.506  0.744E-01  0.744E-01
 -11.496  0.765E-01  0.765E-01
 -11.486  0.786E-01  0.786E-01
 -11.476  0.806E-01  0.806E-01
 -11.466  0.827E-01  0.827E-01
 -11.456  0.846E-01  0.846E-01
 -11.446  0.866E-01  0.866E-01
 -11.436  0.885E-01  0.885E-01
 -11.426  0.904E-01  0.904E-01
 -11.416  0.923E-01  0.923E-01
 -11.406  0.941E-01  0.941E-01
 -11.396  0.958E-01  0.958E-01
 -11.386  0.975E-01  0.975E-01
 -11.376  0.992E-01  0.992E-01
 -11.366  0.101E+00  0.101E+00
 -11.356  0.102E+00  0.102E+00
 -11.346  0.104E+00  0.104E+00
 -11.336  0.105E+00  0.105E+00
 -11.326  0.107E+00  0.107E+00
 -11.316  0.108E+00  0.108E+00
 -11.306  0.109E+00  0.109E+00
 -11.296  0.110E+00  0.110E+00
 -11.286  0.111E+00  0.111E+00
 -11.276  0.112E+00  0.112E+00
 -11.266  0.113E+00  0.113E+00
 -11.256  0.114E+00  0.114E+00
 -11.246  0.115E+00  0.115E+00
 -11.236  0.116E+00  0.116E+00
 -11.226  0.116E+00  0.116E+00
 -11.216  0.117E+00  0.117E+00
 -11.206  0.117E+00  0.117E+00
 -11.196  0.117E+00  0.117E+00
 -11.186  0.118E+00  0.118E+00
 -11.176  0.118E+00  0.118E+00
 -11.166  0.118E+00  0.118E+00
 -11.156  0.118E+00  0.118E+00
 -11.146  0.118E+00  0.118E+00
 -11.136  0.118E+00  0.118E+00
 -11.126  0.117E+00  0.117E+00
 -11.116  0.117E+00  0.117E+00
 -11.106  0.117E+00  0.117E+00
 -11.096  0.116E+00  0.116E+00
 -11.086  0.116E+00  0.116E+00
 -11.076  0.115E+00  0.115E+00
 -11.066  0.114E+00  0.114E+00
 -11.056  0.113E+00  0.113E+00
 -11.046  0.113E+00  0.113E+00
 -11.036  0.112E+00  0.112E+00
 -11.026  0.111E+00  0.111E+00
 -11.016  0.109E+00  0.109E+00
 -11.006  0.108E+00  0.108E+00
 -10.996  0.107E+00  0.107E+00
 -10.986  0.106E+00  0.106E+00
 -10.976  0.104E+00  0.104E+00
 -10.966  0.103E+00  0.103E+00
 -10.956  0.101E+00  0.101E+00
 -10.946  0.997E-01  0.997E-01
 -10.936  0.981E-01  0.981E-01
 -10.926  0.964E-01  0.964E-01
 -10.916  0.947E-01  0.947E-01
 -10.906  0.929E-01  0.929E-01
 -10.896  0.911E-01  0.911E-01
 -10.886  0.893E-01  0.893E-01
 -10.876  0.874E-01  0.874E-01
 -10.866  0.855E-01  0.855E-01
 -10.856  0.835E-01  0.835E-01
 -10.846  0.816E-01  0.816E-01
 -10.836  0.796E-01  0.796E-01
 -10.826  0.776E-01  0.776E-01
 -10.816  0.755E-01  0.755E-01
 -10.806  0.735E-01  0.735E-01
 -10.796  0.714E-01  0.714E-01
 -10.786  0.693E-01  0.693E-01
 -10.776  0.673E-01  0.673E-01
 -10.766  0.652E-01  0.652E-01
 -10.756  0.631E-01  0.631E-01
 -10.746  0.610E-01  0.610E-01
 -10.736  0.589E-01  0.589E-01
 -10.726  0.568E-01  0.568E-01
 -10.716  0.548E-01  0.548E-01
 -10.706  0.527E-01  0.527E-01
 -10.696  0.507E-01  0.507E-01
 -10.686  0.487E-01  0.487E-01
 -10.676  0.467E-01  0.467E-01
 -10.666  0.447E-01  0.447E-01
 -10.656  0.427E-01  0.427E-01
 -10.646  0.408E-01  0.408E-01
 -10.636  0.389E-01  0.389E-01
 -10.626  0.370E-01  0.370E-01
 -10.616  0.352E-01  0.352E-01
 -10.606  0.334E-01  0.334E-01
 -10.596  0.316E-01  0.316E-01
 -10.586  0.298E-01  0.298E-01
 -10.576  0.281E-01  0.281E-01
 -10.566  0.264E-01  0.264E-01
 -10.556  0.248E-01  0.248E-01
 -10.546  0.232E-01  0.232E-01
 -10.536  0.217E-01  0.217E-01
 -10.526  0.201E-01  0.201E-01
 -10.516  0.187E-01  0.187E-01
 -10.506  0.172E-01  0.172E-01
 -10.496  0.159E-01  0.159E-01
 -10.486  0.145E-01  0.145E-01
 -10.476  0.132E-01  0.132E-01
 -10.466  0.120E-01  0.120E-01
 -10.456  0.107E-01  0.107E-01
 -10.446  0.958E-02  0.958E-02
 -10.436  0.846E-02  0.846E-02
 -10.426  0.738E-02  0.738E-02
 -10.416  0.634E-02  0.634E-02
 -10.406  0.535E-02  0.535E-02
 -10.396  0.440E-02  0.440E-02
 -10.386  0.350E-02  0.350E-02
 -10.376  0.263E-02  0.263E-02
 -10.366  0.181E-02  0.181E-02
 -10.356  0.103E-02  0.103E-02
 -10.346  0.290E-03  0.290E-03
 -10.336 -0.410E-03 -0.410E-03
 -10.326 -0.107E-02 -0.107E-02
 -10.316 -0.169E-02 -0.169E-02
 -10.306 -0.228E-02 -0.228E-02
 -10.296 -0.282E-02 -0.282E-02
 -10.286 -0.333E-02 -0.333E-02
 -10.276 -0.381E-02 -0.381E-02
 -10.266 -0.425E-02 -0.425E-02
 -10.256 -0.466E-02 -0.466E-02
 -10.246 -0.503E-02 -0.503E-02
 -10.236 -0.538E-02 -0.538E-02
 -10.226 -0.569E-02 -0.569E-02
 -10.216 -0.597E-02 -0.597E-02
 -10.206 -0.623E-02 -0.623E-02
 -10.196 -0.645E-02 -0.645E-02
 -10.186 -0.665E-02 -0.665E-02
 -10.176 -0.682E-02 -0.682E-02
 -10.166 -0.697E-02 -0.697E-02
 -10.156 -0.710E-02 -0.710E-02
 -10.146 -0.720E-02 -0.720E-02
 -10.136 -0.728E-02 -0.728E-02
 -10.126 -0.734E-02 -0.734E-02
 -10.116 -0.738E-02 -0.738E-02
 -10.106 -0.740E-02 -0.740E-02
 -10.096 -0.740E-02 -0.740E-02
 -10.086 -0.738E-02 -0.738E-02
 -10.076 -0.735E-02 -0.735E-02
 -10.066 -0.730E-02 -0.730E-02
 -10.056 -0.724E-02 -0.724E-02
 -10.046 -0.716E-02 -0.716E-02
 -10.036 -0.707E-02 -0.707E-02
 -10.026 -0.696E-02 -0.696E-02
 -10.016 -0.684E-02 -0.684E-02
 -10.006 -0.672E-02 -0.672E-02
  -9.996 -0.658E-02 -0.658E-02
  -9.986 -0.643E-02 -0.643E-02
  -9.976 -0.627E-02 -0.627E-02
  -9.966 -0.611E-02 -0.611E-02
  -9.956 -0.593E-02 -0.593E-02
  -9.946 -0.575E-02 -0.575E-02
  -9.936 -0.556E-02 -0.556E-02
  -9.926 -0.536E-02 -0.536E-02
  -9.916 -0.516E-02 -0.516E-02
  -9.906 -0.495E-02 -0.495E-02
  -9.896 -0.474E-02 -0.474E-02
  -9.886 -0.452E-02 -0.452E-02
  -9.876 -0.430E-02 -0.430E-02
  -9.866 -0.407E-02 -0.407E-02
  -9.856 -0.384E-02 -0.384E-02
  -9.846 -0.360E-02 -0.360E-02
  -9.836 -0.336E-02 -0.336E-02
  -9.826 -0.312E-02 -0.312E-02
  -9.816 -0.288E-02 -0.288E-02
  -9.806 -0.263E-02 -0.263E-02
  -9.796 -0.238E-02 -0.238E-02
  -9.786 -0.213E-02 -0.213E-02
  -9.776 -0.187E-02 -0.187E-02
  -9.766 -0.161E-02 -0.161E-02
  -9.756 -0.135E-02 -0.135E-02
  -9.746 -0.109E-02 -0.109E-02
  -9.736 -0.828E-03 -0.828E-03
  -9.726 -0.562E-03 -0.562E-03
  -9.716 -0.294E-03 -0.294E-03
  -9.706 -0.235E-04 -0.235E-04
  -9.696  0.249E-03  0.249E-03
  -9.686  0.524E-03  0.524E-03
  -9.676  0.801E-03  0.801E-03
  -9.666  0.108E-02  0.108E-02
  -9.656  0.136E-02  0.136E-02
  -9.646  0.165E-02  0.165E-02
  -9.636  0.194E-02  0.194E-02
  -9.626  0.223E-02  0.223E-02
  -9.616  0.252E-02  0.252E-02
  -9.606  0.282E-02  0.282E-02
  -9.596  0.312E-02  0.312E-02
  -9.586  0.343E-02  0.343E-02
  -9.576  0.374E-02  0.374E-02
  -9.566  0.406E-02  0.406E-02
  -9.556  0.438E-02  0.438E-02
  -9.546  0.471E-02  0.471E-02
  -9.536  0.504E-02  0.504E-02
  -9.526  0.538E-02  0.538E-02
  -9.516  0.572E-02  0.572E-02
  -9.506  0.607E-02  0.607E-02
  -9.496  0.643E-02  0.643E-02
  -9.486  0.680E-02  0.680E-02
  -9.476  0.718E-02  0.718E-02
  -9.466  0.756E-02  0.756E-02
  -9.456  0.795E-02  0.795E-02
  -9.446  0.836E-02  0.836E-02
  -9.436  0.877E-02  0.877E-02
  -9.426  0.919E-02  0.919E-02
  -9.416  0.963E-02  0.963E-02
  -9.406  0.101E-01  0.101E-01
  -9.396  0.105E-01  0.105E-01
  -9.386  0.110E-01  0.110E-01
  -9.376  0.115E-01  0.115E-01
  -9.366  0.120E-01  0.120E-01
  -9.356  0.125E-01  0.125E-01
  -9.346  0.130E-01  0.130E-01
  -9.336  0.136E-01  0.136E-01
  -9.326  0.141E-01  0.141E-01
  -9.316  0.147E-01  0.147E-01
  -9.306  0.153E-01  0.153E-01
  -9.296  0.159E-01  0.159E-01
  -9.286  0.165E-01  0.165E-01
  -9.276  0.171E-01  0.171E-01
  -9.266  0.178E-01  0.178E-01
  -9.256  0.185E-01  0.185E-01
  -9.246  0.192E-01  0.192E-01
  -9.236  0.199E-01  0.199E-01
  -9.226  0.206E-01  0.206E-01
  -9.216  0.214E-01  0.214E-01
  -9.206  0.221E-01  0.221E-01
  -9.196  0.229E-01  0.229E-01
  -9.186  0.237E-01  0.237E-01
  -9.176  0.246E-01  0.246E-01
  -9.166  0.254E-01  0.254E-01
  -9.156  0.263E-01  0.263E-01
  -9.146  0.272E-01  0.272E-01
  -9.136  0.281E-01  0.281E-01
  -9.126  0.290E-01  0.290E-01
  -9.116  0.300E-01  0.300E-01
  -9.106  0.309E-01  0.309E-01
  -9.096  0.319E-01  0.319E-01
  -9.086  0.329E-01  0.329E-01
  -9.076  0.340E-01  0.340E-01
  -9.066  0.350E-01  0.350E-01
  -9.056  0.361E-01  0.361E-01
  -9.046  0.371E-01  0.371E-01
  -9.036  0.382E-01  0.382E-01
  -9.026  0.393E-01  0.393E-01
  -9.016  0.404E-01  0.404E-01
  -9.006  0.416E-01  0.416E-01
  -8.996  0.427E-01  0.427E-01
  -8.986  0.439E-01  0.439E-01
  -8.976  0.450E-01  0.450E-01
  -8.966  0.462E-01  0.462E-01
  -8.956  0.474E-01  0.474E-01
  -8.946  0.486E-01  0.486E-01
  -8.936  0.498E-01  0.498E-01
  -8.926  0.510E-01  0.510E-01
  -8.916  0.522E-01  0.522E-01
  -8.906  0.534E-01  0.534E-01
  -8.896  0.546E-01  0.546E-01
  -8.886  0.558E-01  0.558E-01
  -8.876  0.570E-01  0.570E-01
  -8.866  0.582E-01  0.582E-01
  -8.856  0.594E-01  0.594E-01
  -8.846  0.606E-01  0.606E-01
  -8.836  0.618E-01  0.618E-01
  -8.826  0.630E-01  0.630E-01
  -8.816  0.641E-01  0.641E-01
  -8.806  0.653E-01  0.653E-01
  -8.796  0.664E-01  0.664E-01
  -8.786  0.675E-01  0.675E-01
  -8.776  0.686E-01  0.686E-01
  -8.766  0.697E-01  0.697E-01
  -8.756  0.708E-01  0.708E-01
  -8.746  0.718E-01  0.718E-01
  -8.736  0.728E-01  0.728E-01
  -8.726  0.738E-01  0.738E-01
  -8.716  0.748E-01  0.748E-01
  -8.706  0.757E-01  0.757E-01
  -8.696  0.766E-01  0.766E-01
  -8.686  0.774E-01  0.774E-01
  -8.676  0.783E-01  0.783E-01
  -8.666  0.791E-01  0.791E-01
  -8.656  0.798E-01  0.798E-01
  -8.646  0.805E-01  0.805E-01
  -8.636  0.812E-01  0.812E-01
  -8.626  0.819E-01  0.819E-01
  -8.616  0.825E-01  0.825E-01
  -8.606  0.830E-01  0.830E-01
  -8.596  0.835E-01  0.835E-01
  -8.586  0.840E-01  0.840E-01
  -8.576  0.844E-01  0.844E-01
  -8.566  0.848E-01  0.848E-01
  -8.556  0.851E-01  0.851E-01
  -8.546  0.854E-01  0.854E-01
  -8.536  0.856E-01  0.856E-01
  -8.526  0.858E-01  0.858E-01
  -8.516  0.859E-01  0.859E-01
  -8.506  0.860E-01  0.860E-01
  -8.496  0.861E-01  0.861E-01
  -8.486  0.860E-01  0.860E-01
  -8.476  0.860E-01  0.860E-01
  -8.466  0.859E-01  0.859E-01
  -8.456  0.857E-01  0.857E-01
  -8.446  0.855E-01  0.855E-01
  -8.436  0.852E-01  0.852E-01
  -8.426  0.849E-01  0.849E-01
  -8.416  0.845E-01  0.845E-01
  -8.406  0.841E-01  0.841E-01
  -8.396  0.837E-01  0.837E-01
  -8.386  0.832E-01  0.832E-01
  -8.376  0.826E-01  0.826E-01
  -8.366  0.820E-01  0.820E-01
  -8.356  0.814E-01  0.814E-01
  -8.346  0.807E-01  0.807E-01
  -8.336  0.800E-01  0.800E-01
  -8.326  0.792E-01  0.792E-01
  -8.316  0.784E-01  0.784E-01
  -8.306  0.776E-01  0.776E-01
  -8.296  0.767E-01  0.767E-01
  -8.286  0.758E-01  0.758E-01
  -8.276  0.749E-01  0.749E-01
  -8.266  0.739E-01  0.739E-01
  -8.256  0.729E-01  0.729E-01
  -8.246  0.719E-01  0.719E-01
  -8.236  0.708E-01  0.708E-01
  -8.226  0.697E-01  0.697E-01
  -8.216  0.686E-01  0.686E-01
  -8.206  0.675E-01  0.675E-01
  -8.196  0.663E-01  0.663E-01
  -8.186  0.651E-01  0.651E-01
  -8.176  0.639E-01  0.639E-01
  -8.166  0.627E-01  0.627E-01
  -8.156  0.615E-01  0.615E-01
  -8.146  0.603E-01  0.603E-01
  -8.136  0.590E-01  0.590E-01
  -8.126  0.578E-01  0.578E-01
  -8.116  0.565E-01  0.565E-01
  -8.106  0.552E-01  0.552E-01
  -8.096  0.540E-01  0.540E-01
  -8.086  0.527E-01  0.527E-01
  -8.076  0.514E-01  0.514E-01
  -8.066  0.501E-01  0.501E-01
  -8.056  0.489E-01  0.489E-01
  -8.046  0.476E-01  0.476E-01
  -8.036  0.463E-01  0.463E-01
  -8.026  0.451E-01  0.451E-01
  -8.016  0.438E-01  0.438E-01
  -8.006  0.426E-01  0.426E-01
  -7.996  0.413E-01  0.413E-01
  -7.986  0.401E-01  0.401E-01
  -7.976  0.389E-01  0.389E-01
  -7.966  0.377E-01  0.377E-01
  -7.956  0.365E-01  0.365E-01
  -7.946  0.353E-01  0.353E-01
  -7.936  0.342E-01  0.342E-01
  -7.926  0.331E-01  0.331E-01
  -7.916  0.319E-01  0.319E-01
  -7.906  0.308E-01  0.308E-01
  -7.896  0.298E-01  0.298E-01
  -7.886  0.287E-01  0.287E-01
  -7.876  0.277E-01  0.277E-01
  -7.866  0.266E-01  0.266E-01
  -7.856  0.256E-01  0.256E-01
  -7.846  0.247E-01  0.247E-01
  -7.836  0.237E-01  0.237E-01
  -7.826  0.228E-01  0.228E-01
  -7.816  0.219E-01  0.219E-01
  -7.806  0.210E-01  0.210E-01
  -7.796  0.201E-01  0.201E-01
  -7.786  0.193E-01  0.193E-01
  -7.776  0.185E-01  0.185E-01
  -7.766  0.177E-01  0.177E-01
  -7.756  0.169E-01  0.169E-01
  -7.746  0.162E-01  0.162E-01
  -7.736  0.155E-01  0.155E-01
  -7.726  0.148E-01  0.148E-01
  -7.716  0.141E-01  0.141E-01
  -7.706  0.135E-01  0.135E-01
  -7.696  0.128E-01  0.128E-01
  -7.686  0.122E-01  0.122E-01
  -7.676  0.116E-01  0.116E-01
  -7.666  0.111E-01  0.111E-01
  -7.656  0.105E-01  0.105E-01
  -7.646  0.100E-01  0.100E-01
  -7.636  0.953E-02  0.953E-02
  -7.626  0.905E-02  0.905E-02
  -7.616  0.859E-02  0.859E-02
  -7.606  0.816E-02  0.816E-02
  -7.596  0.774E-02  0.774E-02
  -7.586  0.734E-02  0.734E-02
  -7.576  0.696E-02  0.696E-02
  -7.566  0.659E-02  0.659E-02
  -7.556  0.625E-02  0.625E-02
  -7.546  0.592E-02  0.592E-02
  -7.536  0.561E-02  0.561E-02
  -7.526  0.531E-02  0.531E-02
  -7.516  0.503E-02  0.503E-02
  -7.506  0.477E-02  0.477E-02
  -7.496  0.452E-02  0.452E-02
  -7.486  0.428E-02  0.428E-02
  -7.476  0.406E-02  0.406E-02
  -7.466  0.385E-02  0.385E-02
  -7.456  0.365E-02  0.365E-02
  -7.446  0.346E-02  0.346E-02
  -7.436  0.329E-02  0.329E-02
  -7.426  0.313E-02  0.313E-02
  -7.416  0.298E-02  0.298E-02
  -7.406  0.284E-02  0.284E-02
  -7.396  0.271E-02  0.271E-02
  -7.386  0.259E-02  0.259E-02
  -7.376  0.248E-02  0.248E-02
  -7.366  0.238E-02  0.238E-02
  -7.356  0.229E-02  0.229E-02
  -7.346  0.221E-02  0.221E-02
  -7.336  0.213E-02  0.213E-02
  -7.326  0.207E-02  0.207E-02
  -7.316  0.201E-02  0.201E-02
  -7.306  0.196E-02  0.196E-02
  -7.296  0.192E-02  0.192E-02
  -7.286  0.188E-02  0.188E-02
  -7.276  0.185E-02  0.185E-02
  -7.266  0.183E-02  0.183E-02
  -7.256  0.181E-02  0.181E-02
  -7.246  0.180E-02  0.180E-02
  -7.236  0.180E-02  0.180E-02
  -7.226  0.180E-02  0.180E-02
  -7.216  0.180E-02  0.180E-02
  -7.206  0.182E-02  0.182E-02
  -7.196  0.184E-02  0.184E-02
  -7.186  0.186E-02  0.186E-02
  -7.176  0.189E-02  0.189E-02
  -7.166  0.192E-02  0.192E-02
  -7.156  0.196E-02  0.196E-02
  -7.146  0.201E-02  0.201E-02
  -7.136  0.206E-02  0.206E-02
  -7.126  0.211E-02  0.211E-02
  -7.116  0.217E-02  0.217E-02
  -7.106  0.224E-02  0.224E-02
  -7.096  0.231E-02  0.231E-02
  -7.086  0.238E-02  0.238E-02
  -7.076  0.246E-02  0.246E-02
  -7.066  0.254E-02  0.254E-02
  -7.056  0.263E-02  0.263E-02
  -7.046  0.273E-02  0.273E-02
  -7.036  0.282E-02  0.282E-02
  -7.026  0.293E-02  0.293E-02
  -7.016  0.303E-02  0.303E-02
  -7.006  0.315E-02  0.315E-02
  -6.996  0.326E-02  0.326E-02
  -6.986  0.339E-02  0.339E-02
  -6.976  0.351E-02  0.351E-02
  -6.966  0.364E-02  0.364E-02
  -6.956  0.378E-02  0.378E-02
  -6.946  0.392E-02  0.392E-02
  -6.936  0.407E-02  0.407E-02
  -6.926  0.422E-02  0.422E-02
  -6.916  0.437E-02  0.437E-02
  -6.906  0.453E-02  0.453E-02
  -6.896  0.470E-02  0.470E-02
  -6.886  0.487E-02  0.487E-02
  -6.876  0.504E-02  0.504E-02
  -6.866  0.522E-02  0.522E-02
  -6.856  0.540E-02  0.540E-02
  -6.846  0.559E-02  0.559E-02
  -6.836  0.578E-02  0.578E-02
  -6.826  0.597E-02  0.597E-02
  -6.816  0.617E-02  0.617E-02
  -6.806  0.637E-02  0.637E-02
  -6.796  0.658E-02  0.658E-02
  -6.786  0.679E-02  0.679E-02
  -6.776  0.701E-02  0.701E-02
  -6.766  0.722E-02  0.722E-02
  -6.756  0.745E-02  0.745E-02
  -6.746  0.767E-02  0.767E-02
  -6.736  0.790E-02  0.790E-02
  -6.726  0.813E-02  0.813E-02
  -6.716  0.836E-02  0.836E-02
  -6.706  0.859E-02  0.859E-02
  -6.696  0.883E-02  0.883E-02
  -6.686  0.907E-02  0.907E-02
  -6.676  0.931E-02  0.931E-02
  -6.666  0.955E-02  0.955E-02
  -6.656  0.980E-02  0.980E-02
  -6.646  0.100E-01  0.100E-01
  -6.636  0.103E-01  0.103E-01
  -6.626  0.105E-01  0.105E-01
  -6.616  0.108E-01  0.108E-01
  -6.606  0.110E-01  0.110E-01
  -6.596  0.113E-01  0.113E-01
  -6.586  0.115E-01  0.115E-01
  -6.576  0.117E-01  0.117E-01
  -6.566  0.120E-01  0.120E-01
  -6.556  0.122E-01  0.122E-01
  -6.546  0.125E-01  0.125E-01
  -6.536  0.127E-01  0.127E-01
  -6.526  0.129E-01  0.129E-01
  -6.516  0.132E-01  0.132E-01
  -6.506  0.134E-01  0.134E-01
  -6.496  0.136E-01  0.136E-01
  -6.486  0.138E-01  0.138E-01
  -6.476  0.140E-01  0.140E-01
  -6.466  0.142E-01  0.142E-01
  -6.456  0.144E-01  0.144E-01
  -6.446  0.146E-01  0.146E-01
  -6.436  0.148E-01  0.148E-01
  -6.426  0.150E-01  0.150E-01
  -6.416  0.152E-01  0.152E-01
  -6.406  0.153E-01  0.153E-01
  -6.396  0.155E-01  0.155E-01
  -6.386  0.157E-01  0.157E-01
  -6.376  0.158E-01  0.158E-01
  -6.366  0.159E-01  0.159E-01
  -6.356  0.161E-01  0.161E-01
  -6.346  0.162E-01  0.162E-01
  -6.336  0.163E-01  0.163E-01
  -6.326  0.164E-01  0.164E-01
  -6.316  0.165E-01  0.165E-01
  -6.306  0.166E-01  0.166E-01
  -6.296  0.166E-01  0.166E-01
  -6.286  0.167E-01  0.167E-01
  -6.276  0.168E-01  0.168E-01
  -6.266  0.168E-01  0.168E-01
  -6.256  0.168E-01  0.168E-01
  -6.246  0.168E-01  0.168E-01
  -6.236  0.169E-01  0.169E-01
  -6.226  0.169E-01  0.169E-01
  -6.216  0.168E-01  0.168E-01
  -6.206  0.168E-01  0.168E-01
  -6.196  0.168E-01  0.168E-01
  -6.186  0.167E-01  0.167E-01
  -6.176  0.167E-01  0.167E-01
  -6.166  0.166E-01  0.166E-01
  -6.156  0.165E-01  0.165E-01
  -6.146  0.165E-01  0.165E-01
  -6.136  0.164E-01  0.164E-01
  -6.126  0.163E-01  0.163E-01
  -6.116  0.161E-01  0.161E-01
  -6.106  0.160E-01  0.160E-01
  -6.096  0.159E-01  0.159E-01
  -6.086  0.157E-01  0.157E-01
  -6.076  0.156E-01  0.156E-01
  -6.066  0.154E-01  0.154E-01
  -6.056  0.152E-01  0.152E-01
  -6.046  0.151E-01  0.151E-01
  -6.036  0.149E-01  0.149E-01
  -6.026  0.147E-01  0.147E-01
  -6.016  0.145E-01  0.145E-01
  -6.006  0.142E-01  0.142E-01
  -5.996  0.140E-01  0.140E-01
  -5.986  0.138E-01  0.138E-01
  -5.976  0.136E-01  0.136E-01
  -5.966  0.133E-01  0.133E-01
  -5.956  0.131E-01  0.131E-01
  -5.946  0.128E-01  0.128E-01
  -5.936  0.126E-01  0.126E-01
  -5.926  0.123E-01  0.123E-01
  -5.916  0.120E-01  0.120E-01
  -5.906  0.118E-01  0.118E-01
  -5.896  0.115E-01  0.115E-01
  -5.886  0.112E-01  0.112E-01
  -5.876  0.109E-01  0.109E-01
  -5.866  0.106E-01  0.106E-01
  -5.856  0.104E-01  0.104E-01
  -5.846  0.101E-01  0.101E-01
  -5.836  0.978E-02  0.978E-02
  -5.826  0.949E-02  0.949E-02
  -5.816  0.920E-02  0.920E-02
  -5.806  0.891E-02  0.891E-02
  -5.796  0.862E-02  0.862E-02
  -5.786  0.833E-02  0.833E-02
  -5.776  0.805E-02  0.805E-02
  -5.766  0.776E-02  0.776E-02
  -5.756  0.748E-02  0.748E-02
  -5.746  0.720E-02  0.720E-02
  -5.736  0.692E-02  0.692E-02
  -5.726  0.664E-02  0.664E-02
  -5.716  0.636E-02  0.636E-02
  -5.706  0.609E-02  0.609E-02
  -5.696  0.583E-02  0.583E-02
  -5.686  0.556E-02  0.556E-02
  -5.676  0.530E-02  0.530E-02
  -5.666  0.505E-02  0.505E-02
  -5.656  0.479E-02  0.479E-02
  -5.646  0.455E-02  0.455E-02
  -5.636  0.430E-02  0.430E-02
  -5.626  0.407E-02  0.407E-02
  -5.616  0.384E-02  0.384E-02
  -5.606  0.361E-02  0.361E-02
  -5.596  0.339E-02  0.339E-02
  -5.586  0.317E-02  0.317E-02
  -5.576  0.296E-02  0.296E-02
  -5.566  0.276E-02  0.276E-02
  -5.556  0.256E-02  0.256E-02
  -5.546  0.237E-02  0.237E-02
  -5.536  0.218E-02  0.218E-02
  -5.526  0.200E-02  0.200E-02
  -5.516  0.183E-02  0.183E-02
  -5.506  0.166E-02  0.166E-02
  -5.496  0.150E-02  0.150E-02
  -5.486  0.134E-02  0.134E-02
  -5.476  0.119E-02  0.119E-02
  -5.466  0.105E-02  0.105E-02
  -5.456  0.912E-03  0.912E-03
  -5.446  0.782E-03  0.782E-03
  -5.436  0.657E-03  0.657E-03
  -5.426  0.539E-03  0.539E-03
  -5.416  0.426E-03  0.426E-03
  -5.406  0.320E-03  0.320E-03
  -5.396  0.219E-03  0.219E-03
  -5.386  0.124E-03  0.124E-03
  -5.376  0.350E-04  0.350E-04
  -5.366 -0.485E-04 -0.485E-04
  -5.356 -0.126E-03 -0.126E-03
  -5.346 -0.199E-03 -0.199E-03
  -5.336 -0.266E-03 -0.266E-03
  -5.326 -0.328E-03 -0.328E-03
  -5.316 -0.384E-03 -0.384E-03
  -5.306 -0.436E-03 -0.436E-03
  -5.296 -0.482E-03 -0.482E-03
  -5.286 -0.524E-03 -0.524E-03
  -5.276 -0.561E-03 -0.561E-03
  -5.266 -0.594E-03 -0.594E-03
  -5.256 -0.622E-03 -0.622E-03
  -5.246 -0.646E-03 -0.646E-03
  -5.236 -0.666E-03 -0.666E-03
  -5.226 -0.681E-03 -0.681E-03
  -5.216 -0.693E-03 -0.693E-03
  -5.206 -0.700E-03 -0.700E-03
  -5.196 -0.704E-03 -0.704E-03
  -5.186 -0.705E-03 -0.705E-03
  -5.176 -0.702E-03 -0.702E-03
  -5.166 -0.695E-03 -0.695E-03
  -5.156 -0.686E-03 -0.686E-03
  -5.146 -0.673E-03 -0.673E-03
  -5.136 -0.658E-03 -0.658E-03
  -5.126 -0.639E-03 -0.639E-03
  -5.116 -0.618E-03 -0.618E-03
  -5.106 -0.594E-03 -0.594E-03
  -5.096 -0.568E-03 -0.568E-03
  -5.086 -0.539E-03 -0.539E-03
  -5.076 -0.508E-03 -0.508E-03
  -5.066 -0.475E-03 -0.475E-03
  -5.056 -0.440E-03 -0.440E-03
  -5.046 -0.402E-03 -0.402E-03
  -5.036 -0.363E-03 -0.363E-03
  -5.026 -0.322E-03 -0.322E-03
  -5.016 -0.280E-03 -0.280E-03
  -5.006 -0.236E-03 -0.236E-03
  -4.996 -0.190E-03 -0.190E-03
  -4.986 -0.143E-03 -0.143E-03
  -4.976 -0.950E-04 -0.950E-04
  -4.966 -0.456E-04 -0.456E-04
  -4.956  0.498E-05  0.498E-05
  -4.946  0.566E-04  0.566E-04
  -4.936  0.109E-03  0.109E-03
  -4.926  0.162E-03  0.162E-03
  -4.916  0.217E-03  0.217E-03
  -4.906  0.271E-03  0.271E-03
  -4.896  0.327E-03  0.327E-03
  -4.886  0.383E-03  0.383E-03
  -4.876  0.439E-03  0.439E-03
  -4.866  0.496E-03  0.496E-03
  -4.856  0.553E-03  0.553E-03
  -4.846  0.610E-03  0.610E-03
  -4.836  0.668E-03  0.668E-03
  -4.826  0.725E-03  0.725E-03
  -4.816  0.783E-03  0.783E-03
  -4.806  0.840E-03  0.840E-03
  -4.796  0.898E-03  0.898E-03
  -4.786  0.955E-03  0.955E-03
  -4.776  0.101E-02  0.101E-02
  -4.766  0.107E-02  0.107E-02
  -4.756  0.112E-02  0.112E-02
  -4.746  0.118E-02  0.118E-02
  -4.736  0.123E-02  0.123E-02
  -4.726  0.129E-02  0.129E-02
  -4.716  0.134E-02  0.134E-02
  -4.706  0.140E-02  0.140E-02
  -4.696  0.145E-02  0.145E-02
  -4.686  0.150E-02  0.150E-02
  -4.676  0.155E-02  0.155E-02
  -4.666  0.160E-02  0.160E-02
  -4.656  0.165E-02  0.165E-02
  -4.646  0.170E-02  0.170E-02
  -4.636  0.174E-02  0.174E-02
  -4.626  0.179E-02  0.179E-02
  -4.616  0.183E-02  0.183E-02
  -4.606  0.187E-02  0.187E-02
  -4.596  0.192E-02  0.192E-02
  -4.586  0.196E-02  0.196E-02
  -4.576  0.199E-02  0.199E-02
  -4.566  0.203E-02  0.203E-02
  -4.556  0.207E-02  0.207E-02
  -4.546  0.210E-02  0.210E-02
  -4.536  0.213E-02  0.213E-02
  -4.526  0.216E-02  0.216E-02
  -4.516  0.219E-02  0.219E-02
  -4.506  0.222E-02  0.222E-02
  -4.496  0.225E-02  0.225E-02
  -4.486  0.227E-02  0.227E-02
  -4.476  0.229E-02  0.229E-02
  -4.466  0.231E-02  0.231E-02
  -4.456  0.233E-02  0.233E-02
  -4.446  0.235E-02  0.235E-02
  -4.436  0.237E-02  0.237E-02
  -4.426  0.238E-02  0.238E-02
  -4.416  0.239E-02  0.239E-02
  -4.406  0.240E-02  0.240E-02
  -4.396  0.241E-02  0.241E-02
  -4.386  0.241E-02  0.241E-02
  -4.376  0.242E-02  0.242E-02
  -4.366  0.242E-02  0.242E-02
  -4.356  0.242E-02  0.242E-02
  -4.346  0.242E-02  0.242E-02
  -4.336  0.242E-02  0.242E-02
  -4.326  0.241E-02  0.241E-02
  -4.316  0.241E-02  0.241E-02
  -4.306  0.240E-02  0.240E-02
  -4.296  0.239E-02  0.239E-02
  -4.286  0.238E-02  0.238E-02
  -4.276  0.236E-02  0.236E-02
  -4.266  0.235E-02  0.235E-02
  -4.256  0.233E-02  0.233E-02
  -4.246  0.231E-02  0.231E-02
  -4.236  0.229E-02  0.229E-02
  -4.226  0.227E-02  0.227E-02
  -4.216  0.225E-02  0.225E-02
  -4.206  0.223E-02  0.223E-02
  -4.196  0.220E-02  0.220E-02
  -4.186  0.218E-02  0.218E-02
  -4.176  0.215E-02  0.215E-02
  -4.166  0.212E-02  0.212E-02
  -4.156  0.209E-02  0.209E-02
  -4.146  0.206E-02  0.206E-02
  -4.136  0.203E-02  0.203E-02
  -4.126  0.199E-02  0.199E-02
  -4.116  0.196E-02  0.196E-02
  -4.106  0.193E-02  0.193E-02
  -4.096  0.189E-02  0.189E-02
  -4.086  0.186E-02  0.186E-02
  -4.076  0.182E-02  0.182E-02
  -4.066  0.178E-02  0.178E-02
  -4.056  0.174E-02  0.174E-02
  -4.046  0.171E-02  0.171E-02
  -4.036  0.167E-02  0.167E-02
  -4.026  0.163E-02  0.163E-02
  -4.016  0.159E-02  0.159E-02
  -4.006  0.155E-02  0.155E-02
  -3.996  0.151E-02  0.151E-02
  -3.986  0.147E-02  0.147E-02
  -3.976  0.143E-02  0.143E-02
  -3.966  0.139E-02  0.139E-02
  -3.956  0.135E-02  0.135E-02
  -3.946  0.131E-02  0.131E-02
  -3.936  0.127E-02  0.127E-02
  -3.926  0.123E-02  0.123E-02
  -3.916  0.119E-02  0.119E-02
  -3.906  0.115E-02  0.115E-02
  -3.896  0.111E-02  0.111E-02
  -3.886  0.108E-02  0.108E-02
  -3.876  0.104E-02  0.104E-02
  -3.866  0.100E-02  0.100E-02
  -3.856  0.963E-03  0.963E-03
  -3.846  0.927E-03  0.927E-03
  -3.836  0.891E-03  0.891E-03
  -3.826  0.855E-03  0.855E-03
  -3.816  0.820E-03  0.820E-03
  -3.806  0.786E-03  0.786E-03
  -3.796  0.753E-03  0.753E-03
  -3.786  0.720E-03  0.720E-03
  -3.776  0.688E-03  0.688E-03
  -3.766  0.656E-03  0.656E-03
  -3.756  0.625E-03  0.625E-03
  -3.746  0.596E-03  0.596E-03
  -3.736  0.566E-03  0.566E-03
  -3.726  0.538E-03  0.538E-03
  -3.716  0.510E-03  0.510E-03
  -3.706  0.484E-03  0.484E-03
  -3.696  0.458E-03  0.458E-03
  -3.686  0.432E-03  0.432E-03
  -3.676  0.408E-03  0.408E-03
  -3.666  0.384E-03  0.384E-03
  -3.656  0.362E-03  0.362E-03
  -3.646  0.340E-03  0.340E-03
  -3.636  0.319E-03  0.319E-03
  -3.626  0.298E-03  0.298E-03
  -3.616  0.279E-03  0.279E-03
  -3.606  0.260E-03  0.260E-03
  -3.596  0.242E-03  0.242E-03
  -3.586  0.225E-03  0.225E-03
  -3.576  0.209E-03  0.209E-03
  -3.566  0.193E-03  0.193E-03
  -3.556  0.178E-03  0.178E-03
  -3.546  0.164E-03  0.164E-03
  -3.536  0.151E-03  0.151E-03
  -3.526  0.138E-03  0.138E-03
  -3.516  0.126E-03  0.126E-03
  -3.506  0.114E-03  0.114E-03
  -3.496  0.104E-03  0.104E-03
  -3.486  0.936E-04  0.936E-04
  -3.476  0.841E-04  0.841E-04
  -3.466  0.752E-04  0.752E-04
  -3.456  0.669E-04  0.669E-04
  -3.446  0.591E-04  0.591E-04
  -3.436  0.519E-04  0.519E-04
  -3.426  0.452E-04  0.452E-04
  -3.416  0.390E-04  0.390E-04
  -3.406  0.333E-04  0.333E-04
  -3.396  0.281E-04  0.281E-04
  -3.386  0.233E-04  0.233E-04
  -3.376  0.189E-04  0.189E-04
  -3.366  0.150E-04  0.150E-04
  -3.356  0.114E-04  0.114E-04
  -3.346  0.818E-05  0.818E-05
  -3.336  0.533E-05  0.533E-05
  -3.326  0.281E-05  0.281E-05
  -3.316  0.614E-06  0.614E-06
  -3.306 -0.128E-05 -0.128E-05
  -3.296 -0.290E-05 -0.290E-05
  -3.286 -0.425E-05 -0.425E-05
  -3.276 -0.534E-05 -0.534E-05
  -3.266 -0.620E-05 -0.620E-05
  -3.256 -0.684E-05 -0.684E-05
  -3.246 -0.727E-05 -0.727E-05
  -3.236 -0.751E-05 -0.751E-05
  -3.226 -0.757E-05 -0.757E-05
  -3.216 -0.746E-05 -0.746E-05
  -3.206 -0.719E-05 -0.719E-05
  -3.196 -0.678E-05 -0.678E-05
  -3.186 -0.624E-05 -0.624E-05
  -3.176 -0.557E-05 -0.557E-05
  -3.166 -0.480E-05 -0.480E-05
  -3.156 -0.391E-05 -0.391E-05
  -3.146 -0.293E-05 -0.293E-05
  -3.136 -0.187E-05 -0.187E-05
  -3.126 -0.722E-06 -0.722E-06
  -3.116  0.497E-06  0.497E-06
  -3.106  0.178E-05  0.178E-05
  -3.096  0.313E-05  0.313E-05
  -3.086  0.454E-05  0.454E-05
  -3.076  0.599E-05  0.599E-05
  -3.066  0.750E-05  0.750E-05
  -3.056  0.905E-05  0.905E-05
  -3.046  0.106E-04  0.106E-04
  -3.036  0.123E-04  0.123E-04
  -3.026  0.139E-04  0.139E-04
  -3.016  0.156E-04  0.156E-04
  -3.006  0.174E-04  0.174E-04
  -2.996  0.191E-04  0.191E-04
  -2.986  0.209E-04  0.209E-04
  -2.976  0.228E-04  0.228E-04
  -2.966  0.247E-04  0.247E-04
  -2.956  0.266E-04  0.266E-04
  -2.946  0.285E-04  0.285E-04
  -2.936  0.305E-04  0.305E-04
  -2.926  0.325E-04  0.325E-04
  -2.916  0.346E-04  0.346E-04
  -2.906  0.367E-04  0.367E-04
  -2.896  0.388E-04  0.388E-04
  -2.886  0.410E-04  0.410E-04
  -2.876  0.433E-04  0.433E-04
  -2.866  0.456E-04  0.456E-04
  -2.856  0.480E-04  0.480E-04
  -2.846  0.505E-04  0.505E-04
  -2.836  0.530E-04  0.530E-04
  -2.826  0.556E-04  0.556E-04
  -2.816  0.582E-04  0.582E-04
  -2.806  0.610E-04  0.610E-04
  -2.796  0.638E-04  0.638E-04
  -2.786  0.667E-04  0.667E-04
  -2.776  0.697E-04  0.697E-04
  -2.766  0.728E-04  0.728E-04
  -2.756  0.760E-04  0.760E-04
  -2.746  0.794E-04  0.794E-04
  -2.736  0.828E-04  0.828E-04
  -2.726  0.863E-04  0.863E-04
  -2.716  0.900E-04  0.900E-04
  -2.706  0.937E-04  0.937E-04
  -2.696  0.976E-04  0.976E-04
  -2.686  0.102E-03  0.102E-03
  -2.676  0.106E-03  0.106E-03
  -2.666  0.110E-03  0.110E-03
  -2.656  0.115E-03  0.115E-03
  -2.646  0.119E-03  0.119E-03
  -2.636  0.124E-03  0.124E-03
  -2.626  0.129E-03  0.129E-03
  -2.616  0.134E-03  0.134E-03
  -2.606  0.139E-03  0.139E-03
  -2.596  0.144E-03  0.144E-03
  -2.586  0.150E-03  0.150E-03
  -2.576  0.155E-03  0.155E-03
  -2.566  0.161E-03  0.161E-03
  -2.556  0.167E-03  0.167E-03
  -2.546  0.173E-03  0.173E-03
  -2.536  0.179E-03  0.179E-03
  -2.526  0.185E-03  0.185E-03
  -2.516  0.192E-03  0.192E-03
  -2.506  0.198E-03  0.198E-03
  -2.496  0.205E-03  0.205E-03
  -2.486  0.212E-03  0.212E-03
  -2.476  0.219E-03  0.219E-03
  -2.466  0.226E-03  0.226E-03
  -2.456  0.234E-03  0.234E-03
  -2.446  0.241E-03  0.241E-03
  -2.436  0.249E-03  0.249E-03
  -2.426  0.256E-03  0.256E-03
  -2.416  0.264E-03  0.264E-03
  -2.406  0.272E-03  0.272E-03
  -2.396  0.280E-03  0.280E-03
  -2.386  0.288E-03  0.288E-03
  -2.376  0.296E-03  0.296E-03
  -2.366  0.304E-03  0.304E-03
  -2.356  0.313E-03  0.313E-03
  -2.346  0.321E-03  0.321E-03
  -2.336  0.330E-03  0.330E-03
  -2.326  0.338E-03  0.338E-03
  -2.316  0.347E-03  0.347E-03
  -2.306  0.356E-03  0.356E-03
  -2.296  0.364E-03  0.364E-03
  -2.286  0.373E-03  0.373E-03
  -2.276  0.382E-03  0.382E-03
  -2.266  0.391E-03  0.391E-03
  -2.256  0.400E-03  0.400E-03
  -2.246  0.408E-03  0.408E-03
  -2.236  0.417E-03  0.417E-03
  -2.226  0.426E-03  0.426E-03
  -2.216  0.435E-03  0.435E-03
  -2.206  0.444E-03  0.444E-03
  -2.196  0.452E-03  0.452E-03
  -2.186  0.461E-03  0.461E-03
  -2.176  0.470E-03  0.470E-03
  -2.166  0.479E-03  0.479E-03
  -2.156  0.487E-03  0.487E-03
  -2.146  0.496E-03  0.496E-03
  -2.136  0.504E-03  0.504E-03
  -2.126  0.513E-03  0.513E-03
  -2.116  0.521E-03  0.521E-03
  -2.106  0.529E-03  0.529E-03
  -2.096  0.538E-03  0.538E-03
  -2.086  0.546E-03  0.546E-03
  -2.076  0.554E-03  0.554E-03
  -2.066  0.562E-03  0.562E-03
  -2.056  0.570E-03  0.570E-03
  -2.046  0.578E-03  0.578E-03
  -2.036  0.586E-03  0.586E-03
  -2.026  0.594E-03  0.594E-03
  -2.016  0.601E-03  0.601E-03
  -2.006  0.609E-03  0.609E-03
  -1.996  0.617E-03  0.617E-03
  -1.986  0.624E-03  0.624E-03
  -1.976  0.632E-03  0.632E-03
  -1.966  0.639E-03  0.639E-03
  -1.956  0.646E-03  0.646E-03
  -1.946  0.654E-03  0.654E-03
  -1.936  0.661E-03  0.661E-03
  -1.926  0.668E-03  0.668E-03
  -1.916  0.676E-03  0.676E-03
  -1.906  0.683E-03  0.683E-03
  -1.896  0.690E-03  0.690E-03
  -1.886  0.698E-03  0.698E-03
  -1.876  0.705E-03  0.705E-03
  -1.866  0.712E-03  0.712E-03
  -1.856  0.720E-03  0.720E-03
  -1.846  0.727E-03  0.727E-03
  -1.836  0.735E-03  0.735E-03
  -1.826  0.742E-03  0.742E-03
  -1.816  0.750E-03  0.750E-03
  -1.806  0.758E-03  0.758E-03
  -1.796  0.766E-03  0.766E-03
  -1.786  0.774E-03  0.774E-03
  -1.776  0.782E-03  0.782E-03
  -1.766  0.790E-03  0.790E-03
  -1.756  0.799E-03  0.799E-03
  -1.746  0.808E-03  0.808E-03
  -1.736  0.817E-03  0.817E-03
  -1.726  0.826E-03  0.826E-03
  -1.716  0.835E-03  0.835E-03
  -1.706  0.845E-03  0.845E-03
  -1.696  0.855E-03  0.855E-03
  -1.686  0.865E-03  0.865E-03
  -1.676  0.875E-03  0.875E-03
  -1.666  0.886E-03  0.886E-03
  -1.656  0.897E-03  0.897E-03
  -1.646  0.908E-03  0.908E-03
  -1.636  0.920E-03  0.920E-03
  -1.626  0.932E-03  0.932E-03
  -1.616  0.944E-03  0.944E-03
  -1.606  0.956E-03  0.956E-03
  -1.596  0.969E-03  0.969E-03
  -1.586  0.983E-03  0.983E-03
  -1.576  0.996E-03  0.996E-03
  -1.566  0.101E-02  0.101E-02
  -1.556  0.102E-02  0.102E-02
  -1.546  0.104E-02  0.104E-02
  -1.536  0.105E-02  0.105E-02
  -1.526  0.107E-02  0.107E-02
  -1.516  0.109E-02  0.109E-02
  -1.506  0.110E-02  0.110E-02
  -1.496  0.112E-02  0.112E-02
  -1.486  0.114E-02  0.114E-02
  -1.476  0.115E-02  0.115E-02
  -1.466  0.117E-02  0.117E-02
  -1.456  0.119E-02  0.119E-02
  -1.446  0.121E-02  0.121E-02
  -1.436  0.122E-02  0.122E-02
  -1.426  0.124E-02  0.124E-02
  -1.416  0.126E-02  0.126E-02
  -1.406  0.128E-02  0.128E-02
  -1.396  0.130E-02  0.130E-02
  -1.386  0.132E-02  0.132E-02
  -1.376  0.134E-02  0.134E-02
  -1.366  0.136E-02  0.136E-02
  -1.356  0.138E-02  0.138E-02
  -1.346  0.140E-02  0.140E-02
  -1.336  0.142E-02  0.142E-02
  -1.326  0.144E-02  0.144E-02
  -1.316  0.146E-02  0.146E-02
  -1.306  0.148E-02  0.148E-02
  -1.296  0.150E-02  0.150E-02
  -1.286  0.152E-02  0.152E-02
  -1.276  0.154E-02  0.154E-02
  -1.266  0.156E-02  0.156E-02
  -1.256  0.158E-02  0.158E-02
  -1.246  0.160E-02  0.160E-02
  -1.236  0.162E-02  0.162E-02
  -1.226  0.164E-02  0.164E-02
  -1.216  0.166E-02  0.166E-02
  -1.206  0.168E-02  0.168E-02
  -1.196  0.170E-02  0.170E-02
  -1.186  0.172E-02  0.172E-02
  -1.176  0.173E-02  0.173E-02
  -1.166  0.175E-02  0.175E-02
  -1.156  0.177E-02  0.177E-02
  -1.146  0.179E-02  0.179E-02
  -1.136  0.180E-02  0.180E-02
  -1.126  0.182E-02  0.182E-02
  -1.116  0.184E-02  0.184E-02
  -1.106  0.185E-02  0.185E-02
  -1.096  0.187E-02  0.187E-02
  -1.086  0.188E-02  0.188E-02
  -1.076  0.189E-02  0.189E-02
  -1.066  0.191E-02  0.191E-02
  -1.056  0.192E-02  0.192E-02
  -1.046  0.193E-02  0.193E-02
  -1.036  0.195E-02  0.195E-02
  -1.026  0.196E-02  0.196E-02
  -1.016  0.197E-02  0.197E-02
  -1.006  0.198E-02  0.198E-02
  -0.996  0.199E-02  0.199E-02
  -0.986  0.200E-02  0.200E-02
  -0.976  0.201E-02  0.201E-02
  -0.966  0.202E-02  0.202E-02
  -0.956  0.203E-02  0.203E-02
  -0.946  0.204E-02  0.204E-02
  -0.936  0.205E-02  0.205E-02
  -0.926  0.206E-02  0.206E-02
  -0.916  0.207E-02  0.207E-02
  -0.906  0.208E-02  0.208E-02
  -0.896  0.209E-02  0.209E-02
  -0.886  0.209E-02  0.209E-02
  -0.876  0.210E-02  0.210E-02
  -0.866  0.211E-02  0.211E-02
  -0.856  0.212E-02  0.212E-02
  -0.846  0.213E-02  0.213E-02
  -0.836  0.215E-02  0.215E-02
  -0.826  0.216E-02  0.216E-02
  -0.816  0.217E-02  0.217E-02
  -0.806  0.218E-02  0.218E-02
  -0.796  0.220E-02  0.220E-02
  -0.786  0.221E-02  0.221E-02
  -0.776  0.223E-02  0.223E-02
  -0.766  0.224E-02  0.224E-02
  -0.756  0.226E-02  0.226E-02
  -0.746  0.228E-02  0.228E-02
  -0.736  0.230E-02  0.230E-02
  -0.726  0.232E-02  0.232E-02
  -0.716  0.235E-02  0.235E-02
  -0.706  0.237E-02  0.237E-02
  -0.696  0.240E-02  0.240E-02
  -0.686  0.243E-02  0.243E-02
  -0.676  0.246E-02  0.246E-02
  -0.666  0.249E-02  0.249E-02
  -0.656  0.253E-02  0.253E-02
  -0.646  0.257E-02  0.257E-02
  -0.636  0.260E-02  0.260E-02
  -0.626  0.265E-02  0.265E-02
  -0.616  0.269E-02  0.269E-02
  -0.606  0.274E-02  0.274E-02
  -0.596  0.279E-02  0.279E-02
  -0.586  0.284E-02  0.284E-02
  -0.576  0.289E-02  0.289E-02
  -0.566  0.295E-02  0.295E-02
  -0.556  0.301E-02  0.301E-02
  -0.546  0.307E-02  0.307E-02
  -0.536  0.314E-02  0.314E-02
  -0.526  0.321E-02  0.321E-02
  -0.516  0.328E-02  0.328E-02
  -0.506  0.335E-02  0.335E-02
  -0.496  0.343E-02  0.343E-02
  -0.486  0.351E-02  0.351E-02
  -0.476  0.359E-02  0.359E-02
  -0.466  0.367E-02  0.367E-02
  -0.456  0.376E-02  0.376E-02
  -0.446  0.385E-02  0.385E-02
  -0.436  0.395E-02  0.395E-02
  -0.426  0.404E-02  0.404E-02
  -0.416  0.414E-02  0.414E-02
  -0.406  0.424E-02  0.424E-02
  -0.396  0.435E-02  0.435E-02
  -0.386  0.445E-02  0.445E-02
  -0.376  0.456E-02  0.456E-02
  -0.366  0.467E-02  0.467E-02
  -0.356  0.478E-02  0.478E-02
  -0.346  0.490E-02  0.490E-02
  -0.336  0.502E-02  0.502E-02
  -0.326  0.513E-02  0.513E-02
  -0.316  0.525E-02  0.525E-02
  -0.306  0.537E-02  0.537E-02
  -0.296  0.550E-02  0.550E-02
  -0.286  0.562E-02  0.562E-02
  -0.276  0.575E-02  0.575E-02
  -0.266  0.587E-02  0.587E-02
  -0.256  0.600E-02  0.600E-02
  -0.246  0.612E-02  0.612E-02
  -0.236  0.625E-02  0.625E-02
  -0.226  0.638E-02  0.638E-02
  -0.216  0.650E-02  0.650E-02
  -0.206  0.663E-02  0.663E-02
  -0.196  0.676E-02  0.676E-02
  -0.186  0.688E-02  0.688E-02
  -0.176  0.701E-02  0.701E-02
  -0.166  0.713E-02  0.713E-02
  -0.156  0.725E-02  0.725E-02
  -0.146  0.738E-02  0.738E-02
  -0.136  0.749E-02  0.749E-02
  -0.126  0.761E-02  0.761E-02
  -0.116  0.773E-02  0.773E-02
  -0.106  0.784E-02  0.784E-02
  -0.096  0.795E-02  0.795E-02
  -0.086  0.806E-02  0.806E-02
  -0.076  0.816E-02  0.816E-02
  -0.066  0.827E-02  0.827E-02
  -0.056  0.837E-02  0.837E-02
  -0.046  0.846E-02  0.846E-02
  -0.036  0.856E-02  0.856E-02
  -0.026  0.864E-02  0.864E-02
  -0.016  0.873E-02  0.873E-02
  -0.006  0.881E-02  0.881E-02
   0.004  0.889E-02  0.889E-02
   0.014  0.896E-02  0.896E-02
   0.024  0.903E-02  0.903E-02
   0.034  0.909E-02  0.909E-02
   0.044  0.915E-02  0.915E-02
   0.054  0.921E-02  0.921E-02
   0.064  0.926E-02  0.926E-02
   0.074  0.930E-02  0.930E-02
   0.084  0.935E-02  0.935E-02
   0.094  0.938E-02  0.938E-02
   0.104  0.941E-02  0.941E-02
   0.114  0.944E-02  0.944E-02
   0.124  0.946E-02  0.946E-02
   0.134  0.948E-02  0.948E-02
   0.144  0.949E-02  0.949E-02
   0.154  0.949E-02  0.949E-02
   0.164  0.950E-02  0.950E-02
   0.174  0.949E-02  0.949E-02
   0.184  0.948E-02  0.948E-02
   0.194  0.947E-02  0.947E-02
   0.204  0.945E-02  0.945E-02
   0.214  0.943E-02  0.943E-02
   0.224  0.940E-02  0.940E-02
   0.234  0.937E-02  0.937E-02
   0.244  0.934E-02  0.934E-02
   0.254  0.930E-02  0.930E-02
   0.264  0.925E-02  0.925E-02
   0.274  0.921E-02  0.921E-02
   0.284  0.915E-02  0.915E-02
   0.294  0.910E-02  0.910E-02
   0.304  0.904E-02  0.904E-02
   0.314  0.898E-02  0.898E-02
   0.324  0.891E-02  0.891E-02
   0.334  0.884E-02  0.884E-02
   0.344  0.877E-02  0.877E-02
   0.354  0.870E-02  0.870E-02
   0.364  0.863E-02  0.863E-02
   0.374  0.855E-02  0.855E-02
   0.384  0.847E-02  0.847E-02
   0.394  0.839E-02  0.839E-02
   0.404  0.831E-02  0.831E-02
   0.414  0.822E-02  0.822E-02
   0.424  0.814E-02  0.814E-02
   0.434  0.806E-02  0.806E-02
   0.444  0.797E-02  0.797E-02
   0.454  0.789E-02  0.789E-02
   0.464  0.780E-02  0.780E-02
   0.474  0.772E-02  0.772E-02
   0.484  0.764E-02  0.764E-02
   0.494  0.756E-02  0.756E-02
   0.504  0.748E-02  0.748E-02
   0.514  0.741E-02  0.741E-02
   0.524  0.733E-02  0.733E-02
   0.534  0.726E-02  0.726E-02
   0.544  0.719E-02  0.719E-02
   0.554  0.713E-02  0.713E-02
   0.564  0.707E-02  0.707E-02
   0.574  0.701E-02  0.701E-02
   0.584  0.696E-02  0.696E-02
   0.594  0.692E-02  0.692E-02
   0.604  0.688E-02  0.688E-02
   0.614  0.684E-02  0.684E-02
   0.624  0.682E-02  0.682E-02
   0.634  0.680E-02  0.680E-02
   0.644  0.678E-02  0.678E-02
   0.654  0.678E-02  0.678E-02
   0.664  0.678E-02  0.678E-02
   0.674  0.679E-02  0.679E-02
   0.684  0.681E-02  0.681E-02
   0.694  0.684E-02  0.684E-02
   0.704  0.689E-02  0.689E-02
   0.714  0.694E-02  0.694E-02
   0.724  0.700E-02  0.700E-02
   0.734  0.707E-02  0.707E-02
   0.744  0.716E-02  0.716E-02
   0.754  0.726E-02  0.726E-02
   0.764  0.738E-02  0.738E-02
   0.774  0.750E-02  0.750E-02
   0.784  0.764E-02  0.764E-02
   0.794  0.780E-02  0.780E-02
   0.804  0.797E-02  0.797E-02
   0.814  0.816E-02  0.816E-02
   0.824  0.837E-02  0.837E-02
   0.834  0.859E-02  0.859E-02
   0.844  0.883E-02  0.883E-02
   0.854  0.909E-02  0.909E-02
   0.864  0.937E-02  0.937E-02
   0.874  0.967E-02  0.967E-02
   0.884  0.998E-02  0.998E-02
   0.894  0.103E-01  0.103E-01
   0.904  0.107E-01  0.107E-01
   0.914  0.111E-01  0.111E-01
   0.924  0.115E-01  0.115E-01
   0.934  0.119E-01  0.119E-01
   0.944  0.123E-01  0.123E-01
   0.954  0.128E-01  0.128E-01
   0.964  0.133E-01  0.133E-01
   0.974  0.138E-01  0.138E-01
   0.984  0.144E-01  0.144E-01
   0.994  0.150E-01  0.150E-01
   1.004  0.156E-01  0.156E-01
   1.014  0.162E-01  0.162E-01
   1.024  0.169E-01  0.169E-01
   1.034  0.175E-01  0.175E-01
   1.044  0.183E-01  0.183E-01
   1.054  0.190E-01  0.190E-01
   1.064  0.198E-01  0.198E-01
   1.074  0.206E-01  0.206E-01
   1.084  0.214E-01  0.214E-01
   1.094  0.222E-01  0.222E-01
   1.104  0.231E-01  0.231E-01
   1.114  0.240E-01  0.240E-01
   1.124  0.250E-01  0.250E-01
   1.134  0.260E-01  0.260E-01
   1.144  0.270E-01  0.270E-01
   1.154  0.280E-01  0.280E-01
   1.164  0.291E-01  0.291E-01
   1.174  0.301E-01  0.301E-01
   1.184  0.313E-01  0.313E-01
   1.194  0.324E-01  0.324E-01
   1.204  0.336E-01  0.336E-01
   1.214  0.348E-01  0.348E-01
   1.224  0.360E-01  0.360E-01
   1.234  0.373E-01  0.373E-01
   1.244  0.386E-01  0.386E-01
   1.254  0.399E-01  0.399E-01
   1.264  0.412E-01  0.412E-01
   1.274  0.426E-01  0.426E-01
   1.284  0.440E-01  0.440E-01
   1.294  0.454E-01  0.454E-01
   1.304  0.469E-01  0.469E-01
   1.314  0.483E-01  0.483E-01
   1.324  0.498E-01  0.498E-01
   1.334  0.513E-01  0.513E-01
   1.344  0.528E-01  0.528E-01
   1.354  0.544E-01  0.544E-01
   1.364  0.560E-01  0.560E-01
   1.374  0.575E-01  0.575E-01
   1.384  0.591E-01  0.591E-01
   1.394  0.608E-01  0.608E-01
   1.404  0.624E-01  0.624E-01
   1.414  0.640E-01  0.640E-01
   1.424  0.657E-01  0.657E-01
   1.434  0.674E-01  0.674E-01
   1.444  0.690E-01  0.690E-01
   1.454  0.707E-01  0.707E-01
   1.464  0.724E-01  0.724E-01
   1.474  0.741E-01  0.741E-01
   1.484  0.758E-01  0.758E-01
   1.494  0.775E-01  0.775E-01
   1.504  0.793E-01  0.793E-01
   1.514  0.810E-01  0.810E-01
   1.524  0.827E-01  0.827E-01
   1.534  0.844E-01  0.844E-01
   1.544  0.861E-01  0.861E-01
   1.554  0.879E-01  0.879E-01
   1.564  0.896E-01  0.896E-01
   1.574  0.913E-01  0.913E-01
   1.584  0.930E-01  0.930E-01
   1.594  0.947E-01  0.947E-01
   1.604  0.964E-01  0.964E-01
   1.614  0.981E-01  0.981E-01
   1.624  0.998E-01  0.998E-01
   1.634  0.101E+00  0.101E+00
   1.644  0.103E+00  0.103E+00
   1.654  0.105E+00  0.105E+00
   1.664  0.106E+00  0.106E+00
   1.674  0.108E+00  0.108E+00
   1.684  0.110E+00  0.110E+00
   1.694  0.111E+00  0.111E+00
   1.704  0.113E+00  0.113E+00
   1.714  0.114E+00  0.114E+00
   1.724  0.116E+00  0.116E+00
   1.734  0.118E+00  0.118E+00
   1.744  0.119E+00  0.119E+00
   1.754  0.121E+00  0.121E+00
   1.764  0.122E+00  0.122E+00
   1.774  0.124E+00  0.124E+00
   1.784  0.125E+00  0.125E+00
   1.794  0.127E+00  0.127E+00
   1.804  0.128E+00  0.128E+00
   1.814  0.130E+00  0.130E+00
   1.824  0.131E+00  0.131E+00
   1.834  0.132E+00  0.132E+00
   1.844  0.134E+00  0.134E+00
   1.854  0.135E+00  0.135E+00
   1.864  0.137E+00  0.137E+00
   1.874  0.138E+00  0.138E+00
   1.884  0.139E+00  0.139E+00
   1.894  0.141E+00  0.141E+00
   1.904  0.142E+00  0.142E+00
   1.914  0.143E+00  0.143E+00
   1.924  0.145E+00  0.145E+00
   1.934  0.146E+00  0.146E+00
   1.944  0.148E+00  0.148E+00
   1.954  0.149E+00  0.149E+00
   1.964  0.150E+00  0.150E+00
   1.974  0.151E+00  0.151E+00
   1.984  0.153E+00  0.153E+00
   1.994  0.154E+00  0.154E+00
   2.004  0.155E+00  0.155E+00
   2.014  0.157E+00  0.157E+00
   2.024  0.158E+00  0.158E+00
   2.034  0.159E+00  0.159E+00
   2.044  0.161E+00  0.161E+00
   2.054  0.162E+00  0.162E+00
   2.064  0.163E+00  0.163E+00
   2.074  0.165E+00  0.165E+00
   2.084  0.166E+00  0.166E+00
   2.094  0.167E+00  0.167E+00
   2.104  0.168E+00  0.168E+00
   2.114  0.170E+00  0.170E+00
   2.124  0.171E+00  0.171E+00
   2.134  0.172E+00  0.172E+00
   2.144  0.174E+00  0.174E+00
   2.154  0.175E+00  0.175E+00
   2.164  0.176E+00  0.176E+00
   2.174  0.178E+00  0.178E+00
   2.184  0.179E+00  0.179E+00
   2.194  0.180E+00  0.180E+00
   2.204  0.182E+00  0.182E+00
   2.214  0.183E+00  0.183E+00
   2.224  0.184E+00  0.184E+00
   2.234  0.186E+00  0.186E+00
   2.244  0.187E+00  0.187E+00
   2.254  0.188E+00  0.188E+00
   2.264  0.189E+00  0.189E+00
   2.274  0.191E+00  0.191E+00
   2.284  0.192E+00  0.192E+00
   2.294  0.193E+00  0.193E+00
   2.304  0.194E+00  0.194E+00
   2.314  0.196E+00  0.196E+00
   2.324  0.197E+00  0.197E+00
   2.334  0.198E+00  0.198E+00
   2.344  0.199E+00  0.199E+00
   2.354  0.200E+00  0.200E+00
   2.364  0.201E+00  0.201E+00
   2.374  0.203E+00  0.203E+00
   2.384  0.204E+00  0.204E+00
   2.394  0.205E+00  0.205E+00
   2.404  0.206E+00  0.206E+00
   2.414  0.207E+00  0.207E+00
   2.424  0.208E+00  0.208E+00
   2.434  0.209E+00  0.209E+00
   2.444  0.209E+00  0.209E+00
   2.454  0.210E+00  0.210E+00
   2.464  0.211E+00  0.211E+00
   2.474  0.212E+00  0.212E+00
   2.484  0.213E+00  0.213E+00
   2.494  0.213E+00  0.213E+00
   2.504  0.214E+00  0.214E+00
   2.514  0.214E+00  0.214E+00
   2.524  0.215E+00  0.215E+00
   2.534  0.215E+00  0.215E+00
   2.544  0.216E+00  0.216E+00
   2.554  0.216E+00  0.216E+00
   2.564  0.216E+00  0.216E+00
   2.574  0.216E+00  0.216E+00
   2.584  0.216E+00  0.216E+00
   2.594  0.217E+00  0.217E+00
   2.604  0.217E+00  0.217E+00
   2.614  0.216E+00  0.216E+00
   2.624  0.216E+00  0.216E+00
   2.634  0.216E+00  0.216E+00
   2.644  0.216E+00  0.216E+00
   2.654  0.215E+00  0.215E+00
   2.664  0.215E+00  0.215E+00
   2.674  0.214E+00  0.214E+00
   2.684  0.214E+00  0.214E+00
   2.694  0.213E+00  0.213E+00
   2.704  0.212E+00  0.212E+00
   2.714  0.212E+00  0.212E+00
   2.724  0.211E+00  0.211E+00
   2.734  0.210E+00  0.210E+00
   2.744  0.209E+00  0.209E+00
   2.754  0.208E+00  0.208E+00
   2.764  0.206E+00  0.206E+00
   2.774  0.205E+00  0.205E+00
   2.784  0.204E+00  0.204E+00
   2.794  0.202E+00  0.202E+00
   2.804  0.201E+00  0.201E+00
   2.814  0.199E+00  0.199E+00
   2.824  0.197E+00  0.197E+00
   2.834  0.196E+00  0.196E+00
   2.844  0.194E+00  0.194E+00
   2.854  0.192E+00  0.192E+00
   2.864  0.190E+00  0.190E+00
   2.874  0.188E+00  0.188E+00
   2.884  0.186E+00  0.186E+00
   2.894  0.184E+00  0.184E+00
   2.904  0.181E+00  0.181E+00
   2.914  0.179E+00  0.179E+00
   2.924  0.177E+00  0.177E+00
   2.934  0.174E+00  0.174E+00
   2.944  0.172E+00  0.172E+00
   2.954  0.170E+00  0.170E+00
   2.964  0.167E+00  0.167E+00
   2.974  0.164E+00  0.164E+00
   2.984  0.162E+00  0.162E+00
   2.994  0.159E+00  0.159E+00
   3.004  0.156E+00  0.156E+00
   3.014  0.154E+00  0.154E+00
   3.024  0.151E+00  0.151E+00
   3.034  0.148E+00  0.148E+00
   3.044  0.145E+00  0.145E+00
   3.054  0.142E+00  0.142E+00
   3.064  0.139E+00  0.139E+00
   3.074  0.136E+00  0.136E+00
   3.084  0.133E+00  0.133E+00
   3.094  0.130E+00  0.130E+00
   3.104  0.127E+00  0.127E+00
   3.114  0.124E+00  0.124E+00
   3.124  0.121E+00  0.121E+00
   3.134  0.118E+00  0.118E+00
   3.144  0.115E+00  0.115E+00
   3.154  0.112E+00  0.112E+00
   3.164  0.109E+00  0.109E+00
   3.174  0.106E+00  0.106E+00
   3.184  0.103E+00  0.103E+00
   3.194  0.100E+00  0.100E+00
   3.204  0.975E-01  0.975E-01
   3.214  0.945E-01  0.945E-01
   3.224  0.916E-01  0.916E-01
   3.234  0.887E-01  0.887E-01
   3.244  0.858E-01  0.858E-01
   3.254  0.829E-01  0.829E-01
   3.264  0.801E-01  0.801E-01
   3.274  0.773E-01  0.773E-01
   3.284  0.745E-01  0.745E-01
   3.294  0.718E-01  0.718E-01
   3.304  0.690E-01  0.690E-01
   3.314  0.664E-01  0.664E-01
   3.324  0.637E-01  0.637E-01
   3.334  0.611E-01  0.611E-01
   3.344  0.586E-01  0.586E-01
   3.354  0.561E-01  0.561E-01
   3.364  0.536E-01  0.536E-01
   3.374  0.512E-01  0.512E-01
   3.384  0.488E-01  0.488E-01
   3.394  0.465E-01  0.465E-01
   3.404  0.442E-01  0.442E-01
   3.414  0.419E-01  0.419E-01
   3.424  0.398E-01  0.398E-01
   3.434  0.376E-01  0.376E-01
   3.444  0.355E-01  0.355E-01
   3.454  0.335E-01  0.335E-01
   3.464  0.315E-01  0.315E-01
   3.474  0.296E-01  0.296E-01
   3.484  0.277E-01  0.277E-01
   3.494  0.259E-01  0.259E-01
   3.504  0.242E-01  0.242E-01
   3.514  0.225E-01  0.225E-01
   3.524  0.208E-01  0.208E-01
   3.534  0.192E-01  0.192E-01
   3.544  0.177E-01  0.177E-01
   3.554  0.162E-01  0.162E-01
   3.564  0.147E-01  0.147E-01
   3.574  0.133E-01  0.133E-01
   3.584  0.120E-01  0.120E-01
   3.594  0.107E-01  0.107E-01
   3.604  0.949E-02  0.949E-02
   3.614  0.831E-02  0.831E-02
   3.624  0.718E-02  0.718E-02
   3.634  0.610E-02  0.610E-02
   3.644  0.506E-02  0.506E-02
   3.654  0.408E-02  0.408E-02
   3.664  0.314E-02  0.314E-02
   3.674  0.225E-02  0.225E-02
   3.684  0.141E-02  0.141E-02
   3.694  0.607E-03  0.607E-03
   3.704 -0.150E-03 -0.150E-03
   3.714 -0.864E-03 -0.864E-03
   3.724 -0.154E-02 -0.154E-02
   3.734 -0.217E-02 -0.217E-02
   3.744 -0.276E-02 -0.276E-02
   3.754 -0.332E-02 -0.332E-02
   3.764 -0.383E-02 -0.383E-02
   3.774 -0.431E-02 -0.431E-02
   3.784 -0.476E-02 -0.476E-02
   3.794 -0.517E-02 -0.517E-02
   3.804 -0.555E-02 -0.555E-02
   3.814 -0.590E-02 -0.590E-02
   3.824 -0.621E-02 -0.621E-02
   3.834 -0.650E-02 -0.650E-02
   3.844 -0.676E-02 -0.676E-02
   3.854 -0.699E-02 -0.699E-02
   3.864 -0.719E-02 -0.719E-02
   3.874 -0.737E-02 -0.737E-02
   3.884 -0.753E-02 -0.753E-02
   3.894 -0.766E-02 -0.766E-02
   3.904 -0.777E-02 -0.777E-02
   3.914 -0.786E-02 -0.786E-02
   3.924 -0.794E-02 -0.794E-02
   3.934 -0.799E-02 -0.799E-02
   3.944 -0.802E-02 -0.802E-02
   3.954 -0.804E-02 -0.804E-02
   3.964 -0.804E-02 -0.804E-02
   3.974 -0.803E-02 -0.803E-02
   3.984 -0.800E-02 -0.800E-02
   3.994 -0.796E-02 -0.796E-02
   4.004 -0.791E-02 -0.791E-02
   4.014 -0.785E-02 -0.785E-02
   4.024 -0.777E-02 -0.777E-02
   4.034 -0.769E-02 -0.769E-02
   4.044 -0.760E-02 -0.760E-02
   4.054 -0.749E-02 -0.749E-02
   4.064 -0.739E-02 -0.739E-02
   4.074 -0.727E-02 -0.727E-02
   4.084 -0.715E-02 -0.715E-02
   4.094 -0.702E-02 -0.702E-02
   4.104 -0.689E-02 -0.689E-02
   4.114 -0.675E-02 -0.675E-02
   4.124 -0.661E-02 -0.661E-02
   4.134 -0.647E-02 -0.647E-02
   4.144 -0.632E-02 -0.632E-02
   4.154 -0.617E-02 -0.617E-02
   4.164 -0.602E-02 -0.602E-02
   4.174 -0.587E-02 -0.587E-02
   4.184 -0.572E-02 -0.572E-02
   4.194 -0.557E-02 -0.557E-02
   4.204 -0.541E-02 -0.541E-02
   4.214 -0.526E-02 -0.526E-02
   4.224 -0.510E-02 -0.510E-02
   4.234 -0.495E-02 -0.495E-02
   4.244 -0.480E-02 -0.480E-02
   4.254 -0.465E-02 -0.465E-02
   4.264 -0.450E-02 -0.450E-02
   4.274 -0.435E-02 -0.435E-02
   4.284 -0.421E-02 -0.421E-02
   4.294 -0.406E-02 -0.406E-02
   4.304 -0.392E-02 -0.392E-02
   4.314 -0.378E-02 -0.378E-02
   4.324 -0.365E-02 -0.365E-02
   4.334 -0.351E-02 -0.351E-02
   4.344 -0.338E-02 -0.338E-02
   4.354 -0.325E-02 -0.325E-02
   4.364 -0.313E-02 -0.313E-02
   4.374 -0.301E-02 -0.301E-02
   4.384 -0.289E-02 -0.289E-02
   4.394 -0.277E-02 -0.277E-02
   4.404 -0.266E-02 -0.266E-02
   4.414 -0.255E-02 -0.255E-02
   4.424 -0.244E-02 -0.244E-02
   4.434 -0.234E-02 -0.234E-02
   4.444 -0.223E-02 -0.223E-02
   4.454 -0.214E-02 -0.214E-02
   4.464 -0.204E-02 -0.204E-02
   4.474 -0.195E-02 -0.195E-02
   4.484 -0.186E-02 -0.186E-02
   4.494 -0.178E-02 -0.178E-02
   4.504 -0.169E-02 -0.169E-02
   4.514 -0.161E-02 -0.161E-02
   4.524 -0.154E-02 -0.154E-02
   4.534 -0.146E-02 -0.146E-02
   4.544 -0.139E-02 -0.139E-02
   4.554 -0.132E-02 -0.132E-02
   4.564 -0.126E-02 -0.126E-02
   4.574 -0.120E-02 -0.120E-02
   4.584 -0.113E-02 -0.113E-02
   4.594 -0.108E-02 -0.108E-02
   4.604 -0.102E-02 -0.102E-02
   4.614 -0.968E-03 -0.968E-03
   4.624 -0.917E-03 -0.917E-03
   4.634 -0.868E-03 -0.868E-03
   4.644 -0.821E-03 -0.821E-03
   4.654 -0.777E-03 -0.777E-03
   4.664 -0.734E-03 -0.734E-03
   4.674 -0.694E-03 -0.694E-03
   4.684 -0.655E-03 -0.655E-03
   4.694 -0.619E-03 -0.619E-03
   4.704 -0.584E-03 -0.584E-03
   4.714 -0.550E-03 -0.550E-03
   4.724 -0.519E-03 -0.519E-03
   4.734 -0.489E-03 -0.489E-03
   4.744 -0.460E-03 -0.460E-03
   4.754 -0.433E-03 -0.433E-03
   4.764 -0.407E-03 -0.407E-03
   4.774 -0.383E-03 -0.383E-03
   4.784 -0.360E-03 -0.360E-03
   4.794 -0.338E-03 -0.338E-03
   4.804 -0.317E-03 -0.317E-03
   4.814 -0.298E-03 -0.298E-03
   4.824 -0.279E-03 -0.279E-03
   4.834 -0.262E-03 -0.262E-03
   4.844 -0.245E-03 -0.245E-03
   4.854 -0.230E-03 -0.230E-03
   4.864 -0.215E-03 -0.215E-03
   4.874 -0.201E-03 -0.201E-03
   4.884 -0.188E-03 -0.188E-03
   4.894 -0.176E-03 -0.176E-03
   4.904 -0.164E-03 -0.164E-03
   4.914 -0.153E-03 -0.153E-03
   4.924 -0.143E-03 -0.143E-03
   4.934 -0.133E-03 -0.133E-03
   4.944 -0.124E-03 -0.124E-03
   4.954 -0.116E-03 -0.116E-03
   4.964 -0.108E-03 -0.108E-03
   4.974 -0.101E-03 -0.101E-03
   4.984 -0.936E-04 -0.936E-04
   4.994 -0.871E-04 -0.871E-04
   5.004 -0.810E-04 -0.810E-04
   5.014 -0.752E-04 -0.752E-04
   5.024 -0.699E-04 -0.699E-04
   5.034 -0.649E-04 -0.649E-04
   5.044 -0.602E-04 -0.602E-04
   5.054 -0.559E-04 -0.559E-04
   5.064 -0.518E-04 -0.518E-04
   5.074 -0.480E-04 -0.480E-04
   5.084 -0.445E-04 -0.445E-04
   5.094 -0.412E-04 -0.412E-04
   5.104 -0.381E-04 -0.381E-04
   5.114 -0.353E-04 -0.353E-04
   5.124 -0.326E-04 -0.326E-04
   5.134 -0.301E-04 -0.301E-04
   5.144 -0.278E-04 -0.278E-04
   5.154 -0.257E-04 -0.257E-04
   5.164 -0.237E-04 -0.237E-04
   5.174 -0.219E-04 -0.219E-04
   5.184 -0.202E-04 -0.202E-04
   5.194 -0.186E-04 -0.186E-04
   5.204 -0.171E-04 -0.171E-04
   5.214 -0.158E-04 -0.158E-04
   5.224 -0.145E-04 -0.145E-04
   5.234 -0.134E-04 -0.134E-04
   5.244 -0.123E-04 -0.123E-04
   5.254 -0.113E-04 -0.113E-04
   5.264 -0.104E-04 -0.104E-04
   5.274 -0.953E-05 -0.953E-05
   5.284 -0.875E-05 -0.875E-05
   5.294 -0.803E-05 -0.803E-05
