# E (eV)   ldos(E)   pdos(E)   
 -27.116 -0.557E-04 -0.557E-04
 -27.106 -0.601E-04 -0.601E-04
 -27.096 -0.648E-04 -0.648E-04
 -27.086 -0.699E-04 -0.699E-04
 -27.076 -0.754E-04 -0.754E-04
 -27.066 -0.812E-04 -0.812E-04
 -27.056 -0.874E-04 -0.874E-04
 -27.046 -0.941E-04 -0.941E-04
 -27.036 -0.101E-03 -0.101E-03
 -27.026 -0.109E-03 -0.109E-03
 -27.016 -0.117E-03 -0.117E-03
 -27.006 -0.125E-03 -0.125E-03
 -26.996 -0.135E-03 -0.135E-03
 -26.986 -0.144E-03 -0.144E-03
 -26.976 -0.155E-03 -0.155E-03
 -26.966 -0.166E-03 -0.166E-03
 -26.956 -0.178E-03 -0.178E-03
 -26.946 -0.190E-03 -0.190E-03
 -26.936 -0.204E-03 -0.204E-03
 -26.926 -0.218E-03 -0.218E-03
 -26.916 -0.233E-03 -0.233E-03
 -26.906 -0.248E-03 -0.248E-03
 -26.896 -0.265E-03 -0.265E-03
 -26.886 -0.283E-03 -0.283E-03
 -26.876 -0.302E-03 -0.302E-03
 -26.866 -0.322E-03 -0.322E-03
 -26.856 -0.343E-03 -0.343E-03
 -26.846 -0.365E-03 -0.365E-03
 -26.836 -0.388E-03 -0.388E-03
 -26.826 -0.413E-03 -0.413E-03
 -26.816 -0.439E-03 -0.439E-03
 -26.806 -0.466E-03 -0.466E-03
 -26.796 -0.495E-03 -0.495E-03
 -26.786 -0.525E-03 -0.525E-03
 -26.776 -0.557E-03 -0.557E-03
 -26.766 -0.590E-03 -0.590E-03
 -26.756 -0.625E-03 -0.625E-03
 -26.746 -0.661E-03 -0.661E-03
 -26.736 -0.700E-03 -0.700E-03
 -26.726 -0.740E-03 -0.740E-03
 -26.716 -0.782E-03 -0.782E-03
 -26.706 -0.825E-03 -0.825E-03
 -26.696 -0.871E-03 -0.871E-03
 -26.686 -0.919E-03 -0.919E-03
 -26.676 -0.968E-03 -0.968E-03
 -26.666 -0.102E-02 -0.102E-02
 -26.656 -0.107E-02 -0.107E-02
 -26.646 -0.113E-02 -0.113E-02
 -26.636 -0.119E-02 -0.119E-02
 -26.626 -0.125E-02 -0.125E-02
 -26.616 -0.131E-02 -0.131E-02
 -26.606 -0.138E-02 -0.138E-02
 -26.596 -0.144E-02 -0.144E-02
 -26.586 -0.151E-02 -0.151E-02
 -26.576 -0.158E-02 -0.158E-02
 -26.566 -0.166E-02 -0.166E-02
 -26.556 -0.173E-02 -0.173E-02
 -26.546 -0.181E-02 -0.181E-02
 -26.536 -0.189E-02 -0.189E-02
 -26.526 -0.198E-02 -0.198E-02
 -26.516 -0.206E-02 -0.206E-02
 -26.506 -0.215E-02 -0.215E-02
 -26.496 -0.224E-02 -0.224E-02
 -26.486 -0.233E-02 -0.233E-02
 -26.476 -0.242E-02 -0.242E-02
 -26.466 -0.252E-02 -0.252E-02
 -26.456 -0.261E-02 -0.261E-02
 -26.446 -0.271E-02 -0.271E-02
 -26.436 -0.281E-02 -0.281E-02
 -26.426 -0.291E-02 -0.291E-02
 -26.416 -0.302E-02 -0.302E-02
 -26.406 -0.312E-02 -0.312E-02
 -26.396 -0.322E-02 -0.322E-02
 -26.386 -0.333E-02 -0.333E-02
 -26.376 -0.343E-02 -0.343E-02
 -26.366 -0.354E-02 -0.354E-02
 -26.356 -0.364E-02 -0.364E-02
 -26.346 -0.375E-02 -0.375E-02
 -26.336 -0.385E-02 -0.385E-02
 -26.326 -0.395E-02 -0.395E-02
 -26.316 -0.406E-02 -0.406E-02
 -26.306 -0.416E-02 -0.416E-02
 -26.296 -0.425E-02 -0.425E-02
 -26.286 -0.435E-02 -0.435E-02
 -26.276 -0.444E-02 -0.444E-02
 -26.266 -0.453E-02 -0.453E-02
 -26.256 -0.462E-02 -0.462E-02
 -26.246 -0.470E-02 -0.470E-02
 -26.236 -0.477E-02 -0.477E-02
 -26.226 -0.484E-02 -0.484E-02
 -26.216 -0.491E-02 -0.491E-02
 -26.206 -0.497E-02 -0.497E-02
 -26.196 -0.502E-02 -0.502E-02
 -26.186 -0.506E-02 -0.506E-02
 -26.176 -0.509E-02 -0.509E-02
 -26.166 -0.512E-02 -0.512E-02
 -26.156 -0.514E-02 -0.514E-02
 -26.146 -0.514E-02 -0.514E-02
 -26.136 -0.514E-02 -0.514E-02
 -26.126 -0.512E-02 -0.512E-02
 -26.116 -0.509E-02 -0.509E-02
 -26.106 -0.505E-02 -0.505E-02
 -26.096 -0.499E-02 -0.499E-02
 -26.086 -0.492E-02 -0.492E-02
 -26.076 -0.483E-02 -0.483E-02
 -26.066 -0.473E-02 -0.473E-02
 -26.056 -0.461E-02 -0.461E-02
 -26.046 -0.447E-02 -0.447E-02
 -26.036 -0.431E-02 -0.431E-02
 -26.026 -0.413E-02 -0.413E-02
 -26.016 -0.393E-02 -0.393E-02
 -26.006 -0.371E-02 -0.371E-02
 -25.996 -0.347E-02 -0.347E-02
 -25.986 -0.321E-02 -0.321E-02
 -25.976 -0.292E-02 -0.292E-02
 -25.966 -0.260E-02 -0.260E-02
 -25.956 -0.226E-02 -0.226E-02
 -25.946 -0.189E-02 -0.189E-02
 -25.936 -0.150E-02 -0.150E-02
 -25.926 -0.108E-02 -0.108E-02
 -25.916 -0.630E-03 -0.630E-03
 -25.906 -0.150E-03 -0.150E-03
 -25.896  0.359E-03  0.359E-03
 -25.886  0.899E-03  0.899E-03
 -25.876  0.147E-02  0.147E-02
 -25.866  0.207E-02  0.207E-02
 -25.856  0.271E-02  0.271E-02
 -25.846  0.338E-02  0.338E-02
 -25.836  0.408E-02  0.408E-02
 -25.826  0.482E-02  0.482E-02
 -25.816  0.559E-02  0.559E-02
 -25.806  0.639E-02  0.639E-02
 -25.796  0.723E-02  0.723E-02
 -25.786  0.810E-02  0.810E-02
 -25.776  0.901E-02  0.901E-02
 -25.766  0.995E-02  0.995E-02
 -25.756  0.109E-01  0.109E-01
 -25.746  0.119E-01  0.119E-01
 -25.736  0.130E-01  0.130E-01
 -25.726  0.141E-01  0.141E-01
 -25.716  0.152E-01  0.152E-01
 -25.706  0.163E-01  0.163E-01
 -25.696  0.175E-01  0.175E-01
 -25.686  0.187E-01  0.187E-01
 -25.676  0.200E-01  0.200E-01
 -25.666  0.213E-01  0.213E-01
 -25.656  0.226E-01  0.226E-01
 -25.646  0.239E-01  0.239E-01
 -25.636  0.253E-01  0.253E-01
 -25.626  0.267E-01  0.267E-01
 -25.616  0.281E-01  0.281E-01
 -25.606  0.296E-01  0.296E-01
 -25.596  0.311E-01  0.311E-01
 -25.586  0.326E-01  0.326E-01
 -25.576  0.341E-01  0.341E-01
 -25.566  0.356E-01  0.356E-01
 -25.556  0.372E-01  0.372E-01
 -25.546  0.388E-01  0.388E-01
 -25.536  0.404E-01  0.404E-01
 -25.526  0.420E-01  0.420E-01
 -25.516  0.436E-01  0.436E-01
 -25.506  0.452E-01  0.452E-01
 -25.496  0.469E-01  0.469E-01
 -25.486  0.485E-01  0.485E-01
 -25.476  0.502E-01  0.502E-01
 -25.466  0.518E-01  0.518E-01
 -25.456  0.535E-01  0.535E-01
 -25.446  0.551E-01  0.551E-01
 -25.436  0.568E-01  0.568E-01
 -25.426  0.584E-01  0.584E-01
 -25.416  0.600E-01  0.600E-01
 -25.406  0.616E-01  0.616E-01
 -25.396  0.632E-01  0.632E-01
 -25.386  0.648E-01  0.648E-01
 -25.376  0.664E-01  0.664E-01
 -25.366  0.679E-01  0.679E-01
 -25.356  0.695E-01  0.695E-01
 -25.346  0.709E-01  0.709E-01
 -25.336  0.724E-01  0.724E-01
 -25.326  0.739E-01  0.739E-01
 -25.316  0.753E-01  0.753E-01
 -25.306  0.766E-01  0.766E-01
 -25.296  0.780E-01  0.780E-01
 -25.286  0.792E-01  0.792E-01
 -25.276  0.805E-01  0.805E-01
 -25.266  0.817E-01  0.817E-01
 -25.256  0.829E-01  0.829E-01
 -25.246  0.840E-01  0.840E-01
 -25.236  0.850E-01  0.850E-01
 -25.226  0.860E-01  0.860E-01
 -25.216  0.870E-01  0.870E-01
 -25.206  0.879E-01  0.879E-01
 -25.196  0.887E-01  0.887E-01
 -25.186  0.895E-01  0.895E-01
 -25.176  0.902E-01  0.902E-01
 -25.166  0.909E-01  0.909E-01
 -25.156  0.915E-01  0.915E-01
 -25.146  0.920E-01  0.920E-01
 -25.136  0.925E-01  0.925E-01
 -25.126  0.929E-01  0.929E-01
 -25.116  0.933E-01  0.933E-01
 -25.106  0.935E-01  0.935E-01
 -25.096  0.938E-01  0.938E-01
 -25.086  0.939E-01  0.939E-01
 -25.076  0.940E-01  0.940E-01
 -25.066  0.940E-01  0.940E-01
 -25.056  0.939E-01  0.939E-01
 -25.046  0.938E-01  0.938E-01
 -25.036  0.936E-01  0.936E-01
 -25.026  0.933E-01  0.933E-01
 -25.016  0.930E-01  0.930E-01
 -25.006  0.926E-01  0.926E-01
 -24.996  0.922E-01  0.922E-01
 -24.986  0.916E-01  0.916E-01
 -24.976  0.910E-01  0.910E-01
 -24.966  0.904E-01  0.904E-01
 -24.956  0.897E-01  0.897E-01
 -24.946  0.889E-01  0.889E-01
 -24.936  0.881E-01  0.881E-01
 -24.926  0.872E-01  0.872E-01
 -24.916  0.863E-01  0.863E-01
 -24.906  0.853E-01  0.853E-01
 -24.896  0.842E-01  0.842E-01
 -24.886  0.831E-01  0.831E-01
 -24.876  0.820E-01  0.820E-01
 -24.866  0.808E-01  0.808E-01
 -24.856  0.795E-01  0.795E-01
 -24.846  0.783E-01  0.783E-01
 -24.836  0.769E-01  0.769E-01
 -24.826  0.756E-01  0.756E-01
 -24.816  0.742E-01  0.742E-01
 -24.806  0.728E-01  0.728E-01
 -24.796  0.713E-01  0.713E-01
 -24.786  0.698E-01  0.698E-01
 -24.776  0.683E-01  0.683E-01
 -24.766  0.668E-01  0.668E-01
 -24.756  0.652E-01  0.652E-01
 -24.746  0.636E-01  0.636E-01
 -24.736  0.620E-01  0.620E-01
 -24.726  0.604E-01  0.604E-01
 -24.716  0.588E-01  0.588E-01
 -24.706  0.571E-01  0.571E-01
 -24.696  0.555E-01  0.555E-01
 -24.686  0.539E-01  0.539E-01
 -24.676  0.522E-01  0.522E-01
 -24.666  0.506E-01  0.506E-01
 -24.656  0.489E-01  0.489E-01
 -24.646  0.473E-01  0.473E-01
 -24.636  0.456E-01  0.456E-01
 -24.626  0.440E-01  0.440E-01
 -24.616  0.424E-01  0.424E-01
 -24.606  0.407E-01  0.407E-01
 -24.596  0.391E-01  0.391E-01
 -24.586  0.376E-01  0.376E-01
 -24.576  0.360E-01  0.360E-01
 -24.566  0.345E-01  0.345E-01
 -24.556  0.329E-01  0.329E-01
 -24.546  0.314E-01  0.314E-01
 -24.536  0.299E-01  0.299E-01
 -24.526  0.285E-01  0.285E-01
 -24.516  0.270E-01  0.270E-01
 -24.506  0.256E-01  0.256E-01
 -24.496  0.243E-01  0.243E-01
 -24.486  0.229E-01  0.229E-01
 -24.476  0.216E-01  0.216E-01
 -24.466  0.203E-01  0.203E-01
 -24.456  0.190E-01  0.190E-01
 -24.446  0.178E-01  0.178E-01
 -24.436  0.166E-01  0.166E-01
 -24.426  0.155E-01  0.155E-01
 -24.416  0.143E-01  0.143E-01
 -24.406  0.132E-01  0.132E-01
 -24.396  0.122E-01  0.122E-01
 -24.386  0.112E-01  0.112E-01
 -24.376  0.102E-01  0.102E-01
 -24.366  0.923E-02  0.923E-02
 -24.356  0.831E-02  0.831E-02
 -24.346  0.743E-02  0.743E-02
 -24.336  0.658E-02  0.658E-02
 -24.326  0.577E-02  0.577E-02
 -24.316  0.499E-02  0.499E-02
 -24.306  0.425E-02  0.425E-02
 -24.296  0.354E-02  0.354E-02
 -24.286  0.287E-02  0.287E-02
 -24.276  0.222E-02  0.222E-02
 -24.266  0.161E-02  0.161E-02
 -24.256  0.103E-02  0.103E-02
 -24.246  0.485E-03  0.485E-03
 -24.236 -0.322E-04 -0.322E-04
 -24.226 -0.519E-03 -0.519E-03
 -24.216 -0.976E-03 -0.976E-03
 -24.206 -0.140E-02 -0.140E-02
 -24.196 -0.180E-02 -0.180E-02
 -24.186 -0.218E-02 -0.218E-02
 -24.176 -0.252E-02 -0.252E-02
 -24.166 -0.284E-02 -0.284E-02
 -24.156 -0.314E-02 -0.314E-02
 -24.146 -0.341E-02 -0.341E-02
 -24.136 -0.366E-02 -0.366E-02
 -24.126 -0.388E-02 -0.388E-02
 -24.116 -0.409E-02 -0.409E-02
 -24.106 -0.427E-02 -0.427E-02
 -24.096 -0.443E-02 -0.443E-02
 -24.086 -0.458E-02 -0.458E-02
 -24.076 -0.470E-02 -0.470E-02
 -24.066 -0.481E-02 -0.481E-02
 -24.056 -0.490E-02 -0.490E-02
 -24.046 -0.498E-02 -0.498E-02
 -24.036 -0.504E-02 -0.504E-02
 -24.026 -0.508E-02 -0.508E-02
 -24.016 -0.512E-02 -0.512E-02
 -24.006 -0.514E-02 -0.514E-02
 -23.996 -0.514E-02 -0.514E-02
 -23.986 -0.514E-02 -0.514E-02
 -23.976 -0.513E-02 -0.513E-02
 -23.966 -0.510E-02 -0.510E-02
 -23.956 -0.507E-02 -0.507E-02
 -23.946 -0.503E-02 -0.503E-02
 -23.936 -0.498E-02 -0.498E-02
 -23.926 -0.492E-02 -0.492E-02
 -23.916 -0.486E-02 -0.486E-02
 -23.906 -0.479E-02 -0.479E-02
 -23.896 -0.471E-02 -0.471E-02
 -23.886 -0.463E-02 -0.463E-02
 -23.876 -0.455E-02 -0.455E-02
 -23.866 -0.446E-02 -0.446E-02
 -23.856 -0.437E-02 -0.437E-02
 -23.846 -0.428E-02 -0.428E-02
 -23.836 -0.418E-02 -0.418E-02
 -23.826 -0.408E-02 -0.408E-02
 -23.816 -0.398E-02 -0.398E-02
 -23.806 -0.388E-02 -0.388E-02
 -23.796 -0.377E-02 -0.377E-02
 -23.786 -0.367E-02 -0.367E-02
 -23.776 -0.356E-02 -0.356E-02
 -23.766 -0.346E-02 -0.346E-02
 -23.756 -0.335E-02 -0.335E-02
 -23.746 -0.325E-02 -0.325E-02
 -23.736 -0.314E-02 -0.314E-02
 -23.726 -0.304E-02 -0.304E-02
 -23.716 -0.294E-02 -0.294E-02
 -23.706 -0.284E-02 -0.284E-02
 -23.696 -0.274E-02 -0.274E-02
 -23.686 -0.264E-02 -0.264E-02
 -23.676 -0.254E-02 -0.254E-02
 -23.666 -0.244E-02 -0.244E-02
 -23.656 -0.235E-02 -0.235E-02
 -23.646 -0.226E-02 -0.226E-02
 -23.636 -0.217E-02 -0.217E-02
 -23.626 -0.208E-02 -0.208E-02
 -23.616 -0.200E-02 -0.200E-02
 -23.606 -0.191E-02 -0.191E-02
 -23.596 -0.183E-02 -0.183E-02
 -23.586 -0.175E-02 -0.175E-02
 -23.576 -0.168E-02 -0.168E-02
 -23.566 -0.160E-02 -0.160E-02
 -23.556 -0.153E-02 -0.153E-02
 -23.546 -0.146E-02 -0.146E-02
 -23.536 -0.139E-02 -0.139E-02
 -23.526 -0.133E-02 -0.133E-02
 -23.516 -0.126E-02 -0.126E-02
 -23.506 -0.120E-02 -0.120E-02
 -23.496 -0.114E-02 -0.114E-02
 -23.486 -0.109E-02 -0.109E-02
 -23.476 -0.103E-02 -0.103E-02
 -23.466 -0.981E-03 -0.981E-03
 -23.456 -0.930E-03 -0.930E-03
 -23.446 -0.882E-03 -0.882E-03
 -23.436 -0.836E-03 -0.836E-03
 -23.426 -0.792E-03 -0.792E-03
 -23.416 -0.749E-03 -0.749E-03
 -23.406 -0.709E-03 -0.709E-03
 -23.396 -0.670E-03 -0.670E-03
 -23.386 -0.633E-03 -0.633E-03
 -23.376 -0.598E-03 -0.598E-03
 -23.366 -0.564E-03 -0.564E-03
 -23.356 -0.532E-03 -0.532E-03
 -23.346 -0.502E-03 -0.502E-03
 -23.336 -0.473E-03 -0.473E-03
 -23.326 -0.445E-03 -0.445E-03
 -23.316 -0.419E-03 -0.419E-03
 -23.306 -0.394E-03 -0.394E-03
 -23.296 -0.370E-03 -0.370E-03
 -23.286 -0.348E-03 -0.348E-03
 -23.276 -0.327E-03 -0.327E-03
 -23.266 -0.306E-03 -0.306E-03
 -23.256 -0.287E-03 -0.287E-03
 -23.246 -0.269E-03 -0.269E-03
 -23.236 -0.252E-03 -0.252E-03
 -23.226 -0.236E-03 -0.236E-03
 -23.216 -0.221E-03 -0.221E-03
 -23.206 -0.207E-03 -0.207E-03
 -23.196 -0.193E-03 -0.193E-03
 -23.186 -0.181E-03 -0.181E-03
 -23.176 -0.169E-03 -0.169E-03
 -23.166 -0.157E-03 -0.157E-03
 -23.156 -0.147E-03 -0.147E-03
 -23.146 -0.137E-03 -0.137E-03
 -23.136 -0.128E-03 -0.128E-03
 -23.126 -0.119E-03 -0.119E-03
 -23.116 -0.111E-03 -0.111E-03
 -23.106 -0.103E-03 -0.103E-03
 -23.096 -0.957E-04 -0.957E-04
 -23.086 -0.890E-04 -0.890E-04
 -23.076 -0.827E-04 -0.827E-04
 -23.066 -0.767E-04 -0.767E-04
 -23.056 -0.712E-04 -0.712E-04
 -23.046 -0.661E-04 -0.661E-04
 -23.036 -0.612E-04 -0.612E-04
 -23.026 -0.568E-04 -0.568E-04
 -23.016 -0.526E-04 -0.526E-04
 -23.006 -0.487E-04 -0.487E-04
 -22.996 -0.450E-04 -0.450E-04
 -22.986 -0.417E-04 -0.417E-04
 -22.976 -0.385E-04 -0.385E-04
 -22.966 -0.356E-04 -0.356E-04
 -22.956 -0.329E-04 -0.329E-04
 -22.946 -0.304E-04 -0.304E-04
 -22.936 -0.280E-04 -0.280E-04
 -22.926 -0.259E-04 -0.259E-04
 -22.916 -0.239E-04 -0.239E-04
 -22.906 -0.220E-04 -0.220E-04
 -22.896 -0.203E-04 -0.203E-04
 -22.886 -0.187E-04 -0.187E-04
 -22.876 -0.173E-04 -0.173E-04
 -22.866 -0.159E-04 -0.159E-04
 -22.856 -0.147E-04 -0.147E-04
 -22.846 -0.135E-04 -0.135E-04
 -22.836 -0.125E-04 -0.125E-04
 -22.826 -0.115E-04 -0.115E-04
 -22.816 -0.107E-04 -0.107E-04
 -22.806 -0.988E-05 -0.988E-05
 -22.796 -0.915E-05 -0.915E-05
 -22.786 -0.850E-05 -0.850E-05
 -22.776 -0.791E-05 -0.791E-05
 -22.766 -0.738E-05 -0.738E-05
 -22.756 -0.690E-05 -0.690E-05
 -22.746 -0.648E-05 -0.648E-05
 -22.736 -0.612E-05 -0.612E-05
 -22.726 -0.580E-05 -0.580E-05
 -22.716 -0.552E-05 -0.552E-05
 -22.706 -0.530E-05 -0.530E-05
 -22.696 -0.511E-05 -0.511E-05
 -22.686 -0.497E-05 -0.497E-05
 -22.676 -0.487E-05 -0.487E-05
 -22.666 -0.481E-05 -0.481E-05
 -22.656 -0.479E-05 -0.479E-05
 -22.646 -0.481E-05 -0.481E-05
 -22.636 -0.487E-05 -0.487E-05
 -22.626 -0.497E-05 -0.497E-05
 -22.616 -0.512E-05 -0.512E-05
 -22.606 -0.530E-05 -0.530E-05
 -22.596 -0.552E-05 -0.552E-05
 -22.586 -0.579E-05 -0.579E-05
 -22.576 -0.611E-05 -0.611E-05
 -22.566 -0.647E-05 -0.647E-05
 -22.556 -0.688E-05 -0.688E-05
 -22.546 -0.735E-05 -0.735E-05
 -22.536 -0.787E-05 -0.787E-05
 -22.526 -0.844E-05 -0.844E-05
 -22.516 -0.908E-05 -0.908E-05
 -22.506 -0.978E-05 -0.978E-05
 -22.496 -0.106E-04 -0.106E-04
 -22.486 -0.114E-04 -0.114E-04
 -22.476 -0.123E-04 -0.123E-04
 -22.466 -0.133E-04 -0.133E-04
 -22.456 -0.144E-04 -0.144E-04
 -22.446 -0.156E-04 -0.156E-04
 -22.436 -0.169E-04 -0.169E-04
 -22.426 -0.183E-04 -0.183E-04
 -22.416 -0.198E-04 -0.198E-04
 -22.406 -0.214E-04 -0.214E-04
 -22.396 -0.231E-04 -0.231E-04
 -22.386 -0.250E-04 -0.250E-04
 -22.376 -0.271E-04 -0.271E-04
 -22.366 -0.293E-04 -0.293E-04
 -22.356 -0.316E-04 -0.316E-04
 -22.346 -0.341E-04 -0.341E-04
 -22.336 -0.369E-04 -0.369E-04
 -22.326 -0.398E-04 -0.398E-04
 -22.316 -0.429E-04 -0.429E-04
 -22.306 -0.463E-04 -0.463E-04
 -22.296 -0.499E-04 -0.499E-04
 -22.286 -0.537E-04 -0.537E-04
 -22.276 -0.579E-04 -0.579E-04
 -22.266 -0.623E-04 -0.623E-04
 -22.256 -0.670E-04 -0.670E-04
 -22.246 -0.720E-04 -0.720E-04
 -22.236 -0.774E-04 -0.774E-04
 -22.226 -0.831E-04 -0.831E-04
 -22.216 -0.892E-04 -0.892E-04
 -22.206 -0.957E-04 -0.957E-04
 -22.196 -0.103E-03 -0.103E-03
 -22.186 -0.110E-03 -0.110E-03
 -22.176 -0.118E-03 -0.118E-03
 -22.166 -0.126E-03 -0.126E-03
 -22.156 -0.135E-03 -0.135E-03
 -22.146 -0.144E-03 -0.144E-03
 -22.136 -0.154E-03 -0.154E-03
 -22.126 -0.165E-03 -0.165E-03
 -22.116 -0.176E-03 -0.176E-03
 -22.106 -0.188E-03 -0.188E-03
 -22.096 -0.201E-03 -0.201E-03
 -22.086 -0.214E-03 -0.214E-03
 -22.076 -0.228E-03 -0.228E-03
 -22.066 -0.243E-03 -0.243E-03
 -22.056 -0.258E-03 -0.258E-03
 -22.046 -0.275E-03 -0.275E-03
 -22.036 -0.292E-03 -0.292E-03
 -22.026 -0.310E-03 -0.310E-03
 -22.016 -0.329E-03 -0.329E-03
 -22.006 -0.350E-03 -0.350E-03
 -21.996 -0.371E-03 -0.371E-03
 -21.986 -0.393E-03 -0.393E-03
 -21.976 -0.416E-03 -0.416E-03
 -21.966 -0.441E-03 -0.441E-03
 -21.956 -0.467E-03 -0.467E-03
 -21.946 -0.493E-03 -0.493E-03
 -21.936 -0.522E-03 -0.522E-03
 -21.926 -0.551E-03 -0.551E-03
 -21.916 -0.582E-03 -0.582E-03
 -21.906 -0.614E-03 -0.614E-03
 -21.896 -0.647E-03 -0.647E-03
 -21.886 -0.682E-03 -0.682E-03
 -21.876 -0.718E-03 -0.718E-03
 -21.866 -0.756E-03 -0.756E-03
 -21.856 -0.795E-03 -0.795E-03
 -21.846 -0.835E-03 -0.835E-03
 -21.836 -0.878E-03 -0.878E-03
 -21.826 -0.921E-03 -0.921E-03
 -21.816 -0.967E-03 -0.967E-03
 -21.806 -0.101E-02 -0.101E-02
 -21.796 -0.106E-02 -0.106E-02
 -21.786 -0.111E-02 -0.111E-02
 -21.776 -0.116E-02 -0.116E-02
 -21.766 -0.122E-02 -0.122E-02
 -21.756 -0.127E-02 -0.127E-02
 -21.746 -0.133E-02 -0.133E-02
 -21.736 -0.138E-02 -0.138E-02
 -21.726 -0.144E-02 -0.144E-02
 -21.716 -0.150E-02 -0.150E-02
 -21.706 -0.157E-02 -0.157E-02
 -21.696 -0.163E-02 -0.163E-02
 -21.686 -0.169E-02 -0.169E-02
 -21.676 -0.176E-02 -0.176E-02
 -21.666 -0.183E-02 -0.183E-02
 -21.656 -0.189E-02 -0.189E-02
 -21.646 -0.196E-02 -0.196E-02
 -21.636 -0.203E-02 -0.203E-02
 -21.626 -0.210E-02 -0.210E-02
 -21.616 -0.217E-02 -0.217E-02
 -21.606 -0.225E-02 -0.225E-02
 -21.596 -0.232E-02 -0.232E-02
 -21.586 -0.239E-02 -0.239E-02
 -21.576 -0.246E-02 -0.246E-02
 -21.566 -0.253E-02 -0.253E-02
 -21.556 -0.261E-02 -0.261E-02
 -21.546 -0.268E-02 -0.268E-02
 -21.536 -0.275E-02 -0.275E-02
 -21.526 -0.282E-02 -0.282E-02
 -21.516 -0.288E-02 -0.288E-02
 -21.506 -0.295E-02 -0.295E-02
 -21.496 -0.302E-02 -0.302E-02
 -21.486 -0.308E-02 -0.308E-02
 -21.476 -0.314E-02 -0.314E-02
 -21.466 -0.320E-02 -0.320E-02
 -21.456 -0.325E-02 -0.325E-02
 -21.446 -0.330E-02 -0.330E-02
 -21.436 -0.335E-02 -0.335E-02
 -21.426 -0.339E-02 -0.339E-02
 -21.416 -0.343E-02 -0.343E-02
 -21.406 -0.346E-02 -0.346E-02
 -21.396 -0.349E-02 -0.349E-02
 -21.386 -0.351E-02 -0.351E-02
 -21.376 -0.353E-02 -0.353E-02
 -21.366 -0.353E-02 -0.353E-02
 -21.356 -0.354E-02 -0.354E-02
 -21.346 -0.353E-02 -0.353E-02
 -21.336 -0.352E-02 -0.352E-02
 -21.326 -0.349E-02 -0.349E-02
 -21.316 -0.346E-02 -0.346E-02
 -21.306 -0.342E-02 -0.342E-02
 -21.296 -0.337E-02 -0.337E-02
 -21.286 -0.330E-02 -0.330E-02
 -21.276 -0.323E-02 -0.323E-02
 -21.266 -0.314E-02 -0.314E-02
 -21.256 -0.304E-02 -0.304E-02
 -21.246 -0.293E-02 -0.293E-02
 -21.236 -0.280E-02 -0.280E-02
 -21.226 -0.266E-02 -0.266E-02
 -21.216 -0.251E-02 -0.251E-02
 -21.206 -0.234E-02 -0.234E-02
 -21.196 -0.215E-02 -0.215E-02
 -21.186 -0.195E-02 -0.195E-02
 -21.176 -0.173E-02 -0.173E-02
 -21.166 -0.150E-02 -0.150E-02
 -21.156 -0.124E-02 -0.124E-02
 -21.146 -0.971E-03 -0.971E-03
 -21.136 -0.680E-03 -0.680E-03
 -21.126 -0.370E-03 -0.370E-03
 -21.116 -0.397E-04 -0.397E-04
 -21.106  0.310E-03  0.310E-03
 -21.096  0.681E-03  0.681E-03
 -21.086  0.107E-02  0.107E-02
 -21.076  0.148E-02  0.148E-02
 -21.066  0.192E-02  0.192E-02
 -21.056  0.237E-02  0.237E-02
 -21.046  0.285E-02  0.285E-02
 -21.036  0.335E-02  0.335E-02
 -21.026  0.387E-02  0.387E-02
 -21.016  0.442E-02  0.442E-02
 -21.006  0.498E-02  0.498E-02
 -20.996  0.557E-02  0.557E-02
 -20.986  0.618E-02  0.618E-02
 -20.976  0.682E-02  0.682E-02
 -20.966  0.747E-02  0.747E-02
 -20.956  0.815E-02  0.815E-02
 -20.946  0.885E-02  0.885E-02
 -20.936  0.957E-02  0.957E-02
 -20.926  0.103E-01  0.103E-01
 -20.916  0.111E-01  0.111E-01
 -20.906  0.119E-01  0.119E-01
 -20.896  0.127E-01  0.127E-01
 -20.886  0.135E-01  0.135E-01
 -20.876  0.143E-01  0.143E-01
 -20.866  0.152E-01  0.152E-01
 -20.856  0.161E-01  0.161E-01
 -20.846  0.170E-01  0.170E-01
 -20.836  0.179E-01  0.179E-01
 -20.826  0.188E-01  0.188E-01
 -20.816  0.197E-01  0.197E-01
 -20.806  0.207E-01  0.207E-01
 -20.796  0.217E-01  0.217E-01
 -20.786  0.226E-01  0.226E-01
 -20.776  0.236E-01  0.236E-01
 -20.766  0.246E-01  0.246E-01
 -20.756  0.256E-01  0.256E-01
 -20.746  0.266E-01  0.266E-01
 -20.736  0.276E-01  0.276E-01
 -20.726  0.286E-01  0.286E-01
 -20.716  0.296E-01  0.296E-01
 -20.706  0.306E-01  0.306E-01
 -20.696  0.316E-01  0.316E-01
 -20.686  0.326E-01  0.326E-01
 -20.676  0.336E-01  0.336E-01
 -20.666  0.346E-01  0.346E-01
 -20.656  0.356E-01  0.356E-01
 -20.646  0.366E-01  0.366E-01
 -20.636  0.375E-01  0.375E-01
 -20.626  0.385E-01  0.385E-01
 -20.616  0.394E-01  0.394E-01
 -20.606  0.403E-01  0.403E-01
 -20.596  0.412E-01  0.412E-01
 -20.586  0.420E-01  0.420E-01
 -20.576  0.429E-01  0.429E-01
 -20.566  0.437E-01  0.437E-01
 -20.556  0.445E-01  0.445E-01
 -20.546  0.452E-01  0.452E-01
 -20.536  0.460E-01  0.460E-01
 -20.526  0.467E-01  0.467E-01
 -20.516  0.473E-01  0.473E-01
 -20.506  0.480E-01  0.480E-01
 -20.496  0.486E-01  0.486E-01
 -20.486  0.491E-01  0.491E-01
 -20.476  0.496E-01  0.496E-01
 -20.466  0.501E-01  0.501E-01
 -20.456  0.506E-01  0.506E-01
 -20.446  0.510E-01  0.510E-01
 -20.436  0.513E-01  0.513E-01
 -20.426  0.516E-01  0.516E-01
 -20.416  0.519E-01  0.519E-01
 -20.406  0.521E-01  0.521E-01
 -20.396  0.522E-01  0.522E-01
 -20.386  0.524E-01  0.524E-01
 -20.376  0.524E-01  0.524E-01
 -20.366  0.525E-01  0.525E-01
 -20.356  0.524E-01  0.524E-01
 -20.346  0.524E-01  0.524E-01
 -20.336  0.522E-01  0.522E-01
 -20.326  0.521E-01  0.521E-01
 -20.316  0.518E-01  0.518E-01
 -20.306  0.516E-01  0.516E-01
 -20.296  0.513E-01  0.513E-01
 -20.286  0.509E-01  0.509E-01
 -20.276  0.505E-01  0.505E-01
 -20.266  0.501E-01  0.501E-01
 -20.256  0.496E-01  0.496E-01
 -20.246  0.490E-01  0.490E-01
 -20.236  0.485E-01  0.485E-01
 -20.226  0.479E-01  0.479E-01
 -20.216  0.472E-01  0.472E-01
 -20.206  0.465E-01  0.465E-01
 -20.196  0.458E-01  0.458E-01
 -20.186  0.451E-01  0.451E-01
 -20.176  0.443E-01  0.443E-01
 -20.166  0.436E-01  0.436E-01
 -20.156  0.428E-01  0.428E-01
 -20.146  0.419E-01  0.419E-01
 -20.136  0.411E-01  0.411E-01
 -20.126  0.403E-01  0.403E-01
 -20.116  0.394E-01  0.394E-01
 -20.106  0.385E-01  0.385E-01
 -20.096  0.377E-01  0.377E-01
 -20.086  0.368E-01  0.368E-01
 -20.076  0.360E-01  0.360E-01
 -20.066  0.351E-01  0.351E-01
 -20.056  0.343E-01  0.343E-01
 -20.046  0.335E-01  0.335E-01
 -20.036  0.327E-01  0.327E-01
 -20.026  0.320E-01  0.320E-01
 -20.016  0.313E-01  0.313E-01
 -20.006  0.306E-01  0.306E-01
 -19.996  0.300E-01  0.300E-01
 -19.986  0.294E-01  0.294E-01
 -19.976  0.288E-01  0.288E-01
 -19.966  0.284E-01  0.284E-01
 -19.956  0.279E-01  0.279E-01
 -19.946  0.276E-01  0.276E-01
 -19.936  0.273E-01  0.273E-01
 -19.926  0.271E-01  0.271E-01
 -19.916  0.270E-01  0.270E-01
 -19.906  0.269E-01  0.269E-01
 -19.896  0.270E-01  0.270E-01
 -19.886  0.271E-01  0.271E-01
 -19.876  0.273E-01  0.273E-01
 -19.866  0.277E-01  0.277E-01
 -19.856  0.281E-01  0.281E-01
 -19.846  0.287E-01  0.287E-01
 -19.836  0.293E-01  0.293E-01
 -19.826  0.301E-01  0.301E-01
 -19.816  0.310E-01  0.310E-01
 -19.806  0.321E-01  0.321E-01
 -19.796  0.332E-01  0.332E-01
 -19.786  0.345E-01  0.345E-01
 -19.776  0.359E-01  0.359E-01
 -19.766  0.375E-01  0.375E-01
 -19.756  0.392E-01  0.392E-01
 -19.746  0.411E-01  0.411E-01
 -19.736  0.430E-01  0.430E-01
 -19.726  0.452E-01  0.452E-01
 -19.716  0.475E-01  0.475E-01
 -19.706  0.499E-01  0.499E-01
 -19.696  0.525E-01  0.525E-01
 -19.686  0.552E-01  0.552E-01
 -19.676  0.581E-01  0.581E-01
 -19.666  0.611E-01  0.611E-01
 -19.656  0.643E-01  0.643E-01
 -19.646  0.676E-01  0.676E-01
 -19.636  0.711E-01  0.711E-01
 -19.626  0.747E-01  0.747E-01
 -19.616  0.784E-01  0.784E-01
 -19.606  0.823E-01  0.823E-01
 -19.596  0.864E-01  0.864E-01
 -19.586  0.906E-01  0.906E-01
 -19.576  0.949E-01  0.949E-01
 -19.566  0.993E-01  0.993E-01
 -19.556  0.104E+00  0.104E+00
 -19.546  0.109E+00  0.109E+00
 -19.536  0.113E+00  0.113E+00
 -19.526  0.118E+00  0.118E+00
 -19.516  0.123E+00  0.123E+00
 -19.506  0.128E+00  0.128E+00
 -19.496  0.134E+00  0.134E+00
 -19.486  0.139E+00  0.139E+00
 -19.476  0.144E+00  0.144E+00
 -19.466  0.150E+00  0.150E+00
 -19.456  0.155E+00  0.155E+00
 -19.446  0.161E+00  0.161E+00
 -19.436  0.167E+00  0.167E+00
 -19.426  0.172E+00  0.172E+00
 -19.416  0.178E+00  0.178E+00
 -19.406  0.184E+00  0.184E+00
 -19.396  0.190E+00  0.190E+00
 -19.386  0.196E+00  0.196E+00
 -19.376  0.202E+00  0.202E+00
 -19.366  0.207E+00  0.207E+00
 -19.356  0.213E+00  0.213E+00
 -19.346  0.219E+00  0.219E+00
 -19.336  0.225E+00  0.225E+00
 -19.326  0.231E+00  0.231E+00
 -19.316  0.236E+00  0.236E+00
 -19.306  0.242E+00  0.242E+00
 -19.296  0.247E+00  0.247E+00
 -19.286  0.253E+00  0.253E+00
 -19.276  0.258E+00  0.258E+00
 -19.266  0.264E+00  0.264E+00
 -19.256  0.269E+00  0.269E+00
 -19.246  0.274E+00  0.274E+00
 -19.236  0.279E+00  0.279E+00
 -19.226  0.284E+00  0.284E+00
 -19.216  0.288E+00  0.288E+00
 -19.206  0.293E+00  0.293E+00
 -19.196  0.297E+00  0.297E+00
 -19.186  0.302E+00  0.302E+00
 -19.176  0.306E+00  0.306E+00
 -19.166  0.309E+00  0.309E+00
 -19.156  0.313E+00  0.313E+00
 -19.146  0.317E+00  0.317E+00
 -19.136  0.320E+00  0.320E+00
 -19.126  0.323E+00  0.323E+00
 -19.116  0.326E+00  0.326E+00
 -19.106  0.329E+00  0.329E+00
 -19.096  0.331E+00  0.331E+00
 -19.086  0.333E+00  0.333E+00
 -19.076  0.335E+00  0.335E+00
 -19.066  0.337E+00  0.337E+00
 -19.056  0.339E+00  0.339E+00
 -19.046  0.340E+00  0.340E+00
 -19.036  0.341E+00  0.341E+00
 -19.026  0.342E+00  0.342E+00
 -19.016  0.342E+00  0.342E+00
 -19.006  0.342E+00  0.342E+00
 -18.996  0.343E+00  0.343E+00
 -18.986  0.342E+00  0.342E+00
 -18.976  0.342E+00  0.342E+00
 -18.966  0.341E+00  0.341E+00
 -18.956  0.340E+00  0.340E+00
 -18.946  0.339E+00  0.339E+00
 -18.936  0.338E+00  0.338E+00
 -18.926  0.336E+00  0.336E+00
 -18.916  0.334E+00  0.334E+00
 -18.906  0.332E+00  0.332E+00
 -18.896  0.330E+00  0.330E+00
 -18.886  0.327E+00  0.327E+00
 -18.876  0.324E+00  0.324E+00
 -18.866  0.321E+00  0.321E+00
 -18.856  0.318E+00  0.318E+00
 -18.846  0.314E+00  0.314E+00
 -18.836  0.311E+00  0.311E+00
 -18.826  0.307E+00  0.307E+00
 -18.816  0.303E+00  0.303E+00
 -18.806  0.299E+00  0.299E+00
 -18.796  0.294E+00  0.294E+00
 -18.786  0.290E+00  0.290E+00
 -18.776  0.285E+00  0.285E+00
 -18.766  0.280E+00  0.280E+00
 -18.756  0.275E+00  0.275E+00
 -18.746  0.270E+00  0.270E+00
 -18.736  0.265E+00  0.265E+00
 -18.726  0.259E+00  0.259E+00
 -18.716  0.254E+00  0.254E+00
 -18.706  0.248E+00  0.248E+00
 -18.696  0.243E+00  0.243E+00
 -18.686  0.237E+00  0.237E+00
 -18.676  0.231E+00  0.231E+00
 -18.666  0.225E+00  0.225E+00
 -18.656  0.219E+00  0.219E+00
 -18.646  0.213E+00  0.213E+00
 -18.636  0.207E+00  0.207E+00
 -18.626  0.201E+00  0.201E+00
 -18.616  0.195E+00  0.195E+00
 -18.606  0.189E+00  0.189E+00
 -18.596  0.183E+00  0.183E+00
 -18.586  0.177E+00  0.177E+00
 -18.576  0.171E+00  0.171E+00
 -18.566  0.165E+00  0.165E+00
 -18.556  0.159E+00  0.159E+00
 -18.546  0.153E+00  0.153E+00
 -18.536  0.147E+00  0.147E+00
 -18.526  0.141E+00  0.141E+00
 -18.516  0.135E+00  0.135E+00
 -18.506  0.129E+00  0.129E+00
 -18.496  0.124E+00  0.124E+00
 -18.486  0.118E+00  0.118E+00
 -18.476  0.112E+00  0.112E+00
 -18.466  0.107E+00  0.107E+00
 -18.456  0.101E+00  0.101E+00
 -18.446  0.962E-01  0.962E-01
 -18.436  0.909E-01  0.909E-01
 -18.426  0.858E-01  0.858E-01
 -18.416  0.808E-01  0.808E-01
 -18.406  0.758E-01  0.758E-01
 -18.396  0.710E-01  0.710E-01
 -18.386  0.663E-01  0.663E-01
 -18.376  0.617E-01  0.617E-01
 -18.366  0.573E-01  0.573E-01
 -18.356  0.529E-01  0.529E-01
 -18.346  0.487E-01  0.487E-01
 -18.336  0.446E-01  0.446E-01
 -18.326  0.406E-01  0.406E-01
 -18.316  0.367E-01  0.367E-01
 -18.306  0.330E-01  0.330E-01
 -18.296  0.294E-01  0.294E-01
 -18.286  0.259E-01  0.259E-01
 -18.276  0.225E-01  0.225E-01
 -18.266  0.193E-01  0.193E-01
 -18.256  0.162E-01  0.162E-01
 -18.246  0.132E-01  0.132E-01
 -18.236  0.103E-01  0.103E-01
 -18.226  0.754E-02  0.754E-02
 -18.216  0.491E-02  0.491E-02
 -18.206  0.240E-02  0.240E-02
 -18.196  0.201E-05  0.201E-05
 -18.186 -0.228E-02 -0.228E-02
 -18.176 -0.444E-02 -0.444E-02
 -18.166 -0.649E-02 -0.649E-02
 -18.156 -0.843E-02 -0.843E-02
 -18.146 -0.103E-01 -0.103E-01
 -18.136 -0.120E-01 -0.120E-01
 -18.126 -0.136E-01 -0.136E-01
 -18.116 -0.151E-01 -0.151E-01
 -18.106 -0.166E-01 -0.166E-01
 -18.096 -0.179E-01 -0.179E-01
 -18.086 -0.191E-01 -0.191E-01
 -18.076 -0.203E-01 -0.203E-01
 -18.066 -0.213E-01 -0.213E-01
 -18.056 -0.223E-01 -0.223E-01
 -18.046 -0.231E-01 -0.231E-01
 -18.036 -0.239E-01 -0.239E-01
 -18.026 -0.246E-01 -0.246E-01
 -18.016 -0.253E-01 -0.253E-01
 -18.006 -0.258E-01 -0.258E-01
 -17.996 -0.263E-01 -0.263E-01
 -17.986 -0.267E-01 -0.267E-01
 -17.976 -0.270E-01 -0.270E-01
 -17.966 -0.273E-01 -0.273E-01
 -17.956 -0.275E-01 -0.275E-01
 -17.946 -0.276E-01 -0.276E-01
 -17.936 -0.277E-01 -0.277E-01
 -17.926 -0.277E-01 -0.277E-01
 -17.916 -0.276E-01 -0.276E-01
 -17.906 -0.275E-01 -0.275E-01
 -17.896 -0.274E-01 -0.274E-01
 -17.886 -0.271E-01 -0.271E-01
 -17.876 -0.268E-01 -0.268E-01
 -17.866 -0.265E-01 -0.265E-01
 -17.856 -0.261E-01 -0.261E-01
 -17.846 -0.256E-01 -0.256E-01
 -17.836 -0.251E-01 -0.251E-01
 -17.826 -0.246E-01 -0.246E-01
 -17.816 -0.240E-01 -0.240E-01
 -17.806 -0.233E-01 -0.233E-01
 -17.796 -0.226E-01 -0.226E-01
 -17.786 -0.219E-01 -0.219E-01
 -17.776 -0.211E-01 -0.211E-01
 -17.766 -0.202E-01 -0.202E-01
 -17.756 -0.193E-01 -0.193E-01
 -17.746 -0.184E-01 -0.184E-01
 -17.736 -0.174E-01 -0.174E-01
 -17.726 -0.163E-01 -0.163E-01
 -17.716 -0.152E-01 -0.152E-01
 -17.706 -0.141E-01 -0.141E-01
 -17.696 -0.129E-01 -0.129E-01
 -17.686 -0.117E-01 -0.117E-01
 -17.676 -0.104E-01 -0.104E-01
 -17.666 -0.903E-02 -0.903E-02
 -17.656 -0.764E-02 -0.764E-02
 -17.646 -0.620E-02 -0.620E-02
 -17.636 -0.472E-02 -0.472E-02
 -17.626 -0.318E-02 -0.318E-02
 -17.616 -0.160E-02 -0.160E-02
 -17.606  0.359E-04  0.359E-04
 -17.596  0.172E-02  0.172E-02
 -17.586  0.345E-02  0.345E-02
 -17.576  0.523E-02  0.523E-02
 -17.566  0.706E-02  0.706E-02
 -17.556  0.894E-02  0.894E-02
 -17.546  0.109E-01  0.109E-01
 -17.536  0.128E-01  0.128E-01
 -17.526  0.149E-01  0.149E-01
 -17.516  0.169E-01  0.169E-01
 -17.506  0.191E-01  0.191E-01
 -17.496  0.212E-01  0.212E-01
 -17.486  0.234E-01  0.234E-01
 -17.476  0.257E-01  0.257E-01
 -17.466  0.280E-01  0.280E-01
 -17.456  0.303E-01  0.303E-01
 -17.446  0.327E-01  0.327E-01
 -17.436  0.351E-01  0.351E-01
 -17.426  0.375E-01  0.375E-01
 -17.416  0.400E-01  0.400E-01
 -17.406  0.425E-01  0.425E-01
 -17.396  0.451E-01  0.451E-01
 -17.386  0.477E-01  0.477E-01
 -17.376  0.503E-01  0.503E-01
 -17.366  0.529E-01  0.529E-01
 -17.356  0.556E-01  0.556E-01
 -17.346  0.583E-01  0.583E-01
 -17.336  0.610E-01  0.610E-01
 -17.326  0.637E-01  0.637E-01
 -17.316  0.665E-01  0.665E-01
 -17.306  0.692E-01  0.692E-01
 -17.296  0.720E-01  0.720E-01
 -17.286  0.748E-01  0.748E-01
 -17.276  0.776E-01  0.776E-01
 -17.266  0.804E-01  0.804E-01
 -17.256  0.831E-01  0.831E-01
 -17.246  0.859E-01  0.859E-01
 -17.236  0.887E-01  0.887E-01
 -17.226  0.915E-01  0.915E-01
 -17.216  0.942E-01  0.942E-01
 -17.206  0.969E-01  0.969E-01
 -17.196  0.996E-01  0.996E-01
 -17.186  0.102E+00  0.102E+00
 -17.176  0.105E+00  0.105E+00
 -17.166  0.108E+00  0.108E+00
 -17.156  0.110E+00  0.110E+00
 -17.146  0.113E+00  0.113E+00
 -17.136  0.115E+00  0.115E+00
 -17.126  0.118E+00  0.118E+00
 -17.116  0.120E+00  0.120E+00
 -17.106  0.123E+00  0.123E+00
 -17.096  0.125E+00  0.125E+00
 -17.086  0.127E+00  0.127E+00
 -17.076  0.130E+00  0.130E+00
 -17.066  0.132E+00  0.132E+00
 -17.056  0.134E+00  0.134E+00
 -17.046  0.136E+00  0.136E+00
 -17.036  0.138E+00  0.138E+00
 -17.026  0.140E+00  0.140E+00
 -17.016  0.142E+00  0.142E+00
 -17.006  0.144E+00  0.144E+00
 -16.996  0.145E+00  0.145E+00
 -16.986  0.147E+00  0.147E+00
 -16.976  0.149E+00  0.149E+00
 -16.966  0.150E+00  0.150E+00
 -16.956  0.152E+00  0.152E+00
 -16.946  0.153E+00  0.153E+00
 -16.936  0.154E+00  0.154E+00
 -16.926  0.155E+00  0.155E+00
 -16.916  0.157E+00  0.157E+00
 -16.906  0.158E+00  0.158E+00
 -16.896  0.159E+00  0.159E+00
 -16.886  0.159E+00  0.159E+00
 -16.876  0.160E+00  0.160E+00
 -16.866  0.161E+00  0.161E+00
 -16.856  0.162E+00  0.162E+00
 -16.846  0.162E+00  0.162E+00
 -16.836  0.163E+00  0.163E+00
 -16.826  0.163E+00  0.163E+00
 -16.816  0.163E+00  0.163E+00
 -16.806  0.164E+00  0.164E+00
 -16.796  0.164E+00  0.164E+00
 -16.786  0.164E+00  0.164E+00
 -16.776  0.164E+00  0.164E+00
 -16.766  0.164E+00  0.164E+00
 -16.756  0.164E+00  0.164E+00
 -16.746  0.164E+00  0.164E+00
 -16.736  0.163E+00  0.163E+00
 -16.726  0.163E+00  0.163E+00
 -16.716  0.163E+00  0.163E+00
 -16.706  0.162E+00  0.162E+00
 -16.696  0.162E+00  0.162E+00
 -16.686  0.161E+00  0.161E+00
 -16.676  0.161E+00  0.161E+00
 -16.666  0.160E+00  0.160E+00
 -16.656  0.160E+00  0.160E+00
 -16.646  0.159E+00  0.159E+00
 -16.636  0.158E+00  0.158E+00
 -16.626  0.158E+00  0.158E+00
 -16.616  0.157E+00  0.157E+00
 -16.606  0.156E+00  0.156E+00
 -16.596  0.155E+00  0.155E+00
 -16.586  0.154E+00  0.154E+00
 -16.576  0.153E+00  0.153E+00
 -16.566  0.152E+00  0.152E+00
 -16.556  0.151E+00  0.151E+00
 -16.546  0.150E+00  0.150E+00
 -16.536  0.149E+00  0.149E+00
 -16.526  0.148E+00  0.148E+00
 -16.516  0.147E+00  0.147E+00
 -16.506  0.146E+00  0.146E+00
 -16.496  0.145E+00  0.145E+00
 -16.486  0.144E+00  0.144E+00
 -16.476  0.143E+00  0.143E+00
 -16.466  0.142E+00  0.142E+00
 -16.456  0.141E+00  0.141E+00
 -16.446  0.140E+00  0.140E+00
 -16.436  0.139E+00  0.139E+00
 -16.426  0.138E+00  0.138E+00
 -16.416  0.136E+00  0.136E+00
 -16.406  0.135E+00  0.135E+00
 -16.396  0.134E+00  0.134E+00
 -16.386  0.133E+00  0.133E+00
 -16.376  0.132E+00  0.132E+00
 -16.366  0.131E+00  0.131E+00
 -16.356  0.130E+00  0.130E+00
 -16.346  0.129E+00  0.129E+00
 -16.336  0.128E+00  0.128E+00
 -16.326  0.127E+00  0.127E+00
 -16.316  0.126E+00  0.126E+00
 -16.306  0.125E+00  0.125E+00
 -16.296  0.123E+00  0.123E+00
 -16.286  0.122E+00  0.122E+00
 -16.276  0.121E+00  0.121E+00
 -16.266  0.120E+00  0.120E+00
 -16.256  0.119E+00  0.119E+00
 -16.246  0.118E+00  0.118E+00
 -16.236  0.117E+00  0.117E+00
 -16.226  0.116E+00  0.116E+00
 -16.216  0.115E+00  0.115E+00
 -16.206  0.114E+00  0.114E+00
 -16.196  0.113E+00  0.113E+00
 -16.186  0.112E+00  0.112E+00
 -16.176  0.111E+00  0.111E+00
 -16.166  0.109E+00  0.109E+00
 -16.156  0.108E+00  0.108E+00
 -16.146  0.107E+00  0.107E+00
 -16.136  0.106E+00  0.106E+00
 -16.126  0.105E+00  0.105E+00
 -16.116  0.104E+00  0.104E+00
 -16.106  0.103E+00  0.103E+00
 -16.096  0.102E+00  0.102E+00
 -16.086  0.100E+00  0.100E+00
 -16.076  0.991E-01  0.991E-01
 -16.066  0.979E-01  0.979E-01
 -16.056  0.967E-01  0.967E-01
 -16.046  0.954E-01  0.954E-01
 -16.036  0.942E-01  0.942E-01
 -16.026  0.929E-01  0.929E-01
 -16.016  0.916E-01  0.916E-01
 -16.006  0.903E-01  0.903E-01
 -15.996  0.889E-01  0.889E-01
 -15.986  0.876E-01  0.876E-01
 -15.976  0.862E-01  0.862E-01
 -15.966  0.848E-01  0.848E-01
 -15.956  0.834E-01  0.834E-01
 -15.946  0.820E-01  0.820E-01
 -15.936  0.806E-01  0.806E-01
 -15.926  0.792E-01  0.792E-01
 -15.916  0.777E-01  0.777E-01
 -15.906  0.762E-01  0.762E-01
 -15.896  0.747E-01  0.747E-01
 -15.886  0.732E-01  0.732E-01
 -15.876  0.717E-01  0.717E-01
 -15.866  0.702E-01  0.702E-01
 -15.856  0.686E-01  0.686E-01
 -15.846  0.671E-01  0.671E-01
 -15.836  0.655E-01  0.655E-01
 -15.826  0.640E-01  0.640E-01
 -15.816  0.624E-01  0.624E-01
 -15.806  0.608E-01  0.608E-01
 -15.796  0.592E-01  0.592E-01
 -15.786  0.576E-01  0.576E-01
 -15.776  0.561E-01  0.561E-01
 -15.766  0.545E-01  0.545E-01
 -15.756  0.529E-01  0.529E-01
 -15.746  0.513E-01  0.513E-01
 -15.736  0.497E-01  0.497E-01
 -15.726  0.481E-01  0.481E-01
 -15.716  0.466E-01  0.466E-01
 -15.706  0.450E-01  0.450E-01
 -15.696  0.434E-01  0.434E-01
 -15.686  0.419E-01  0.419E-01
 -15.676  0.403E-01  0.403E-01
 -15.666  0.388E-01  0.388E-01
 -15.656  0.373E-01  0.373E-01
 -15.646  0.358E-01  0.358E-01
 -15.636  0.343E-01  0.343E-01
 -15.626  0.329E-01  0.329E-01
 -15.616  0.314E-01  0.314E-01
 -15.606  0.300E-01  0.300E-01
 -15.596  0.286E-01  0.286E-01
 -15.586  0.272E-01  0.272E-01
 -15.576  0.258E-01  0.258E-01
 -15.566  0.245E-01  0.245E-01
 -15.556  0.232E-01  0.232E-01
 -15.546  0.219E-01  0.219E-01
 -15.536  0.206E-01  0.206E-01
 -15.526  0.194E-01  0.194E-01
 -15.516  0.182E-01  0.182E-01
 -15.506  0.170E-01  0.170E-01
 -15.496  0.159E-01  0.159E-01
 -15.486  0.147E-01  0.147E-01
 -15.476  0.137E-01  0.137E-01
 -15.466  0.126E-01  0.126E-01
 -15.456  0.116E-01  0.116E-01
 -15.446  0.106E-01  0.106E-01
 -15.436  0.960E-02  0.960E-02
 -15.426  0.866E-02  0.866E-02
 -15.416  0.776E-02  0.776E-02
 -15.406  0.689E-02  0.689E-02
 -15.396  0.605E-02  0.605E-02
 -15.386  0.524E-02  0.524E-02
 -15.376  0.446E-02  0.446E-02
 -15.366  0.371E-02  0.371E-02
 -15.356  0.299E-02  0.299E-02
 -15.346  0.231E-02  0.231E-02
 -15.336  0.165E-02  0.165E-02
 -15.326  0.103E-02  0.103E-02
 -15.316  0.432E-03  0.432E-03
 -15.306 -0.135E-03 -0.135E-03
 -15.296 -0.673E-03 -0.673E-03
 -15.286 -0.118E-02 -0.118E-02
 -15.276 -0.167E-02 -0.167E-02
 -15.266 -0.212E-02 -0.212E-02
 -15.256 -0.255E-02 -0.255E-02
 -15.246 -0.295E-02 -0.295E-02
 -15.236 -0.333E-02 -0.333E-02
 -15.226 -0.369E-02 -0.369E-02
 -15.216 -0.402E-02 -0.402E-02
 -15.206 -0.432E-02 -0.432E-02
 -15.196 -0.461E-02 -0.461E-02
 -15.186 -0.487E-02 -0.487E-02
 -15.176 -0.511E-02 -0.511E-02
 -15.166 -0.534E-02 -0.534E-02
 -15.156 -0.554E-02 -0.554E-02
 -15.146 -0.572E-02 -0.572E-02
 -15.136 -0.589E-02 -0.589E-02
 -15.126 -0.604E-02 -0.604E-02
 -15.116 -0.618E-02 -0.618E-02
 -15.106 -0.630E-02 -0.630E-02
 -15.096 -0.640E-02 -0.640E-02
 -15.086 -0.649E-02 -0.649E-02
 -15.076 -0.657E-02 -0.657E-02
 -15.066 -0.663E-02 -0.663E-02
 -15.056 -0.669E-02 -0.669E-02
 -15.046 -0.673E-02 -0.673E-02
 -15.036 -0.676E-02 -0.676E-02
 -15.026 -0.679E-02 -0.679E-02
 -15.016 -0.680E-02 -0.680E-02
 -15.006 -0.681E-02 -0.681E-02
 -14.996 -0.680E-02 -0.680E-02
 -14.986 -0.680E-02 -0.680E-02
 -14.976 -0.678E-02 -0.678E-02
 -14.966 -0.676E-02 -0.676E-02
 -14.956 -0.673E-02 -0.673E-02
 -14.946 -0.670E-02 -0.670E-02
 -14.936 -0.667E-02 -0.667E-02
 -14.926 -0.663E-02 -0.663E-02
 -14.916 -0.659E-02 -0.659E-02
 -14.906 -0.654E-02 -0.654E-02
 -14.896 -0.649E-02 -0.649E-02
 -14.886 -0.644E-02 -0.644E-02
 -14.876 -0.639E-02 -0.639E-02
 -14.866 -0.633E-02 -0.633E-02
 -14.856 -0.628E-02 -0.628E-02
 -14.846 -0.622E-02 -0.622E-02
 -14.836 -0.616E-02 -0.616E-02
 -14.826 -0.611E-02 -0.611E-02
 -14.816 -0.605E-02 -0.605E-02
 -14.806 -0.599E-02 -0.599E-02
 -14.796 -0.593E-02 -0.593E-02
 -14.786 -0.587E-02 -0.587E-02
 -14.776 -0.581E-02 -0.581E-02
 -14.766 -0.575E-02 -0.575E-02
 -14.756 -0.569E-02 -0.569E-02
 -14.746 -0.563E-02 -0.563E-02
 -14.736 -0.557E-02 -0.557E-02
 -14.726 -0.551E-02 -0.551E-02
 -14.716 -0.545E-02 -0.545E-02
 -14.706 -0.540E-02 -0.540E-02
 -14.696 -0.534E-02 -0.534E-02
 -14.686 -0.528E-02 -0.528E-02
 -14.676 -0.522E-02 -0.522E-02
 -14.666 -0.516E-02 -0.516E-02
 -14.656 -0.509E-02 -0.509E-02
 -14.646 -0.503E-02 -0.503E-02
 -14.636 -0.497E-02 -0.497E-02
 -14.626 -0.490E-02 -0.490E-02
 -14.616 -0.484E-02 -0.484E-02
 -14.606 -0.477E-02 -0.477E-02
 -14.596 -0.470E-02 -0.470E-02
 -14.586 -0.462E-02 -0.462E-02
 -14.576 -0.455E-02 -0.455E-02
 -14.566 -0.447E-02 -0.447E-02
 -14.556 -0.438E-02 -0.438E-02
 -14.546 -0.430E-02 -0.430E-02
 -14.536 -0.421E-02 -0.421E-02
 -14.526 -0.411E-02 -0.411E-02
 -14.516 -0.401E-02 -0.401E-02
 -14.506 -0.391E-02 -0.391E-02
 -14.496 -0.380E-02 -0.380E-02
 -14.486 -0.368E-02 -0.368E-02
 -14.476 -0.356E-02 -0.356E-02
 -14.466 -0.343E-02 -0.343E-02
 -14.456 -0.329E-02 -0.329E-02
 -14.446 -0.315E-02 -0.315E-02
 -14.436 -0.299E-02 -0.299E-02
 -14.426 -0.283E-02 -0.283E-02
 -14.416 -0.266E-02 -0.266E-02
 -14.406 -0.248E-02 -0.248E-02
 -14.396 -0.229E-02 -0.229E-02
 -14.386 -0.209E-02 -0.209E-02
 -14.376 -0.188E-02 -0.188E-02
 -14.366 -0.166E-02 -0.166E-02
 -14.356 -0.143E-02 -0.143E-02
 -14.346 -0.119E-02 -0.119E-02
 -14.336 -0.928E-03 -0.928E-03
 -14.326 -0.658E-03 -0.658E-03
 -14.316 -0.374E-03 -0.374E-03
 -14.306 -0.761E-04 -0.761E-04
 -14.296  0.236E-03  0.236E-03
 -14.286  0.563E-03  0.563E-03
 -14.276  0.905E-03  0.905E-03
 -14.266  0.126E-02  0.126E-02
 -14.256  0.164E-02  0.164E-02
 -14.246  0.203E-02  0.203E-02
 -14.236  0.243E-02  0.243E-02
 -14.226  0.286E-02  0.286E-02
 -14.216  0.330E-02  0.330E-02
 -14.206  0.376E-02  0.376E-02
 -14.196  0.424E-02  0.424E-02
 -14.186  0.474E-02  0.474E-02
 -14.176  0.525E-02  0.525E-02
 -14.166  0.579E-02  0.579E-02
 -14.156  0.635E-02  0.635E-02
 -14.146  0.692E-02  0.692E-02
 -14.136  0.752E-02  0.752E-02
 -14.126  0.814E-02  0.814E-02
 -14.116  0.878E-02  0.878E-02
 -14.106  0.944E-02  0.944E-02
 -14.096  0.101E-01  0.101E-01
 -14.086  0.108E-01  0.108E-01
 -14.076  0.116E-01  0.116E-01
 -14.066  0.123E-01  0.123E-01
 -14.056  0.131E-01  0.131E-01
 -14.046  0.139E-01  0.139E-01
 -14.036  0.147E-01  0.147E-01
 -14.026  0.155E-01  0.155E-01
 -14.016  0.164E-01  0.164E-01
 -14.006  0.173E-01  0.173E-01
 -13.996  0.182E-01  0.182E-01
 -13.986  0.192E-01  0.192E-01
 -13.976  0.201E-01  0.201E-01
 -13.966  0.211E-01  0.211E-01
 -13.956  0.221E-01  0.221E-01
 -13.946  0.231E-01  0.231E-01
 -13.936  0.242E-01  0.242E-01
 -13.926  0.253E-01  0.253E-01
 -13.916  0.264E-01  0.264E-01
 -13.906  0.275E-01  0.275E-01
 -13.896  0.287E-01  0.287E-01
 -13.886  0.299E-01  0.299E-01
 -13.876  0.311E-01  0.311E-01
 -13.866  0.323E-01  0.323E-01
 -13.856  0.335E-01  0.335E-01
 -13.846  0.348E-01  0.348E-01
 -13.836  0.361E-01  0.361E-01
 -13.826  0.374E-01  0.374E-01
 -13.816  0.388E-01  0.388E-01
 -13.806  0.401E-01  0.401E-01
 -13.796  0.415E-01  0.415E-01
 -13.786  0.429E-01  0.429E-01
 -13.776  0.443E-01  0.443E-01
 -13.766  0.458E-01  0.458E-01
 -13.756  0.472E-01  0.472E-01
 -13.746  0.487E-01  0.487E-01
 -13.736  0.502E-01  0.502E-01
 -13.726  0.518E-01  0.518E-01
 -13.716  0.533E-01  0.533E-01
 -13.706  0.548E-01  0.548E-01
 -13.696  0.564E-01  0.564E-01
 -13.686  0.580E-01  0.580E-01
 -13.676  0.596E-01  0.596E-01
 -13.666  0.612E-01  0.612E-01
 -13.656  0.628E-01  0.628E-01
 -13.646  0.644E-01  0.644E-01
 -13.636  0.661E-01  0.661E-01
 -13.626  0.677E-01  0.677E-01
 -13.616  0.694E-01  0.694E-01
 -13.606  0.711E-01  0.711E-01
 -13.596  0.727E-01  0.727E-01
 -13.586  0.744E-01  0.744E-01
 -13.576  0.761E-01  0.761E-01
 -13.566  0.778E-01  0.778E-01
 -13.556  0.795E-01  0.795E-01
 -13.546  0.812E-01  0.812E-01
 -13.536  0.828E-01  0.828E-01
 -13.526  0.845E-01  0.845E-01
 -13.516  0.862E-01  0.862E-01
 -13.506  0.879E-01  0.879E-01
 -13.496  0.895E-01  0.895E-01
 -13.486  0.912E-01  0.912E-01
 -13.476  0.929E-01  0.929E-01
 -13.466  0.945E-01  0.945E-01
 -13.456  0.961E-01  0.961E-01
 -13.446  0.977E-01  0.977E-01
 -13.436  0.993E-01  0.993E-01
 -13.426  0.101E+00  0.101E+00
 -13.416  0.102E+00  0.102E+00
 -13.406  0.104E+00  0.104E+00
 -13.396  0.105E+00  0.105E+00
 -13.386  0.107E+00  0.107E+00
 -13.376  0.108E+00  0.108E+00
 -13.366  0.110E+00  0.110E+00
 -13.356  0.111E+00  0.111E+00
 -13.346  0.113E+00  0.113E+00
 -13.336  0.114E+00  0.114E+00
 -13.326  0.115E+00  0.115E+00
 -13.316  0.117E+00  0.117E+00
 -13.306  0.118E+00  0.118E+00
 -13.296  0.119E+00  0.119E+00
 -13.286  0.120E+00  0.120E+00
 -13.276  0.121E+00  0.121E+00
 -13.266  0.122E+00  0.122E+00
 -13.256  0.123E+00  0.123E+00
 -13.246  0.124E+00  0.124E+00
 -13.236  0.125E+00  0.125E+00
 -13.226  0.126E+00  0.126E+00
 -13.216  0.127E+00  0.127E+00
 -13.206  0.128E+00  0.128E+00
 -13.196  0.128E+00  0.128E+00
 -13.186  0.129E+00  0.129E+00
 -13.176  0.130E+00  0.130E+00
 -13.166  0.130E+00  0.130E+00
 -13.156  0.131E+00  0.131E+00
 -13.146  0.131E+00  0.131E+00
 -13.136  0.131E+00  0.131E+00
 -13.126  0.132E+00  0.132E+00
 -13.116  0.132E+00  0.132E+00
 -13.106  0.132E+00  0.132E+00
 -13.096  0.132E+00  0.132E+00
 -13.086  0.132E+00  0.132E+00
 -13.076  0.132E+00  0.132E+00
 -13.066  0.132E+00  0.132E+00
 -13.056  0.132E+00  0.132E+00
 -13.046  0.132E+00  0.132E+00
 -13.036  0.132E+00  0.132E+00
 -13.026  0.131E+00  0.131E+00
 -13.016  0.131E+00  0.131E+00
 -13.006  0.130E+00  0.130E+00
 -12.996  0.130E+00  0.130E+00
 -12.986  0.129E+00  0.129E+00
 -12.976  0.128E+00  0.128E+00
 -12.966  0.128E+00  0.128E+00
 -12.956  0.127E+00  0.127E+00
 -12.946  0.126E+00  0.126E+00
 -12.936  0.125E+00  0.125E+00
 -12.926  0.124E+00  0.124E+00
 -12.916  0.123E+00  0.123E+00
 -12.906  0.122E+00  0.122E+00
 -12.896  0.121E+00  0.121E+00
 -12.886  0.119E+00  0.119E+00
 -12.876  0.118E+00  0.118E+00
 -12.866  0.117E+00  0.117E+00
 -12.856  0.115E+00  0.115E+00
 -12.846  0.114E+00  0.114E+00
 -12.836  0.112E+00  0.112E+00
 -12.826  0.111E+00  0.111E+00
 -12.816  0.109E+00  0.109E+00
 -12.806  0.108E+00  0.108E+00
 -12.796  0.106E+00  0.106E+00
 -12.786  0.104E+00  0.104E+00
 -12.776  0.102E+00  0.102E+00
 -12.766  0.101E+00  0.101E+00
 -12.756  0.987E-01  0.987E-01
 -12.746  0.968E-01  0.968E-01
 -12.736  0.949E-01  0.949E-01
 -12.726  0.929E-01  0.929E-01
 -12.716  0.910E-01  0.910E-01
 -12.706  0.890E-01  0.890E-01
 -12.696  0.869E-01  0.869E-01
 -12.686  0.849E-01  0.849E-01
 -12.676  0.828E-01  0.828E-01
 -12.666  0.808E-01  0.808E-01
 -12.656  0.787E-01  0.787E-01
 -12.646  0.766E-01  0.766E-01
 -12.636  0.745E-01  0.745E-01
 -12.626  0.724E-01  0.724E-01
 -12.616  0.703E-01  0.703E-01
 -12.606  0.682E-01  0.682E-01
 -12.596  0.660E-01  0.660E-01
 -12.586  0.639E-01  0.639E-01
 -12.576  0.618E-01  0.618E-01
 -12.566  0.597E-01  0.597E-01
 -12.556  0.576E-01  0.576E-01
 -12.546  0.556E-01  0.556E-01
 -12.536  0.535E-01  0.535E-01
 -12.526  0.515E-01  0.515E-01
 -12.516  0.494E-01  0.494E-01
 -12.506  0.474E-01  0.474E-01
 -12.496  0.454E-01  0.454E-01
 -12.486  0.435E-01  0.435E-01
 -12.476  0.415E-01  0.415E-01
 -12.466  0.396E-01  0.396E-01
 -12.456  0.377E-01  0.377E-01
 -12.446  0.359E-01  0.359E-01
 -12.436  0.341E-01  0.341E-01
 -12.426  0.323E-01  0.323E-01
 -12.416  0.305E-01  0.305E-01
 -12.406  0.288E-01  0.288E-01
 -12.396  0.271E-01  0.271E-01
 -12.386  0.255E-01  0.255E-01
 -12.376  0.238E-01  0.238E-01
 -12.366  0.223E-01  0.223E-01
 -12.356  0.207E-01  0.207E-01
 -12.346  0.193E-01  0.193E-01
 -12.336  0.178E-01  0.178E-01
 -12.326  0.164E-01  0.164E-01
 -12.316  0.150E-01  0.150E-01
 -12.306  0.137E-01  0.137E-01
 -12.296  0.124E-01  0.124E-01
 -12.286  0.112E-01  0.112E-01
 -12.276  0.100E-01  0.100E-01
 -12.266  0.886E-02  0.886E-02
 -12.256  0.776E-02  0.776E-02
 -12.246  0.671E-02  0.671E-02
 -12.236  0.570E-02  0.570E-02
 -12.226  0.473E-02  0.473E-02
 -12.216  0.382E-02  0.382E-02
 -12.206  0.294E-02  0.294E-02
 -12.196  0.211E-02  0.211E-02
 -12.186  0.133E-02  0.133E-02
 -12.176  0.587E-03  0.587E-03
 -12.166 -0.109E-03 -0.109E-03
 -12.156 -0.761E-03 -0.761E-03
 -12.146 -0.137E-02 -0.137E-02
 -12.136 -0.193E-02 -0.193E-02
 -12.126 -0.246E-02 -0.246E-02
 -12.116 -0.294E-02 -0.294E-02
 -12.106 -0.338E-02 -0.338E-02
 -12.096 -0.377E-02 -0.377E-02
 -12.086 -0.413E-02 -0.413E-02
 -12.076 -0.444E-02 -0.444E-02
 -12.066 -0.472E-02 -0.472E-02
 -12.056 -0.496E-02 -0.496E-02
 -12.046 -0.515E-02 -0.515E-02
 -12.036 -0.531E-02 -0.531E-02
 -12.026 -0.544E-02 -0.544E-02
 -12.016 -0.552E-02 -0.552E-02
 -12.006 -0.557E-02 -0.557E-02
 -11.996 -0.559E-02 -0.559E-02
 -11.986 -0.557E-02 -0.557E-02
 -11.976 -0.551E-02 -0.551E-02
 -11.966 -0.543E-02 -0.543E-02
 -11.956 -0.531E-02 -0.531E-02
 -11.946 -0.516E-02 -0.516E-02
 -11.936 -0.498E-02 -0.498E-02
 -11.926 -0.476E-02 -0.476E-02
 -11.916 -0.452E-02 -0.452E-02
 -11.906 -0.425E-02 -0.425E-02
 -11.896 -0.395E-02 -0.395E-02
 -11.886 -0.362E-02 -0.362E-02
 -11.876 -0.327E-02 -0.327E-02
 -11.866 -0.289E-02 -0.289E-02
 -11.856 -0.249E-02 -0.249E-02
 -11.846 -0.206E-02 -0.206E-02
 -11.836 -0.161E-02 -0.161E-02
 -11.826 -0.114E-02 -0.114E-02
 -11.816 -0.641E-03 -0.641E-03
 -11.806 -0.124E-03 -0.124E-03
 -11.796  0.413E-03  0.413E-03
 -11.786  0.970E-03  0.970E-03
 -11.776  0.155E-02  0.155E-02
 -11.766  0.214E-02  0.214E-02
 -11.756  0.275E-02  0.275E-02
 -11.746  0.338E-02  0.338E-02
 -11.736  0.402E-02  0.402E-02
 -11.726  0.467E-02  0.467E-02
 -11.716  0.534E-02  0.534E-02
 -11.706  0.603E-02  0.603E-02
 -11.696  0.672E-02  0.672E-02
 -11.686  0.743E-02  0.743E-02
 -11.676  0.814E-02  0.814E-02
 -11.666  0.887E-02  0.887E-02
 -11.656  0.960E-02  0.960E-02
 -11.646  0.103E-01  0.103E-01
 -11.636  0.111E-01  0.111E-01
 -11.626  0.118E-01  0.118E-01
 -11.616  0.126E-01  0.126E-01
 -11.606  0.134E-01  0.134E-01
 -11.596  0.141E-01  0.141E-01
 -11.586  0.149E-01  0.149E-01
 -11.576  0.157E-01  0.157E-01
 -11.566  0.164E-01  0.164E-01
 -11.556  0.172E-01  0.172E-01
 -11.546  0.179E-01  0.179E-01
 -11.536  0.187E-01  0.187E-01
 -11.526  0.195E-01  0.195E-01
 -11.516  0.202E-01  0.202E-01
 -11.506  0.210E-01  0.210E-01
 -11.496  0.217E-01  0.217E-01
 -11.486  0.224E-01  0.224E-01
 -11.476  0.231E-01  0.231E-01
 -11.466  0.239E-01  0.239E-01
 -11.456  0.246E-01  0.246E-01
 -11.446  0.252E-01  0.252E-01
 -11.436  0.259E-01  0.259E-01
 -11.426  0.266E-01  0.266E-01
 -11.416  0.272E-01  0.272E-01
 -11.406  0.279E-01  0.279E-01
 -11.396  0.285E-01  0.285E-01
 -11.386  0.291E-01  0.291E-01
 -11.376  0.296E-01  0.296E-01
 -11.366  0.302E-01  0.302E-01
 -11.356  0.307E-01  0.307E-01
 -11.346  0.313E-01  0.313E-01
 -11.336  0.318E-01  0.318E-01
 -11.326  0.322E-01  0.322E-01
 -11.316  0.327E-01  0.327E-01
 -11.306  0.331E-01  0.331E-01
 -11.296  0.335E-01  0.335E-01
 -11.286  0.339E-01  0.339E-01
 -11.276  0.343E-01  0.343E-01
 -11.266  0.346E-01  0.346E-01
 -11.256  0.349E-01  0.349E-01
 -11.246  0.352E-01  0.352E-01
 -11.236  0.355E-01  0.355E-01
 -11.226  0.357E-01  0.357E-01
 -11.216  0.359E-01  0.359E-01
 -11.206  0.361E-01  0.361E-01
 -11.196  0.362E-01  0.362E-01
 -11.186  0.363E-01  0.363E-01
 -11.176  0.364E-01  0.364E-01
 -11.166  0.365E-01  0.365E-01
 -11.156  0.365E-01  0.365E-01
 -11.146  0.365E-01  0.365E-01
 -11.136  0.365E-01  0.365E-01
 -11.126  0.365E-01  0.365E-01
 -11.116  0.364E-01  0.364E-01
 -11.106  0.363E-01  0.363E-01
 -11.096  0.361E-01  0.361E-01
 -11.086  0.360E-01  0.360E-01
 -11.076  0.358E-01  0.358E-01
 -11.066  0.356E-01  0.356E-01
 -11.056  0.354E-01  0.354E-01
 -11.046  0.351E-01  0.351E-01
 -11.036  0.348E-01  0.348E-01
 -11.026  0.345E-01  0.345E-01
 -11.016  0.342E-01  0.342E-01
 -11.006  0.338E-01  0.338E-01
 -10.996  0.334E-01  0.334E-01
 -10.986  0.330E-01  0.330E-01
 -10.976  0.326E-01  0.326E-01
 -10.966  0.322E-01  0.322E-01
 -10.956  0.317E-01  0.317E-01
 -10.946  0.313E-01  0.313E-01
 -10.936  0.308E-01  0.308E-01
 -10.926  0.302E-01  0.302E-01
 -10.916  0.297E-01  0.297E-01
 -10.906  0.292E-01  0.292E-01
 -10.896  0.286E-01  0.286E-01
 -10.886  0.280E-01  0.280E-01
 -10.876  0.275E-01  0.275E-01
 -10.866  0.269E-01  0.269E-01
 -10.856  0.263E-01  0.263E-01
 -10.846  0.256E-01  0.256E-01
 -10.836  0.250E-01  0.250E-01
 -10.826  0.244E-01  0.244E-01
 -10.816  0.237E-01  0.237E-01
 -10.806  0.231E-01  0.231E-01
 -10.796  0.224E-01  0.224E-01
 -10.786  0.218E-01  0.218E-01
 -10.776  0.211E-01  0.211E-01
 -10.766  0.205E-01  0.205E-01
 -10.756  0.198E-01  0.198E-01
 -10.746  0.191E-01  0.191E-01
 -10.736  0.185E-01  0.185E-01
 -10.726  0.178E-01  0.178E-01
 -10.716  0.171E-01  0.171E-01
 -10.706  0.165E-01  0.165E-01
 -10.696  0.158E-01  0.158E-01
 -10.686  0.152E-01  0.152E-01
 -10.676  0.145E-01  0.145E-01
 -10.666  0.139E-01  0.139E-01
 -10.656  0.132E-01  0.132E-01
 -10.646  0.126E-01  0.126E-01
 -10.636  0.119E-01  0.119E-01
 -10.626  0.113E-01  0.113E-01
 -10.616  0.107E-01  0.107E-01
 -10.606  0.101E-01  0.101E-01
 -10.596  0.952E-02  0.952E-02
 -10.586  0.893E-02  0.893E-02
 -10.576  0.836E-02  0.836E-02
 -10.566  0.779E-02  0.779E-02
 -10.556  0.724E-02  0.724E-02
 -10.546  0.670E-02  0.670E-02
 -10.536  0.616E-02  0.616E-02
 -10.526  0.565E-02  0.565E-02
 -10.516  0.514E-02  0.514E-02
 -10.506  0.465E-02  0.465E-02
 -10.496  0.417E-02  0.417E-02
 -10.486  0.370E-02  0.370E-02
 -10.476  0.325E-02  0.325E-02
 -10.466  0.281E-02  0.281E-02
 -10.456  0.238E-02  0.238E-02
 -10.446  0.197E-02  0.197E-02
 -10.436  0.158E-02  0.158E-02
 -10.426  0.120E-02  0.120E-02
 -10.416  0.833E-03  0.833E-03
 -10.406  0.482E-03  0.482E-03
 -10.396  0.147E-03  0.147E-03
 -10.386 -0.173E-03 -0.173E-03
 -10.376 -0.477E-03 -0.477E-03
 -10.366 -0.766E-03 -0.766E-03
 -10.356 -0.104E-02 -0.104E-02
 -10.346 -0.129E-02 -0.129E-02
 -10.336 -0.153E-02 -0.153E-02
 -10.326 -0.176E-02 -0.176E-02
 -10.316 -0.197E-02 -0.197E-02
 -10.306 -0.216E-02 -0.216E-02
 -10.296 -0.233E-02 -0.233E-02
 -10.286 -0.249E-02 -0.249E-02
 -10.276 -0.263E-02 -0.263E-02
 -10.266 -0.276E-02 -0.276E-02
 -10.256 -0.286E-02 -0.286E-02
 -10.246 -0.295E-02 -0.295E-02
 -10.236 -0.303E-02 -0.303E-02
 -10.226 -0.308E-02 -0.308E-02
 -10.216 -0.312E-02 -0.312E-02
 -10.206 -0.314E-02 -0.314E-02
 -10.196 -0.314E-02 -0.314E-02
 -10.186 -0.313E-02 -0.313E-02
 -10.176 -0.309E-02 -0.309E-02
 -10.166 -0.304E-02 -0.304E-02
 -10.156 -0.297E-02 -0.297E-02
 -10.146 -0.289E-02 -0.289E-02
 -10.136 -0.278E-02 -0.278E-02
 -10.126 -0.266E-02 -0.266E-02
 -10.116 -0.252E-02 -0.252E-02
 -10.106 -0.235E-02 -0.235E-02
 -10.096 -0.218E-02 -0.218E-02
 -10.086 -0.198E-02 -0.198E-02
 -10.076 -0.176E-02 -0.176E-02
 -10.066 -0.152E-02 -0.152E-02
 -10.056 -0.127E-02 -0.127E-02
 -10.046 -0.995E-03 -0.995E-03
 -10.036 -0.702E-03 -0.702E-03
 -10.026 -0.390E-03 -0.390E-03
 -10.016 -0.594E-04 -0.594E-04
 -10.006  0.291E-03  0.291E-03
  -9.996  0.660E-03  0.660E-03
  -9.986  0.105E-02  0.105E-02
  -9.976  0.145E-02  0.145E-02
  -9.966  0.188E-02  0.188E-02
  -9.956  0.233E-02  0.233E-02
  -9.946  0.279E-02  0.279E-02
  -9.936  0.327E-02  0.327E-02
  -9.926  0.377E-02  0.377E-02
  -9.916  0.429E-02  0.429E-02
  -9.906  0.483E-02  0.483E-02
  -9.896  0.538E-02  0.538E-02
  -9.886  0.596E-02  0.596E-02
  -9.876  0.655E-02  0.655E-02
  -9.866  0.715E-02  0.715E-02
  -9.856  0.778E-02  0.778E-02
  -9.846  0.842E-02  0.842E-02
  -9.836  0.907E-02  0.907E-02
  -9.826  0.975E-02  0.975E-02
  -9.816  0.104E-01  0.104E-01
  -9.806  0.111E-01  0.111E-01
  -9.796  0.119E-01  0.119E-01
  -9.786  0.126E-01  0.126E-01
  -9.776  0.133E-01  0.133E-01
  -9.766  0.141E-01  0.141E-01
  -9.756  0.149E-01  0.149E-01
  -9.746  0.156E-01  0.156E-01
  -9.736  0.164E-01  0.164E-01
  -9.726  0.172E-01  0.172E-01
  -9.716  0.180E-01  0.180E-01
  -9.706  0.189E-01  0.189E-01
  -9.696  0.197E-01  0.197E-01
  -9.686  0.205E-01  0.205E-01
  -9.676  0.214E-01  0.214E-01
  -9.666  0.222E-01  0.222E-01
  -9.656  0.231E-01  0.231E-01
  -9.646  0.239E-01  0.239E-01
  -9.636  0.248E-01  0.248E-01
  -9.626  0.257E-01  0.257E-01
  -9.616  0.266E-01  0.266E-01
  -9.606  0.274E-01  0.274E-01
  -9.596  0.283E-01  0.283E-01
  -9.586  0.292E-01  0.292E-01
  -9.576  0.300E-01  0.300E-01
  -9.566  0.309E-01  0.309E-01
  -9.556  0.318E-01  0.318E-01
  -9.546  0.327E-01  0.327E-01
  -9.536  0.335E-01  0.335E-01
  -9.526  0.344E-01  0.344E-01
  -9.516  0.352E-01  0.352E-01
  -9.506  0.361E-01  0.361E-01
  -9.496  0.369E-01  0.369E-01
  -9.486  0.377E-01  0.377E-01
  -9.476  0.386E-01  0.386E-01
  -9.466  0.394E-01  0.394E-01
  -9.456  0.402E-01  0.402E-01
  -9.446  0.410E-01  0.410E-01
  -9.436  0.418E-01  0.418E-01
  -9.426  0.426E-01  0.426E-01
  -9.416  0.433E-01  0.433E-01
  -9.406  0.441E-01  0.441E-01
  -9.396  0.448E-01  0.448E-01
  -9.386  0.456E-01  0.456E-01
  -9.376  0.463E-01  0.463E-01
  -9.366  0.470E-01  0.470E-01
  -9.356  0.477E-01  0.477E-01
  -9.346  0.483E-01  0.483E-01
  -9.336  0.490E-01  0.490E-01
  -9.326  0.497E-01  0.497E-01
  -9.316  0.503E-01  0.503E-01
  -9.306  0.509E-01  0.509E-01
  -9.296  0.515E-01  0.515E-01
  -9.286  0.521E-01  0.521E-01
  -9.276  0.527E-01  0.527E-01
  -9.266  0.533E-01  0.533E-01
  -9.256  0.538E-01  0.538E-01
  -9.246  0.544E-01  0.544E-01
  -9.236  0.549E-01  0.549E-01
  -9.226  0.554E-01  0.554E-01
  -9.216  0.559E-01  0.559E-01
  -9.206  0.564E-01  0.564E-01
  -9.196  0.569E-01  0.569E-01
  -9.186  0.574E-01  0.574E-01
  -9.176  0.578E-01  0.578E-01
  -9.166  0.583E-01  0.583E-01
  -9.156  0.587E-01  0.587E-01
  -9.146  0.591E-01  0.591E-01
  -9.136  0.596E-01  0.596E-01
  -9.126  0.600E-01  0.600E-01
  -9.116  0.604E-01  0.604E-01
  -9.106  0.608E-01  0.608E-01
  -9.096  0.611E-01  0.611E-01
  -9.086  0.615E-01  0.615E-01
  -9.076  0.619E-01  0.619E-01
  -9.066  0.622E-01  0.622E-01
  -9.056  0.626E-01  0.626E-01
  -9.046  0.629E-01  0.629E-01
  -9.036  0.633E-01  0.633E-01
  -9.026  0.636E-01  0.636E-01
  -9.016  0.640E-01  0.640E-01
  -9.006  0.643E-01  0.643E-01
  -8.996  0.646E-01  0.646E-01
  -8.986  0.649E-01  0.649E-01
  -8.976  0.652E-01  0.652E-01
  -8.966  0.655E-01  0.655E-01
  -8.956  0.658E-01  0.658E-01
  -8.946  0.661E-01  0.661E-01
  -8.936  0.664E-01  0.664E-01
  -8.926  0.667E-01  0.667E-01
  -8.916  0.670E-01  0.670E-01
  -8.906  0.673E-01  0.673E-01
  -8.896  0.676E-01  0.676E-01
  -8.886  0.679E-01  0.679E-01
  -8.876  0.681E-01  0.681E-01
  -8.866  0.684E-01  0.684E-01
  -8.856  0.687E-01  0.687E-01
  -8.846  0.689E-01  0.689E-01
  -8.836  0.692E-01  0.692E-01
  -8.826  0.694E-01  0.694E-01
  -8.816  0.697E-01  0.697E-01
  -8.806  0.699E-01  0.699E-01
  -8.796  0.702E-01  0.702E-01
  -8.786  0.704E-01  0.704E-01
  -8.776  0.706E-01  0.706E-01
  -8.766  0.708E-01  0.708E-01
  -8.756  0.710E-01  0.710E-01
  -8.746  0.712E-01  0.712E-01
  -8.736  0.713E-01  0.713E-01
  -8.726  0.715E-01  0.715E-01
  -8.716  0.717E-01  0.717E-01
  -8.706  0.718E-01  0.718E-01
  -8.696  0.719E-01  0.719E-01
  -8.686  0.720E-01  0.720E-01
  -8.676  0.721E-01  0.721E-01
  -8.666  0.722E-01  0.722E-01
  -8.656  0.723E-01  0.723E-01
  -8.646  0.723E-01  0.723E-01
  -8.636  0.724E-01  0.724E-01
  -8.626  0.724E-01  0.724E-01
  -8.616  0.724E-01  0.724E-01
  -8.606  0.723E-01  0.723E-01
  -8.596  0.723E-01  0.723E-01
  -8.586  0.722E-01  0.722E-01
  -8.576  0.721E-01  0.721E-01
  -8.566  0.720E-01  0.720E-01
  -8.556  0.719E-01  0.719E-01
  -8.546  0.717E-01  0.717E-01
  -8.536  0.715E-01  0.715E-01
  -8.526  0.713E-01  0.713E-01
  -8.516  0.711E-01  0.711E-01
  -8.506  0.708E-01  0.708E-01
  -8.496  0.705E-01  0.705E-01
  -8.486  0.702E-01  0.702E-01
  -8.476  0.698E-01  0.698E-01
  -8.466  0.695E-01  0.695E-01
  -8.456  0.691E-01  0.691E-01
  -8.446  0.686E-01  0.686E-01
  -8.436  0.682E-01  0.682E-01
  -8.426  0.677E-01  0.677E-01
  -8.416  0.672E-01  0.672E-01
  -8.406  0.666E-01  0.666E-01
  -8.396  0.661E-01  0.661E-01
  -8.386  0.655E-01  0.655E-01
  -8.376  0.649E-01  0.649E-01
  -8.366  0.642E-01  0.642E-01
  -8.356  0.635E-01  0.635E-01
  -8.346  0.628E-01  0.628E-01
  -8.336  0.621E-01  0.621E-01
  -8.326  0.614E-01  0.614E-01
  -8.316  0.606E-01  0.606E-01
  -8.306  0.598E-01  0.598E-01
  -8.296  0.590E-01  0.590E-01
  -8.286  0.581E-01  0.581E-01
  -8.276  0.572E-01  0.572E-01
  -8.266  0.564E-01  0.564E-01
  -8.256  0.554E-01  0.554E-01
  -8.246  0.545E-01  0.545E-01
  -8.236  0.536E-01  0.536E-01
  -8.226  0.526E-01  0.526E-01
  -8.216  0.516E-01  0.516E-01
  -8.206  0.506E-01  0.506E-01
  -8.196  0.496E-01  0.496E-01
  -8.186  0.486E-01  0.486E-01
  -8.176  0.476E-01  0.476E-01
  -8.166  0.465E-01  0.465E-01
  -8.156  0.455E-01  0.455E-01
  -8.146  0.444E-01  0.444E-01
  -8.136  0.433E-01  0.433E-01
  -8.126  0.422E-01  0.422E-01
  -8.116  0.411E-01  0.411E-01
  -8.106  0.401E-01  0.401E-01
  -8.096  0.390E-01  0.390E-01
  -8.086  0.379E-01  0.379E-01
  -8.076  0.368E-01  0.368E-01
  -8.066  0.357E-01  0.357E-01
  -8.056  0.346E-01  0.346E-01
  -8.046  0.335E-01  0.335E-01
  -8.036  0.324E-01  0.324E-01
  -8.026  0.313E-01  0.313E-01
  -8.016  0.302E-01  0.302E-01
  -8.006  0.292E-01  0.292E-01
  -7.996  0.281E-01  0.281E-01
  -7.986  0.271E-01  0.271E-01
  -7.976  0.260E-01  0.260E-01
  -7.966  0.250E-01  0.250E-01
  -7.956  0.240E-01  0.240E-01
  -7.946  0.230E-01  0.230E-01
  -7.936  0.220E-01  0.220E-01
  -7.926  0.210E-01  0.210E-01
  -7.916  0.200E-01  0.200E-01
  -7.906  0.191E-01  0.191E-01
  -7.896  0.182E-01  0.182E-01
  -7.886  0.172E-01  0.172E-01
  -7.876  0.163E-01  0.163E-01
  -7.866  0.155E-01  0.155E-01
  -7.856  0.146E-01  0.146E-01
  -7.846  0.138E-01  0.138E-01
  -7.836  0.130E-01  0.130E-01
  -7.826  0.122E-01  0.122E-01
  -7.816  0.114E-01  0.114E-01
  -7.806  0.106E-01  0.106E-01
  -7.796  0.988E-02  0.988E-02
  -7.786  0.917E-02  0.917E-02
  -7.776  0.848E-02  0.848E-02
  -7.766  0.780E-02  0.780E-02
  -7.756  0.716E-02  0.716E-02
  -7.746  0.653E-02  0.653E-02
  -7.736  0.592E-02  0.592E-02
  -7.726  0.534E-02  0.534E-02
  -7.716  0.478E-02  0.478E-02
  -7.706  0.424E-02  0.424E-02
  -7.696  0.373E-02  0.373E-02
  -7.686  0.323E-02  0.323E-02
  -7.676  0.276E-02  0.276E-02
  -7.666  0.231E-02  0.231E-02
  -7.656  0.188E-02  0.188E-02
  -7.646  0.147E-02  0.147E-02
  -7.636  0.108E-02  0.108E-02
  -7.626  0.718E-03  0.718E-03
  -7.616  0.372E-03  0.372E-03
  -7.606  0.466E-04  0.466E-04
  -7.596 -0.259E-03 -0.259E-03
  -7.586 -0.545E-03 -0.545E-03
  -7.576 -0.812E-03 -0.812E-03
  -7.566 -0.106E-02 -0.106E-02
  -7.556 -0.129E-02 -0.129E-02
  -7.546 -0.150E-02 -0.150E-02
  -7.536 -0.169E-02 -0.169E-02
  -7.526 -0.187E-02 -0.187E-02
  -7.516 -0.203E-02 -0.203E-02
  -7.506 -0.217E-02 -0.217E-02
  -7.496 -0.230E-02 -0.230E-02
  -7.486 -0.241E-02 -0.241E-02
  -7.476 -0.250E-02 -0.250E-02
  -7.466 -0.258E-02 -0.258E-02
  -7.456 -0.265E-02 -0.265E-02
  -7.446 -0.270E-02 -0.270E-02
  -7.436 -0.273E-02 -0.273E-02
  -7.426 -0.276E-02 -0.276E-02
  -7.416 -0.277E-02 -0.277E-02
  -7.406 -0.277E-02 -0.277E-02
  -7.396 -0.275E-02 -0.275E-02
  -7.386 -0.273E-02 -0.273E-02
  -7.376 -0.269E-02 -0.269E-02
  -7.366 -0.264E-02 -0.264E-02
  -7.356 -0.259E-02 -0.259E-02
  -7.346 -0.252E-02 -0.252E-02
  -7.336 -0.244E-02 -0.244E-02
  -7.326 -0.235E-02 -0.235E-02
  -7.316 -0.225E-02 -0.225E-02
  -7.306 -0.215E-02 -0.215E-02
  -7.296 -0.203E-02 -0.203E-02
  -7.286 -0.191E-02 -0.191E-02
  -7.276 -0.178E-02 -0.178E-02
  -7.266 -0.165E-02 -0.165E-02
  -7.256 -0.150E-02 -0.150E-02
  -7.246 -0.135E-02 -0.135E-02
  -7.236 -0.119E-02 -0.119E-02
  -7.226 -0.103E-02 -0.103E-02
  -7.216 -0.857E-03 -0.857E-03
  -7.206 -0.681E-03 -0.681E-03
  -7.196 -0.500E-03 -0.500E-03
  -7.186 -0.313E-03 -0.313E-03
  -7.176 -0.122E-03 -0.122E-03
  -7.166  0.742E-04  0.742E-04
  -7.156  0.275E-03  0.275E-03
  -7.146  0.479E-03  0.479E-03
  -7.136  0.688E-03  0.688E-03
  -7.126  0.900E-03  0.900E-03
  -7.116  0.112E-02  0.112E-02
  -7.106  0.133E-02  0.133E-02
  -7.096  0.156E-02  0.156E-02
  -7.086  0.178E-02  0.178E-02
  -7.076  0.201E-02  0.201E-02
  -7.066  0.224E-02  0.224E-02
  -7.056  0.247E-02  0.247E-02
  -7.046  0.270E-02  0.270E-02
  -7.036  0.293E-02  0.293E-02
  -7.026  0.317E-02  0.317E-02
  -7.016  0.341E-02  0.341E-02
  -7.006  0.364E-02  0.364E-02
  -6.996  0.388E-02  0.388E-02
  -6.986  0.412E-02  0.412E-02
  -6.976  0.436E-02  0.436E-02
  -6.966  0.460E-02  0.460E-02
  -6.956  0.483E-02  0.483E-02
  -6.946  0.507E-02  0.507E-02
  -6.936  0.531E-02  0.531E-02
  -6.926  0.554E-02  0.554E-02
  -6.916  0.578E-02  0.578E-02
  -6.906  0.601E-02  0.601E-02
  -6.896  0.624E-02  0.624E-02
  -6.886  0.647E-02  0.647E-02
  -6.876  0.670E-02  0.670E-02
  -6.866  0.693E-02  0.693E-02
  -6.856  0.715E-02  0.715E-02
  -6.846  0.737E-02  0.737E-02
  -6.836  0.758E-02  0.758E-02
  -6.826  0.779E-02  0.779E-02
  -6.816  0.800E-02  0.800E-02
  -6.806  0.821E-02  0.821E-02
  -6.796  0.841E-02  0.841E-02
  -6.786  0.861E-02  0.861E-02
  -6.776  0.880E-02  0.880E-02
  -6.766  0.898E-02  0.898E-02
  -6.756  0.917E-02  0.917E-02
  -6.746  0.934E-02  0.934E-02
  -6.736  0.951E-02  0.951E-02
  -6.726  0.968E-02  0.968E-02
  -6.716  0.984E-02  0.984E-02
  -6.706  0.999E-02  0.999E-02
  -6.696  0.101E-01  0.101E-01
  -6.686  0.103E-01  0.103E-01
  -6.676  0.104E-01  0.104E-01
  -6.666  0.105E-01  0.105E-01
  -6.656  0.107E-01  0.107E-01
  -6.646  0.108E-01  0.108E-01
  -6.636  0.109E-01  0.109E-01
  -6.626  0.110E-01  0.110E-01
  -6.616  0.111E-01  0.111E-01
  -6.606  0.112E-01  0.112E-01
  -6.596  0.112E-01  0.112E-01
  -6.586  0.113E-01  0.113E-01
  -6.576  0.114E-01  0.114E-01
  -6.566  0.114E-01  0.114E-01
  -6.556  0.115E-01  0.115E-01
  -6.546  0.115E-01  0.115E-01
  -6.536  0.115E-01  0.115E-01
  -6.526  0.115E-01  0.115E-01
  -6.516  0.115E-01  0.115E-01
  -6.506  0.115E-01  0.115E-01
  -6.496  0.115E-01  0.115E-01
  -6.486  0.115E-01  0.115E-01
  -6.476  0.115E-01  0.115E-01
  -6.466  0.115E-01  0.115E-01
  -6.456  0.114E-01  0.114E-01
  -6.446  0.114E-01  0.114E-01
  -6.436  0.113E-01  0.113E-01
  -6.426  0.113E-01  0.113E-01
  -6.416  0.112E-01  0.112E-01
  -6.406  0.111E-01  0.111E-01
  -6.396  0.110E-01  0.110E-01
  -6.386  0.110E-01  0.110E-01
  -6.376  0.109E-01  0.109E-01
  -6.366  0.108E-01  0.108E-01
  -6.356  0.106E-01  0.106E-01
  -6.346  0.105E-01  0.105E-01
  -6.336  0.104E-01  0.104E-01
  -6.326  0.103E-01  0.103E-01
  -6.316  0.101E-01  0.101E-01
  -6.306  0.999E-02  0.999E-02
  -6.296  0.984E-02  0.984E-02
  -6.286  0.969E-02  0.969E-02
  -6.276  0.953E-02  0.953E-02
  -6.266  0.937E-02  0.937E-02
  -6.256  0.920E-02  0.920E-02
  -6.246  0.903E-02  0.903E-02
  -6.236  0.886E-02  0.886E-02
  -6.226  0.868E-02  0.868E-02
  -6.216  0.850E-02  0.850E-02
  -6.206  0.831E-02  0.831E-02
  -6.196  0.813E-02  0.813E-02
  -6.186  0.794E-02  0.794E-02
  -6.176  0.774E-02  0.774E-02
  -6.166  0.755E-02  0.755E-02
  -6.156  0.735E-02  0.735E-02
  -6.146  0.716E-02  0.716E-02
  -6.136  0.696E-02  0.696E-02
  -6.126  0.676E-02  0.676E-02
  -6.116  0.656E-02  0.656E-02
  -6.106  0.636E-02  0.636E-02
  -6.096  0.616E-02  0.616E-02
  -6.086  0.596E-02  0.596E-02
  -6.076  0.576E-02  0.576E-02
  -6.066  0.556E-02  0.556E-02
  -6.056  0.537E-02  0.537E-02
  -6.046  0.517E-02  0.517E-02
  -6.036  0.498E-02  0.498E-02
  -6.026  0.478E-02  0.478E-02
  -6.016  0.459E-02  0.459E-02
  -6.006  0.440E-02  0.440E-02
  -5.996  0.421E-02  0.421E-02
  -5.986  0.403E-02  0.403E-02
  -5.976  0.385E-02  0.385E-02
  -5.966  0.367E-02  0.367E-02
  -5.956  0.349E-02  0.349E-02
  -5.946  0.332E-02  0.332E-02
  -5.936  0.315E-02  0.315E-02
  -5.926  0.298E-02  0.298E-02
  -5.916  0.281E-02  0.281E-02
  -5.906  0.265E-02  0.265E-02
  -5.896  0.250E-02  0.250E-02
  -5.886  0.234E-02  0.234E-02
  -5.876  0.220E-02  0.220E-02
  -5.866  0.205E-02  0.205E-02
  -5.856  0.191E-02  0.191E-02
  -5.846  0.177E-02  0.177E-02
  -5.836  0.164E-02  0.164E-02
  -5.826  0.151E-02  0.151E-02
  -5.816  0.138E-02  0.138E-02
  -5.806  0.126E-02  0.126E-02
  -5.796  0.115E-02  0.115E-02
  -5.786  0.103E-02  0.103E-02
  -5.776  0.925E-03  0.925E-03
  -5.766  0.821E-03  0.821E-03
  -5.756  0.721E-03  0.721E-03
  -5.746  0.625E-03  0.625E-03
  -5.736  0.533E-03  0.533E-03
  -5.726  0.445E-03  0.445E-03
  -5.716  0.361E-03  0.361E-03
  -5.706  0.281E-03  0.281E-03
  -5.696  0.205E-03  0.205E-03
  -5.686  0.133E-03  0.133E-03
  -5.676  0.642E-04  0.642E-04
  -5.666 -0.327E-06 -0.327E-06
  -5.656 -0.612E-04 -0.612E-04
  -5.646 -0.118E-03 -0.118E-03
  -5.636 -0.172E-03 -0.172E-03
  -5.626 -0.222E-03 -0.222E-03
  -5.616 -0.269E-03 -0.269E-03
  -5.606 -0.312E-03 -0.312E-03
  -5.596 -0.352E-03 -0.352E-03
  -5.586 -0.388E-03 -0.388E-03
  -5.576 -0.422E-03 -0.422E-03
  -5.566 -0.452E-03 -0.452E-03
  -5.556 -0.480E-03 -0.480E-03
  -5.546 -0.504E-03 -0.504E-03
  -5.536 -0.525E-03 -0.525E-03
  -5.526 -0.544E-03 -0.544E-03
  -5.516 -0.560E-03 -0.560E-03
  -5.506 -0.573E-03 -0.573E-03
  -5.496 -0.583E-03 -0.583E-03
  -5.486 -0.591E-03 -0.591E-03
  -5.476 -0.596E-03 -0.596E-03
  -5.466 -0.599E-03 -0.599E-03
  -5.456 -0.599E-03 -0.599E-03
  -5.446 -0.597E-03 -0.597E-03
  -5.436 -0.593E-03 -0.593E-03
  -5.426 -0.586E-03 -0.586E-03
  -5.416 -0.577E-03 -0.577E-03
  -5.406 -0.566E-03 -0.566E-03
  -5.396 -0.552E-03 -0.552E-03
  -5.386 -0.537E-03 -0.537E-03
  -5.376 -0.519E-03 -0.519E-03
  -5.366 -0.499E-03 -0.499E-03
  -5.356 -0.477E-03 -0.477E-03
  -5.346 -0.452E-03 -0.452E-03
  -5.336 -0.426E-03 -0.426E-03
  -5.326 -0.397E-03 -0.397E-03
  -5.316 -0.367E-03 -0.367E-03
  -5.306 -0.334E-03 -0.334E-03
  -5.296 -0.299E-03 -0.299E-03
  -5.286 -0.262E-03 -0.262E-03
  -5.276 -0.223E-03 -0.223E-03
  -5.266 -0.182E-03 -0.182E-03
  -5.256 -0.139E-03 -0.139E-03
  -5.246 -0.938E-04 -0.938E-04
  -5.236 -0.463E-04 -0.463E-04
  -5.226  0.335E-05  0.335E-05
  -5.216  0.552E-04  0.552E-04
  -5.206  0.109E-03  0.109E-03
  -5.196  0.165E-03  0.165E-03
  -5.186  0.224E-03  0.224E-03
  -5.176  0.284E-03  0.284E-03
  -5.166  0.347E-03  0.347E-03
  -5.156  0.412E-03  0.412E-03
  -5.146  0.480E-03  0.480E-03
  -5.136  0.549E-03  0.549E-03
  -5.126  0.621E-03  0.621E-03
  -5.116  0.696E-03  0.696E-03
  -5.106  0.772E-03  0.772E-03
  -5.096  0.851E-03  0.851E-03
  -5.086  0.932E-03  0.932E-03
  -5.076  0.102E-02  0.102E-02
  -5.066  0.110E-02  0.110E-02
  -5.056  0.119E-02  0.119E-02
  -5.046  0.128E-02  0.128E-02
  -5.036  0.137E-02  0.137E-02
  -5.026  0.147E-02  0.147E-02
  -5.016  0.156E-02  0.156E-02
  -5.006  0.166E-02  0.166E-02
  -4.996  0.176E-02  0.176E-02
  -4.986  0.187E-02  0.187E-02
  -4.976  0.197E-02  0.197E-02
  -4.966  0.208E-02  0.208E-02
  -4.956  0.219E-02  0.219E-02
  -4.946  0.230E-02  0.230E-02
  -4.936  0.241E-02  0.241E-02
  -4.926  0.252E-02  0.252E-02
  -4.916  0.264E-02  0.264E-02
  -4.906  0.276E-02  0.276E-02
  -4.896  0.288E-02  0.288E-02
  -4.886  0.300E-02  0.300E-02
  -4.876  0.312E-02  0.312E-02
  -4.866  0.324E-02  0.324E-02
  -4.856  0.337E-02  0.337E-02
  -4.846  0.349E-02  0.349E-02
  -4.836  0.362E-02  0.362E-02
  -4.826  0.374E-02  0.374E-02
  -4.816  0.387E-02  0.387E-02
  -4.806  0.399E-02  0.399E-02
  -4.796  0.412E-02  0.412E-02
  -4.786  0.425E-02  0.425E-02
  -4.776  0.438E-02  0.438E-02
  -4.766  0.450E-02  0.450E-02
  -4.756  0.463E-02  0.463E-02
  -4.746  0.476E-02  0.476E-02
  -4.736  0.488E-02  0.488E-02
  -4.726  0.501E-02  0.501E-02
  -4.716  0.513E-02  0.513E-02
  -4.706  0.525E-02  0.525E-02
  -4.696  0.537E-02  0.537E-02
  -4.686  0.549E-02  0.549E-02
  -4.676  0.561E-02  0.561E-02
  -4.666  0.572E-02  0.572E-02
  -4.656  0.584E-02  0.584E-02
  -4.646  0.595E-02  0.595E-02
  -4.636  0.606E-02  0.606E-02
  -4.626  0.617E-02  0.617E-02
  -4.616  0.627E-02  0.627E-02
  -4.606  0.637E-02  0.637E-02
  -4.596  0.647E-02  0.647E-02
  -4.586  0.656E-02  0.656E-02
  -4.576  0.665E-02  0.665E-02
  -4.566  0.674E-02  0.674E-02
  -4.556  0.683E-02  0.683E-02
  -4.546  0.691E-02  0.691E-02
  -4.536  0.698E-02  0.698E-02
  -4.526  0.706E-02  0.706E-02
  -4.516  0.712E-02  0.712E-02
  -4.506  0.719E-02  0.719E-02
  -4.496  0.725E-02  0.725E-02
  -4.486  0.730E-02  0.730E-02
  -4.476  0.735E-02  0.735E-02
  -4.466  0.740E-02  0.740E-02
  -4.456  0.744E-02  0.744E-02
  -4.446  0.748E-02  0.748E-02
  -4.436  0.751E-02  0.751E-02
  -4.426  0.754E-02  0.754E-02
  -4.416  0.756E-02  0.756E-02
  -4.406  0.758E-02  0.758E-02
  -4.396  0.759E-02  0.759E-02
  -4.386  0.760E-02  0.760E-02
  -4.376  0.760E-02  0.760E-02
  -4.366  0.759E-02  0.759E-02
  -4.356  0.759E-02  0.759E-02
  -4.346  0.757E-02  0.757E-02
  -4.336  0.755E-02  0.755E-02
  -4.326  0.753E-02  0.753E-02
  -4.316  0.750E-02  0.750E-02
  -4.306  0.747E-02  0.747E-02
  -4.296  0.743E-02  0.743E-02
  -4.286  0.739E-02  0.739E-02
  -4.276  0.734E-02  0.734E-02
  -4.266  0.729E-02  0.729E-02
  -4.256  0.724E-02  0.724E-02
  -4.246  0.718E-02  0.718E-02
  -4.236  0.711E-02  0.711E-02
  -4.226  0.705E-02  0.705E-02
  -4.216  0.697E-02  0.697E-02
  -4.206  0.690E-02  0.690E-02
  -4.196  0.682E-02  0.682E-02
  -4.186  0.673E-02  0.673E-02
  -4.176  0.665E-02  0.665E-02
  -4.166  0.656E-02  0.656E-02
  -4.156  0.646E-02  0.646E-02
  -4.146  0.637E-02  0.637E-02
  -4.136  0.627E-02  0.627E-02
  -4.126  0.617E-02  0.617E-02
  -4.116  0.606E-02  0.606E-02
  -4.106  0.595E-02  0.595E-02
  -4.096  0.585E-02  0.585E-02
  -4.086  0.574E-02  0.574E-02
  -4.076  0.562E-02  0.562E-02
  -4.066  0.551E-02  0.551E-02
  -4.056  0.539E-02  0.539E-02
  -4.046  0.528E-02  0.528E-02
  -4.036  0.516E-02  0.516E-02
  -4.026  0.504E-02  0.504E-02
  -4.016  0.492E-02  0.492E-02
  -4.006  0.480E-02  0.480E-02
  -3.996  0.468E-02  0.468E-02
  -3.986  0.456E-02  0.456E-02
  -3.976  0.444E-02  0.444E-02
  -3.966  0.432E-02  0.432E-02
  -3.956  0.420E-02  0.420E-02
  -3.946  0.408E-02  0.408E-02
  -3.936  0.396E-02  0.396E-02
  -3.926  0.384E-02  0.384E-02
  -3.916  0.372E-02  0.372E-02
  -3.906  0.360E-02  0.360E-02
  -3.896  0.349E-02  0.349E-02
  -3.886  0.337E-02  0.337E-02
  -3.876  0.326E-02  0.326E-02
  -3.866  0.315E-02  0.315E-02
  -3.856  0.304E-02  0.304E-02
  -3.846  0.293E-02  0.293E-02
  -3.836  0.282E-02  0.282E-02
  -3.826  0.272E-02  0.272E-02
  -3.816  0.261E-02  0.261E-02
  -3.806  0.251E-02  0.251E-02
  -3.796  0.241E-02  0.241E-02
  -3.786  0.231E-02  0.231E-02
  -3.776  0.222E-02  0.222E-02
  -3.766  0.213E-02  0.213E-02
  -3.756  0.204E-02  0.204E-02
  -3.746  0.195E-02  0.195E-02
  -3.736  0.186E-02  0.186E-02
  -3.726  0.178E-02  0.178E-02
  -3.716  0.170E-02  0.170E-02
  -3.706  0.162E-02  0.162E-02
  -3.696  0.154E-02  0.154E-02
  -3.686  0.147E-02  0.147E-02
  -3.676  0.140E-02  0.140E-02
  -3.666  0.133E-02  0.133E-02
  -3.656  0.126E-02  0.126E-02
  -3.646  0.120E-02  0.120E-02
  -3.636  0.114E-02  0.114E-02
  -3.626  0.108E-02  0.108E-02
  -3.616  0.102E-02  0.102E-02
  -3.606  0.967E-03  0.967E-03
  -3.596  0.915E-03  0.915E-03
  -3.586  0.865E-03  0.865E-03
  -3.576  0.818E-03  0.818E-03
  -3.566  0.773E-03  0.773E-03
  -3.556  0.730E-03  0.730E-03
  -3.546  0.689E-03  0.689E-03
  -3.536  0.651E-03  0.651E-03
  -3.526  0.614E-03  0.614E-03
  -3.516  0.579E-03  0.579E-03
  -3.506  0.546E-03  0.546E-03
  -3.496  0.516E-03  0.516E-03
  -3.486  0.487E-03  0.487E-03
  -3.476  0.459E-03  0.459E-03
  -3.466  0.434E-03  0.434E-03
  -3.456  0.410E-03  0.410E-03
  -3.446  0.387E-03  0.387E-03
  -3.436  0.367E-03  0.367E-03
  -3.426  0.347E-03  0.347E-03
  -3.416  0.329E-03  0.329E-03
  -3.406  0.313E-03  0.313E-03
  -3.396  0.297E-03  0.297E-03
  -3.386  0.283E-03  0.283E-03
  -3.376  0.270E-03  0.270E-03
  -3.366  0.259E-03  0.259E-03
  -3.356  0.248E-03  0.248E-03
  -3.346  0.238E-03  0.238E-03
  -3.336  0.229E-03  0.229E-03
  -3.326  0.221E-03  0.221E-03
  -3.316  0.214E-03  0.214E-03
  -3.306  0.208E-03  0.208E-03
  -3.296  0.202E-03  0.202E-03
  -3.286  0.197E-03  0.197E-03
  -3.276  0.193E-03  0.193E-03
  -3.266  0.189E-03  0.189E-03
  -3.256  0.186E-03  0.186E-03
  -3.246  0.183E-03  0.183E-03
  -3.236  0.181E-03  0.181E-03
  -3.226  0.179E-03  0.179E-03
  -3.216  0.177E-03  0.177E-03
  -3.206  0.176E-03  0.176E-03
  -3.196  0.175E-03  0.175E-03
  -3.186  0.174E-03  0.174E-03
  -3.176  0.174E-03  0.174E-03
  -3.166  0.174E-03  0.174E-03
  -3.156  0.174E-03  0.174E-03
  -3.146  0.174E-03  0.174E-03
  -3.136  0.174E-03  0.174E-03
  -3.126  0.174E-03  0.174E-03
  -3.116  0.174E-03  0.174E-03
  -3.106  0.175E-03  0.175E-03
  -3.096  0.175E-03  0.175E-03
  -3.086  0.175E-03  0.175E-03
  -3.076  0.176E-03  0.176E-03
  -3.066  0.176E-03  0.176E-03
  -3.056  0.176E-03  0.176E-03
  -3.046  0.177E-03  0.177E-03
  -3.036  0.177E-03  0.177E-03
  -3.026  0.177E-03  0.177E-03
  -3.016  0.177E-03  0.177E-03
  -3.006  0.177E-03  0.177E-03
  -2.996  0.177E-03  0.177E-03
  -2.986  0.177E-03  0.177E-03
  -2.976  0.176E-03  0.176E-03
  -2.966  0.176E-03  0.176E-03
  -2.956  0.175E-03  0.175E-03
  -2.946  0.175E-03  0.175E-03
  -2.936  0.174E-03  0.174E-03
  -2.926  0.173E-03  0.173E-03
  -2.916  0.172E-03  0.172E-03
  -2.906  0.171E-03  0.171E-03
  -2.896  0.170E-03  0.170E-03
  -2.886  0.169E-03  0.169E-03
  -2.876  0.167E-03  0.167E-03
  -2.866  0.166E-03  0.166E-03
  -2.856  0.164E-03  0.164E-03
  -2.846  0.163E-03  0.163E-03
  -2.836  0.161E-03  0.161E-03
  -2.826  0.160E-03  0.160E-03
  -2.816  0.158E-03  0.158E-03
  -2.806  0.156E-03  0.156E-03
  -2.796  0.154E-03  0.154E-03
  -2.786  0.153E-03  0.153E-03
  -2.776  0.151E-03  0.151E-03
  -2.766  0.149E-03  0.149E-03
  -2.756  0.147E-03  0.147E-03
  -2.746  0.145E-03  0.145E-03
  -2.736  0.144E-03  0.144E-03
  -2.726  0.142E-03  0.142E-03
  -2.716  0.140E-03  0.140E-03
  -2.706  0.139E-03  0.139E-03
  -2.696  0.137E-03  0.137E-03
  -2.686  0.136E-03  0.136E-03
  -2.676  0.135E-03  0.135E-03
  -2.666  0.133E-03  0.133E-03
  -2.656  0.132E-03  0.132E-03
  -2.646  0.131E-03  0.131E-03
  -2.636  0.130E-03  0.130E-03
  -2.626  0.130E-03  0.130E-03
  -2.616  0.129E-03  0.129E-03
  -2.606  0.129E-03  0.129E-03
  -2.596  0.128E-03  0.128E-03
  -2.586  0.128E-03  0.128E-03
  -2.576  0.129E-03  0.129E-03
  -2.566  0.129E-03  0.129E-03
  -2.556  0.130E-03  0.130E-03
  -2.546  0.130E-03  0.130E-03
  -2.536  0.131E-03  0.131E-03
  -2.526  0.133E-03  0.133E-03
  -2.516  0.134E-03  0.134E-03
  -2.506  0.136E-03  0.136E-03
  -2.496  0.138E-03  0.138E-03
  -2.486  0.140E-03  0.140E-03
  -2.476  0.143E-03  0.143E-03
  -2.466  0.146E-03  0.146E-03
  -2.456  0.149E-03  0.149E-03
  -2.446  0.153E-03  0.153E-03
  -2.436  0.157E-03  0.157E-03
  -2.426  0.161E-03  0.161E-03
  -2.416  0.165E-03  0.165E-03
  -2.406  0.170E-03  0.170E-03
  -2.396  0.175E-03  0.175E-03
  -2.386  0.180E-03  0.180E-03
  -2.376  0.186E-03  0.186E-03
  -2.366  0.192E-03  0.192E-03
  -2.356  0.199E-03  0.199E-03
  -2.346  0.205E-03  0.205E-03
  -2.336  0.212E-03  0.212E-03
  -2.326  0.220E-03  0.220E-03
  -2.316  0.228E-03  0.228E-03
  -2.306  0.236E-03  0.236E-03
  -2.296  0.244E-03  0.244E-03
  -2.286  0.253E-03  0.253E-03
  -2.276  0.262E-03  0.262E-03
  -2.266  0.271E-03  0.271E-03
  -2.256  0.281E-03  0.281E-03
  -2.246  0.291E-03  0.291E-03
  -2.236  0.302E-03  0.302E-03
  -2.226  0.312E-03  0.312E-03
  -2.216  0.323E-03  0.323E-03
  -2.206  0.335E-03  0.335E-03
  -2.196  0.346E-03  0.346E-03
  -2.186  0.358E-03  0.358E-03
  -2.176  0.370E-03  0.370E-03
  -2.166  0.383E-03  0.383E-03
  -2.156  0.396E-03  0.396E-03
  -2.146  0.409E-03  0.409E-03
  -2.136  0.422E-03  0.422E-03
  -2.126  0.435E-03  0.435E-03
  -2.116  0.449E-03  0.449E-03
  -2.106  0.463E-03  0.463E-03
  -2.096  0.477E-03  0.477E-03
  -2.086  0.491E-03  0.491E-03
  -2.076  0.506E-03  0.506E-03
  -2.066  0.520E-03  0.520E-03
  -2.056  0.535E-03  0.535E-03
  -2.046  0.550E-03  0.550E-03
  -2.036  0.565E-03  0.565E-03
  -2.026  0.580E-03  0.580E-03
  -2.016  0.595E-03  0.595E-03
  -2.006  0.610E-03  0.610E-03
  -1.996  0.626E-03  0.626E-03
  -1.986  0.641E-03  0.641E-03
  -1.976  0.656E-03  0.656E-03
  -1.966  0.672E-03  0.672E-03
  -1.956  0.687E-03  0.687E-03
  -1.946  0.702E-03  0.702E-03
  -1.936  0.718E-03  0.718E-03
  -1.926  0.733E-03  0.733E-03
  -1.916  0.748E-03  0.748E-03
  -1.906  0.763E-03  0.763E-03
  -1.896  0.778E-03  0.778E-03
  -1.886  0.792E-03  0.792E-03
  -1.876  0.807E-03  0.807E-03
  -1.866  0.821E-03  0.821E-03
  -1.856  0.835E-03  0.835E-03
  -1.846  0.849E-03  0.849E-03
  -1.836  0.863E-03  0.863E-03
  -1.826  0.876E-03  0.876E-03
  -1.816  0.889E-03  0.889E-03
  -1.806  0.902E-03  0.902E-03
  -1.796  0.915E-03  0.915E-03
  -1.786  0.927E-03  0.927E-03
  -1.776  0.939E-03  0.939E-03
  -1.766  0.950E-03  0.950E-03
  -1.756  0.961E-03  0.961E-03
  -1.746  0.972E-03  0.972E-03
  -1.736  0.982E-03  0.982E-03
  -1.726  0.992E-03  0.992E-03
  -1.716  0.100E-02  0.100E-02
  -1.706  0.101E-02  0.101E-02
  -1.696  0.102E-02  0.102E-02
  -1.686  0.103E-02  0.103E-02
  -1.676  0.103E-02  0.103E-02
  -1.666  0.104E-02  0.104E-02
  -1.656  0.105E-02  0.105E-02
  -1.646  0.105E-02  0.105E-02
  -1.636  0.106E-02  0.106E-02
  -1.626  0.106E-02  0.106E-02
  -1.616  0.107E-02  0.107E-02
  -1.606  0.107E-02  0.107E-02
  -1.596  0.108E-02  0.108E-02
  -1.586  0.108E-02  0.108E-02
  -1.576  0.108E-02  0.108E-02
  -1.566  0.108E-02  0.108E-02
  -1.556  0.108E-02  0.108E-02
  -1.546  0.108E-02  0.108E-02
  -1.536  0.108E-02  0.108E-02
  -1.526  0.108E-02  0.108E-02
  -1.516  0.108E-02  0.108E-02
  -1.506  0.108E-02  0.108E-02
  -1.496  0.108E-02  0.108E-02
  -1.486  0.107E-02  0.107E-02
  -1.476  0.107E-02  0.107E-02
  -1.466  0.107E-02  0.107E-02
  -1.456  0.106E-02  0.106E-02
  -1.446  0.106E-02  0.106E-02
  -1.436  0.105E-02  0.105E-02
  -1.426  0.104E-02  0.104E-02
  -1.416  0.104E-02  0.104E-02
  -1.406  0.103E-02  0.103E-02
  -1.396  0.102E-02  0.102E-02
  -1.386  0.101E-02  0.101E-02
  -1.376  0.100E-02  0.100E-02
  -1.366  0.995E-03  0.995E-03
  -1.356  0.985E-03  0.985E-03
  -1.346  0.975E-03  0.975E-03
  -1.336  0.964E-03  0.964E-03
  -1.326  0.953E-03  0.953E-03
  -1.316  0.942E-03  0.942E-03
  -1.306  0.930E-03  0.930E-03
  -1.296  0.918E-03  0.918E-03
  -1.286  0.905E-03  0.905E-03
  -1.276  0.892E-03  0.892E-03
  -1.266  0.879E-03  0.879E-03
  -1.256  0.865E-03  0.865E-03
  -1.246  0.852E-03  0.852E-03
  -1.236  0.838E-03  0.838E-03
  -1.226  0.823E-03  0.823E-03
  -1.216  0.809E-03  0.809E-03
  -1.206  0.794E-03  0.794E-03
  -1.196  0.779E-03  0.779E-03
  -1.186  0.764E-03  0.764E-03
  -1.176  0.749E-03  0.749E-03
  -1.166  0.734E-03  0.734E-03
  -1.156  0.718E-03  0.718E-03
  -1.146  0.703E-03  0.703E-03
  -1.136  0.687E-03  0.687E-03
  -1.126  0.672E-03  0.672E-03
  -1.116  0.656E-03  0.656E-03
  -1.106  0.640E-03  0.640E-03
  -1.096  0.624E-03  0.624E-03
  -1.086  0.609E-03  0.609E-03
  -1.076  0.593E-03  0.593E-03
  -1.066  0.578E-03  0.578E-03
  -1.056  0.562E-03  0.562E-03
  -1.046  0.547E-03  0.547E-03
  -1.036  0.531E-03  0.531E-03
  -1.026  0.516E-03  0.516E-03
  -1.016  0.501E-03  0.501E-03
  -1.006  0.486E-03  0.486E-03
  -0.996  0.471E-03  0.471E-03
  -0.986  0.456E-03  0.456E-03
  -0.976  0.442E-03  0.442E-03
  -0.966  0.427E-03  0.427E-03
  -0.956  0.413E-03  0.413E-03
  -0.946  0.399E-03  0.399E-03
  -0.936  0.386E-03  0.386E-03
  -0.926  0.372E-03  0.372E-03
  -0.916  0.359E-03  0.359E-03
  -0.906  0.346E-03  0.346E-03
  -0.896  0.333E-03  0.333E-03
  -0.886  0.321E-03  0.321E-03
  -0.876  0.308E-03  0.308E-03
  -0.866  0.296E-03  0.296E-03
  -0.856  0.285E-03  0.285E-03
  -0.846  0.273E-03  0.273E-03
  -0.836  0.262E-03  0.262E-03
  -0.826  0.251E-03  0.251E-03
  -0.816  0.241E-03  0.241E-03
  -0.806  0.230E-03  0.230E-03
  -0.796  0.220E-03  0.220E-03
  -0.786  0.211E-03  0.211E-03
  -0.776  0.201E-03  0.201E-03
  -0.766  0.192E-03  0.192E-03
  -0.756  0.183E-03  0.183E-03
  -0.746  0.175E-03  0.175E-03
  -0.736  0.167E-03  0.167E-03
  -0.726  0.159E-03  0.159E-03
  -0.716  0.151E-03  0.151E-03
  -0.706  0.144E-03  0.144E-03
  -0.696  0.137E-03  0.137E-03
  -0.686  0.130E-03  0.130E-03
  -0.676  0.123E-03  0.123E-03
  -0.666  0.117E-03  0.117E-03
  -0.656  0.111E-03  0.111E-03
  -0.646  0.105E-03  0.105E-03
  -0.636  0.100E-03  0.100E-03
  -0.626  0.949E-04  0.949E-04
  -0.616  0.900E-04  0.900E-04
  -0.606  0.854E-04  0.854E-04
  -0.596  0.810E-04  0.810E-04
  -0.586  0.768E-04  0.768E-04
  -0.576  0.729E-04  0.729E-04
  -0.566  0.692E-04  0.692E-04
  -0.556  0.657E-04  0.657E-04
  -0.546  0.625E-04  0.625E-04
  -0.536  0.594E-04  0.594E-04
  -0.526  0.566E-04  0.566E-04
  -0.516  0.540E-04  0.540E-04
  -0.506  0.515E-04  0.515E-04
  -0.496  0.493E-04  0.493E-04
  -0.486  0.473E-04  0.473E-04
  -0.476  0.454E-04  0.454E-04
  -0.466  0.437E-04  0.437E-04
  -0.456  0.421E-04  0.421E-04
  -0.446  0.408E-04  0.408E-04
  -0.436  0.396E-04  0.396E-04
  -0.426  0.385E-04  0.385E-04
  -0.416  0.376E-04  0.376E-04
  -0.406  0.368E-04  0.368E-04
  -0.396  0.362E-04  0.362E-04
  -0.386  0.357E-04  0.357E-04
  -0.376  0.353E-04  0.353E-04
  -0.366  0.350E-04  0.350E-04
  -0.356  0.349E-04  0.349E-04
  -0.346  0.348E-04  0.348E-04
  -0.336  0.349E-04  0.349E-04
  -0.326  0.351E-04  0.351E-04
  -0.316  0.354E-04  0.354E-04
  -0.306  0.358E-04  0.358E-04
  -0.296  0.363E-04  0.363E-04
  -0.286  0.369E-04  0.369E-04
  -0.276  0.375E-04  0.375E-04
  -0.266  0.383E-04  0.383E-04
  -0.256  0.392E-04  0.392E-04
  -0.246  0.401E-04  0.401E-04
  -0.236  0.412E-04  0.412E-04
  -0.226  0.423E-04  0.423E-04
  -0.216  0.435E-04  0.435E-04
  -0.206  0.448E-04  0.448E-04
  -0.196  0.462E-04  0.462E-04
  -0.186  0.477E-04  0.477E-04
  -0.176  0.493E-04  0.493E-04
  -0.166  0.510E-04  0.510E-04
  -0.156  0.527E-04  0.527E-04
  -0.146  0.546E-04  0.546E-04
  -0.136  0.566E-04  0.566E-04
  -0.126  0.587E-04  0.587E-04
  -0.116  0.609E-04  0.609E-04
  -0.106  0.632E-04  0.632E-04
  -0.096  0.656E-04  0.656E-04
  -0.086  0.682E-04  0.682E-04
  -0.076  0.709E-04  0.709E-04
  -0.066  0.737E-04  0.737E-04
  -0.056  0.767E-04  0.767E-04
  -0.046  0.798E-04  0.798E-04
  -0.036  0.831E-04  0.831E-04
  -0.026  0.866E-04  0.866E-04
  -0.016  0.902E-04  0.902E-04
  -0.006  0.941E-04  0.941E-04
   0.004  0.981E-04  0.981E-04
   0.014  0.102E-03  0.102E-03
   0.024  0.107E-03  0.107E-03
   0.034  0.111E-03  0.111E-03
   0.044  0.116E-03  0.116E-03
   0.054  0.121E-03  0.121E-03
   0.064  0.127E-03  0.127E-03
   0.074  0.133E-03  0.133E-03
   0.084  0.138E-03  0.138E-03
   0.094  0.145E-03  0.145E-03
   0.104  0.151E-03  0.151E-03
   0.114  0.158E-03  0.158E-03
   0.124  0.165E-03  0.165E-03
   0.134  0.173E-03  0.173E-03
   0.144  0.180E-03  0.180E-03
   0.154  0.189E-03  0.189E-03
   0.164  0.197E-03  0.197E-03
   0.174  0.206E-03  0.206E-03
   0.184  0.215E-03  0.215E-03
   0.194  0.225E-03  0.225E-03
   0.204  0.235E-03  0.235E-03
   0.214  0.246E-03  0.246E-03
   0.224  0.257E-03  0.257E-03
   0.234  0.268E-03  0.268E-03
   0.244  0.280E-03  0.280E-03
   0.254  0.293E-03  0.293E-03
   0.264  0.305E-03  0.305E-03
   0.274  0.319E-03  0.319E-03
   0.284  0.332E-03  0.332E-03
   0.294  0.347E-03  0.347E-03
   0.304  0.361E-03  0.361E-03
   0.314  0.377E-03  0.377E-03
   0.324  0.392E-03  0.392E-03
   0.334  0.409E-03  0.409E-03
   0.344  0.425E-03  0.425E-03
   0.354  0.443E-03  0.443E-03
   0.364  0.461E-03  0.461E-03
   0.374  0.479E-03  0.479E-03
   0.384  0.498E-03  0.498E-03
   0.394  0.517E-03  0.517E-03
   0.404  0.537E-03  0.537E-03
   0.414  0.557E-03  0.557E-03
   0.424  0.578E-03  0.578E-03
   0.434  0.600E-03  0.600E-03
   0.444  0.622E-03  0.622E-03
   0.454  0.644E-03  0.644E-03
   0.464  0.667E-03  0.667E-03
   0.474  0.690E-03  0.690E-03
   0.484  0.714E-03  0.714E-03
   0.494  0.738E-03  0.738E-03
   0.504  0.763E-03  0.763E-03
   0.514  0.788E-03  0.788E-03
   0.524  0.814E-03  0.814E-03
   0.534  0.840E-03  0.840E-03
   0.544  0.866E-03  0.866E-03
   0.554  0.893E-03  0.893E-03
   0.564  0.920E-03  0.920E-03
   0.574  0.947E-03  0.947E-03
   0.584  0.975E-03  0.975E-03
   0.594  0.100E-02  0.100E-02
   0.604  0.103E-02  0.103E-02
   0.614  0.106E-02  0.106E-02
   0.624  0.109E-02  0.109E-02
   0.634  0.112E-02  0.112E-02
   0.644  0.115E-02  0.115E-02
   0.654  0.118E-02  0.118E-02
   0.664  0.120E-02  0.120E-02
   0.674  0.123E-02  0.123E-02
   0.684  0.126E-02  0.126E-02
   0.694  0.129E-02  0.129E-02
   0.704  0.132E-02  0.132E-02
   0.714  0.135E-02  0.135E-02
   0.724  0.138E-02  0.138E-02
   0.734  0.141E-02  0.141E-02
   0.744  0.144E-02  0.144E-02
   0.754  0.147E-02  0.147E-02
   0.764  0.150E-02  0.150E-02
   0.774  0.153E-02  0.153E-02
   0.784  0.155E-02  0.155E-02
   0.794  0.158E-02  0.158E-02
   0.804  0.161E-02  0.161E-02
   0.814  0.164E-02  0.164E-02
   0.824  0.166E-02  0.166E-02
   0.834  0.169E-02  0.169E-02
   0.844  0.172E-02  0.172E-02
   0.854  0.174E-02  0.174E-02
   0.864  0.177E-02  0.177E-02
   0.874  0.179E-02  0.179E-02
   0.884  0.182E-02  0.182E-02
   0.894  0.184E-02  0.184E-02
   0.904  0.187E-02  0.187E-02
   0.914  0.189E-02  0.189E-02
   0.924  0.191E-02  0.191E-02
   0.934  0.193E-02  0.193E-02
   0.944  0.195E-02  0.195E-02
   0.954  0.197E-02  0.197E-02
   0.964  0.199E-02  0.199E-02
   0.974  0.201E-02  0.201E-02
   0.984  0.203E-02  0.203E-02
   0.994  0.204E-02  0.204E-02
   1.004  0.206E-02  0.206E-02
   1.014  0.207E-02  0.207E-02
   1.024  0.209E-02  0.209E-02
   1.034  0.210E-02  0.210E-02
   1.044  0.212E-02  0.212E-02
   1.054  0.213E-02  0.213E-02
   1.064  0.214E-02  0.214E-02
   1.074  0.215E-02  0.215E-02
   1.084  0.216E-02  0.216E-02
   1.094  0.217E-02  0.217E-02
   1.104  0.217E-02  0.217E-02
   1.114  0.218E-02  0.218E-02
   1.124  0.219E-02  0.219E-02
   1.134  0.219E-02  0.219E-02
   1.144  0.219E-02  0.219E-02
   1.154  0.220E-02  0.220E-02
   1.164  0.220E-02  0.220E-02
   1.174  0.220E-02  0.220E-02
   1.184  0.220E-02  0.220E-02
   1.194  0.220E-02  0.220E-02
   1.204  0.220E-02  0.220E-02
   1.214  0.220E-02  0.220E-02
   1.224  0.219E-02  0.219E-02
   1.234  0.219E-02  0.219E-02
   1.244  0.219E-02  0.219E-02
   1.254  0.218E-02  0.218E-02
   1.264  0.217E-02  0.217E-02
   1.274  0.217E-02  0.217E-02
   1.284  0.216E-02  0.216E-02
   1.294  0.215E-02  0.215E-02
   1.304  0.214E-02  0.214E-02
   1.314  0.213E-02  0.213E-02
   1.324  0.212E-02  0.212E-02
   1.334  0.211E-02  0.211E-02
   1.344  0.210E-02  0.210E-02
   1.354  0.209E-02  0.209E-02
   1.364  0.208E-02  0.208E-02
   1.374  0.207E-02  0.207E-02
   1.384  0.205E-02  0.205E-02
   1.394  0.204E-02  0.204E-02
   1.404  0.203E-02  0.203E-02
   1.414  0.201E-02  0.201E-02
   1.424  0.200E-02  0.200E-02
   1.434  0.198E-02  0.198E-02
   1.444  0.197E-02  0.197E-02
   1.454  0.195E-02  0.195E-02
   1.464  0.194E-02  0.194E-02
   1.474  0.192E-02  0.192E-02
   1.484  0.191E-02  0.191E-02
   1.494  0.189E-02  0.189E-02
   1.504  0.188E-02  0.188E-02
   1.514  0.187E-02  0.187E-02
   1.524  0.185E-02  0.185E-02
   1.534  0.184E-02  0.184E-02
   1.544  0.182E-02  0.182E-02
   1.554  0.181E-02  0.181E-02
   1.564  0.180E-02  0.180E-02
   1.574  0.178E-02  0.178E-02
   1.584  0.177E-02  0.177E-02
   1.594  0.176E-02  0.176E-02
   1.604  0.175E-02  0.175E-02
   1.614  0.174E-02  0.174E-02
   1.624  0.173E-02  0.173E-02
   1.634  0.172E-02  0.172E-02
   1.644  0.171E-02  0.171E-02
   1.654  0.170E-02  0.170E-02
   1.664  0.169E-02  0.169E-02
   1.674  0.168E-02  0.168E-02
   1.684  0.168E-02  0.168E-02
   1.694  0.167E-02  0.167E-02
   1.704  0.167E-02  0.167E-02
   1.714  0.167E-02  0.167E-02
   1.724  0.167E-02  0.167E-02
   1.734  0.167E-02  0.167E-02
   1.744  0.167E-02  0.167E-02
   1.754  0.167E-02  0.167E-02
   1.764  0.167E-02  0.167E-02
   1.774  0.167E-02  0.167E-02
   1.784  0.168E-02  0.168E-02
   1.794  0.169E-02  0.169E-02
   1.804  0.169E-02  0.169E-02
   1.814  0.170E-02  0.170E-02
   1.824  0.171E-02  0.171E-02
   1.834  0.172E-02  0.172E-02
   1.844  0.174E-02  0.174E-02
   1.854  0.175E-02  0.175E-02
   1.864  0.177E-02  0.177E-02
   1.874  0.179E-02  0.179E-02
   1.884  0.180E-02  0.180E-02
   1.894  0.182E-02  0.182E-02
   1.904  0.185E-02  0.185E-02
   1.914  0.187E-02  0.187E-02
   1.924  0.190E-02  0.190E-02
   1.934  0.192E-02  0.192E-02
   1.944  0.195E-02  0.195E-02
   1.954  0.198E-02  0.198E-02
   1.964  0.201E-02  0.201E-02
   1.974  0.204E-02  0.204E-02
   1.984  0.208E-02  0.208E-02
   1.994  0.211E-02  0.211E-02
   2.004  0.215E-02  0.215E-02
   2.014  0.219E-02  0.219E-02
   2.024  0.223E-02  0.223E-02
   2.034  0.227E-02  0.227E-02
   2.044  0.231E-02  0.231E-02
   2.054  0.235E-02  0.235E-02
   2.064  0.240E-02  0.240E-02
   2.074  0.244E-02  0.244E-02
   2.084  0.249E-02  0.249E-02
   2.094  0.254E-02  0.254E-02
   2.104  0.259E-02  0.259E-02
   2.114  0.264E-02  0.264E-02
   2.124  0.270E-02  0.270E-02
   2.134  0.275E-02  0.275E-02
   2.144  0.281E-02  0.281E-02
   2.154  0.286E-02  0.286E-02
   2.164  0.292E-02  0.292E-02
   2.174  0.298E-02  0.298E-02
   2.184  0.303E-02  0.303E-02
   2.194  0.309E-02  0.309E-02
   2.204  0.315E-02  0.315E-02
   2.214  0.322E-02  0.322E-02
   2.224  0.328E-02  0.328E-02
   2.234  0.334E-02  0.334E-02
   2.244  0.340E-02  0.340E-02
   2.254  0.347E-02  0.347E-02
   2.264  0.353E-02  0.353E-02
   2.274  0.360E-02  0.360E-02
   2.284  0.366E-02  0.366E-02
   2.294  0.373E-02  0.373E-02
   2.304  0.379E-02  0.379E-02
   2.314  0.386E-02  0.386E-02
   2.324  0.392E-02  0.392E-02
   2.334  0.399E-02  0.399E-02
   2.344  0.406E-02  0.406E-02
   2.354  0.412E-02  0.412E-02
   2.364  0.419E-02  0.419E-02
   2.374  0.425E-02  0.425E-02
   2.384  0.432E-02  0.432E-02
   2.394  0.438E-02  0.438E-02
   2.404  0.445E-02  0.445E-02
   2.414  0.451E-02  0.451E-02
   2.424  0.458E-02  0.458E-02
   2.434  0.464E-02  0.464E-02
   2.444  0.470E-02  0.470E-02
   2.454  0.476E-02  0.476E-02
   2.464  0.482E-02  0.482E-02
   2.474  0.488E-02  0.488E-02
   2.484  0.494E-02  0.494E-02
   2.494  0.500E-02  0.500E-02
   2.504  0.506E-02  0.506E-02
   2.514  0.511E-02  0.511E-02
   2.524  0.517E-02  0.517E-02
   2.534  0.522E-02  0.522E-02
   2.544  0.528E-02  0.528E-02
   2.554  0.533E-02  0.533E-02
   2.564  0.538E-02  0.538E-02
   2.574  0.543E-02  0.543E-02
   2.584  0.547E-02  0.547E-02
   2.594  0.552E-02  0.552E-02
   2.604  0.556E-02  0.556E-02
   2.614  0.560E-02  0.560E-02
   2.624  0.564E-02  0.564E-02
   2.634  0.568E-02  0.568E-02
   2.644  0.572E-02  0.572E-02
   2.654  0.576E-02  0.576E-02
   2.664  0.579E-02  0.579E-02
   2.674  0.582E-02  0.582E-02
   2.684  0.585E-02  0.585E-02
   2.694  0.588E-02  0.588E-02
   2.704  0.590E-02  0.590E-02
   2.714  0.593E-02  0.593E-02
   2.724  0.595E-02  0.595E-02
   2.734  0.597E-02  0.597E-02
   2.744  0.598E-02  0.598E-02
   2.754  0.600E-02  0.600E-02
   2.764  0.601E-02  0.601E-02
   2.774  0.602E-02  0.602E-02
   2.784  0.603E-02  0.603E-02
   2.794  0.604E-02  0.604E-02
   2.804  0.604E-02  0.604E-02
   2.814  0.604E-02  0.604E-02
   2.824  0.604E-02  0.604E-02
   2.834  0.603E-02  0.603E-02
   2.844  0.603E-02  0.603E-02
   2.854  0.602E-02  0.602E-02
   2.864  0.601E-02  0.601E-02
   2.874  0.600E-02  0.600E-02
   2.884  0.598E-02  0.598E-02
   2.894  0.596E-02  0.596E-02
   2.904  0.594E-02  0.594E-02
   2.914  0.592E-02  0.592E-02
   2.924  0.589E-02  0.589E-02
   2.934  0.587E-02  0.587E-02
   2.944  0.584E-02  0.584E-02
   2.954  0.580E-02  0.580E-02
   2.964  0.577E-02  0.577E-02
   2.974  0.573E-02  0.573E-02
   2.984  0.569E-02  0.569E-02
   2.994  0.565E-02  0.565E-02
   3.004  0.561E-02  0.561E-02
   3.014  0.556E-02  0.556E-02
   3.024  0.552E-02  0.552E-02
   3.034  0.547E-02  0.547E-02
   3.044  0.541E-02  0.541E-02
   3.054  0.536E-02  0.536E-02
   3.064  0.530E-02  0.530E-02
   3.074  0.524E-02  0.524E-02
   3.084  0.518E-02  0.518E-02
   3.094  0.512E-02  0.512E-02
   3.104  0.506E-02  0.506E-02
   3.114  0.499E-02  0.499E-02
   3.124  0.493E-02  0.493E-02
   3.134  0.486E-02  0.486E-02
   3.144  0.479E-02  0.479E-02
   3.154  0.472E-02  0.472E-02
   3.164  0.464E-02  0.464E-02
   3.174  0.457E-02  0.457E-02
   3.184  0.449E-02  0.449E-02
   3.194  0.442E-02  0.442E-02
   3.204  0.434E-02  0.434E-02
   3.214  0.426E-02  0.426E-02
   3.224  0.418E-02  0.418E-02
   3.234  0.410E-02  0.410E-02
   3.244  0.402E-02  0.402E-02
   3.254  0.393E-02  0.393E-02
   3.264  0.385E-02  0.385E-02
   3.274  0.377E-02  0.377E-02
   3.284  0.368E-02  0.368E-02
   3.294  0.360E-02  0.360E-02
   3.304  0.351E-02  0.351E-02
   3.314  0.342E-02  0.342E-02
   3.324  0.334E-02  0.334E-02
   3.334  0.325E-02  0.325E-02
   3.344  0.317E-02  0.317E-02
   3.354  0.308E-02  0.308E-02
   3.364  0.299E-02  0.299E-02
   3.374  0.291E-02  0.291E-02
   3.384  0.282E-02  0.282E-02
   3.394  0.274E-02  0.274E-02
   3.404  0.265E-02  0.265E-02
   3.414  0.257E-02  0.257E-02
   3.424  0.248E-02  0.248E-02
   3.434  0.240E-02  0.240E-02
   3.444  0.232E-02  0.232E-02
   3.454  0.224E-02  0.224E-02
   3.464  0.216E-02  0.216E-02
   3.474  0.208E-02  0.208E-02
   3.484  0.200E-02  0.200E-02
   3.494  0.192E-02  0.192E-02
   3.504  0.184E-02  0.184E-02
   3.514  0.176E-02  0.176E-02
   3.524  0.169E-02  0.169E-02
   3.534  0.161E-02  0.161E-02
   3.544  0.154E-02  0.154E-02
   3.554  0.147E-02  0.147E-02
   3.564  0.140E-02  0.140E-02
   3.574  0.133E-02  0.133E-02
   3.584  0.126E-02  0.126E-02
   3.594  0.120E-02  0.120E-02
   3.604  0.113E-02  0.113E-02
   3.614  0.107E-02  0.107E-02
   3.624  0.101E-02  0.101E-02
   3.634  0.950E-03  0.950E-03
   3.644  0.891E-03  0.891E-03
   3.654  0.834E-03  0.834E-03
   3.664  0.779E-03  0.779E-03
   3.674  0.725E-03  0.725E-03
   3.684  0.673E-03  0.673E-03
   3.694  0.623E-03  0.623E-03
   3.704  0.574E-03  0.574E-03
   3.714  0.527E-03  0.527E-03
   3.724  0.481E-03  0.481E-03
   3.734  0.437E-03  0.437E-03
   3.744  0.394E-03  0.394E-03
   3.754  0.353E-03  0.353E-03
   3.764  0.314E-03  0.314E-03
   3.774  0.276E-03  0.276E-03
   3.784  0.240E-03  0.240E-03
   3.794  0.206E-03  0.206E-03
   3.804  0.172E-03  0.172E-03
   3.814  0.141E-03  0.141E-03
   3.824  0.111E-03  0.111E-03
   3.834  0.820E-04  0.820E-04
   3.844  0.547E-04  0.547E-04
   3.854  0.289E-04  0.289E-04
   3.864  0.444E-05  0.444E-05
   3.874 -0.187E-04 -0.187E-04
   3.884 -0.404E-04 -0.404E-04
   3.894 -0.609E-04 -0.609E-04
   3.904 -0.801E-04 -0.801E-04
   3.914 -0.981E-04 -0.981E-04
   3.924 -0.115E-03 -0.115E-03
   3.934 -0.131E-03 -0.131E-03
   3.944 -0.145E-03 -0.145E-03
   3.954 -0.158E-03 -0.158E-03
   3.964 -0.171E-03 -0.171E-03
   3.974 -0.182E-03 -0.182E-03
   3.984 -0.192E-03 -0.192E-03
   3.994 -0.202E-03 -0.202E-03
   4.004 -0.210E-03 -0.210E-03
   4.014 -0.218E-03 -0.218E-03
   4.024 -0.224E-03 -0.224E-03
   4.034 -0.230E-03 -0.230E-03
   4.044 -0.235E-03 -0.235E-03
   4.054 -0.240E-03 -0.240E-03
   4.064 -0.243E-03 -0.243E-03
   4.074 -0.246E-03 -0.246E-03
   4.084 -0.249E-03 -0.249E-03
   4.094 -0.250E-03 -0.250E-03
   4.104 -0.251E-03 -0.251E-03
   4.114 -0.252E-03 -0.252E-03
   4.124 -0.252E-03 -0.252E-03
   4.134 -0.252E-03 -0.252E-03
   4.144 -0.251E-03 -0.251E-03
   4.154 -0.249E-03 -0.249E-03
   4.164 -0.248E-03 -0.248E-03
   4.174 -0.246E-03 -0.246E-03
   4.184 -0.243E-03 -0.243E-03
   4.194 -0.240E-03 -0.240E-03
   4.204 -0.237E-03 -0.237E-03
   4.214 -0.234E-03 -0.234E-03
   4.224 -0.231E-03 -0.231E-03
   4.234 -0.227E-03 -0.227E-03
   4.244 -0.223E-03 -0.223E-03
   4.254 -0.219E-03 -0.219E-03
   4.264 -0.214E-03 -0.214E-03
   4.274 -0.210E-03 -0.210E-03
   4.284 -0.205E-03 -0.205E-03
   4.294 -0.201E-03 -0.201E-03
   4.304 -0.196E-03 -0.196E-03
   4.314 -0.191E-03 -0.191E-03
   4.324 -0.186E-03 -0.186E-03
   4.334 -0.182E-03 -0.182E-03
   4.344 -0.177E-03 -0.177E-03
   4.354 -0.172E-03 -0.172E-03
   4.364 -0.167E-03 -0.167E-03
   4.374 -0.162E-03 -0.162E-03
   4.384 -0.157E-03 -0.157E-03
   4.394 -0.152E-03 -0.152E-03
   4.404 -0.147E-03 -0.147E-03
   4.414 -0.142E-03 -0.142E-03
   4.424 -0.138E-03 -0.138E-03
   4.434 -0.133E-03 -0.133E-03
   4.444 -0.128E-03 -0.128E-03
   4.454 -0.124E-03 -0.124E-03
   4.464 -0.119E-03 -0.119E-03
   4.474 -0.115E-03 -0.115E-03
   4.484 -0.110E-03 -0.110E-03
   4.494 -0.106E-03 -0.106E-03
   4.504 -0.102E-03 -0.102E-03
   4.514 -0.981E-04 -0.981E-04
   4.524 -0.941E-04 -0.941E-04
   4.534 -0.903E-04 -0.903E-04
   4.544 -0.865E-04 -0.865E-04
   4.554 -0.829E-04 -0.829E-04
   4.564 -0.794E-04 -0.794E-04
   4.574 -0.759E-04 -0.759E-04
   4.584 -0.726E-04 -0.726E-04
   4.594 -0.694E-04 -0.694E-04
   4.604 -0.662E-04 -0.662E-04
   4.614 -0.632E-04 -0.632E-04
   4.624 -0.603E-04 -0.603E-04
   4.634 -0.575E-04 -0.575E-04
   4.644 -0.548E-04 -0.548E-04
   4.654 -0.521E-04 -0.521E-04
   4.664 -0.496E-04 -0.496E-04
   4.674 -0.472E-04 -0.472E-04
   4.684 -0.448E-04 -0.448E-04
   4.694 -0.426E-04 -0.426E-04
   4.704 -0.404E-04 -0.404E-04
   4.714 -0.383E-04 -0.383E-04
   4.724 -0.364E-04 -0.364E-04
   4.734 -0.345E-04 -0.345E-04
   4.744 -0.326E-04 -0.326E-04
   4.754 -0.309E-04 -0.309E-04
   4.764 -0.292E-04 -0.292E-04
   4.774 -0.276E-04 -0.276E-04
   4.784 -0.261E-04 -0.261E-04
   4.794 -0.247E-04 -0.247E-04
   4.804 -0.233E-04 -0.233E-04
   4.814 -0.220E-04 -0.220E-04
   4.824 -0.207E-04 -0.207E-04
   4.834 -0.195E-04 -0.195E-04
   4.844 -0.184E-04 -0.184E-04
   4.854 -0.173E-04 -0.173E-04
   4.864 -0.163E-04 -0.163E-04
   4.874 -0.153E-04 -0.153E-04
   4.884 -0.144E-04 -0.144E-04
   4.894 -0.135E-04 -0.135E-04
   4.904 -0.127E-04 -0.127E-04
   4.914 -0.119E-04 -0.119E-04
   4.924 -0.112E-04 -0.112E-04
   4.934 -0.105E-04 -0.105E-04
   4.944 -0.983E-05 -0.983E-05
   4.954 -0.921E-05 -0.921E-05
   4.964 -0.862E-05 -0.862E-05
   4.974 -0.806E-05 -0.806E-05
   4.984 -0.754E-05 -0.754E-05
   4.994 -0.705E-05 -0.705E-05
   5.004 -0.659E-05 -0.659E-05
   5.014 -0.615E-05 -0.615E-05
   5.024 -0.574E-05 -0.574E-05
   5.034 -0.535E-05 -0.535E-05
   5.044 -0.499E-05 -0.499E-05
   5.054 -0.465E-05 -0.465E-05
   5.064 -0.433E-05 -0.433E-05
   5.074 -0.403E-05 -0.403E-05
   5.084 -0.375E-05 -0.375E-05
   5.094 -0.349E-05 -0.349E-05
   5.104 -0.324E-05 -0.324E-05
   5.114 -0.301E-05 -0.301E-05
   5.124 -0.280E-05 -0.280E-05
   5.134 -0.260E-05 -0.260E-05
   5.144 -0.241E-05 -0.241E-05
   5.154 -0.223E-05 -0.223E-05
   5.164 -0.207E-05 -0.207E-05
   5.174 -0.192E-05 -0.192E-05
   5.184 -0.178E-05 -0.178E-05
   5.194 -0.164E-05 -0.164E-05
   5.204 -0.152E-05 -0.152E-05
   5.214 -0.141E-05 -0.141E-05
   5.224 -0.130E-05 -0.130E-05
   5.234 -0.120E-05 -0.120E-05
   5.244 -0.111E-05 -0.111E-05
   5.254 -0.102E-05 -0.102E-05
   5.264 -0.943E-06 -0.943E-06
   5.274 -0.869E-06 -0.869E-06
   5.284 -0.801E-06 -0.801E-06
   5.294 -0.738E-06 -0.738E-06
