# E (eV)   ldos(E)   pdos(E)   
 -27.116 -0.502E-07 -0.502E-07
 -27.106 -0.541E-07 -0.541E-07
 -27.096 -0.584E-07 -0.584E-07
 -27.086 -0.629E-07 -0.629E-07
 -27.076 -0.678E-07 -0.678E-07
 -27.066 -0.730E-07 -0.730E-07
 -27.056 -0.786E-07 -0.786E-07
 -27.046 -0.846E-07 -0.846E-07
 -27.036 -0.909E-07 -0.909E-07
 -27.026 -0.977E-07 -0.977E-07
 -27.016 -0.105E-06 -0.105E-06
 -27.006 -0.113E-06 -0.113E-06
 -26.996 -0.121E-06 -0.121E-06
 -26.986 -0.130E-06 -0.130E-06
 -26.976 -0.139E-06 -0.139E-06
 -26.966 -0.149E-06 -0.149E-06
 -26.956 -0.159E-06 -0.159E-06
 -26.946 -0.171E-06 -0.171E-06
 -26.936 -0.183E-06 -0.183E-06
 -26.926 -0.195E-06 -0.195E-06
 -26.916 -0.208E-06 -0.208E-06
 -26.906 -0.223E-06 -0.223E-06
 -26.896 -0.238E-06 -0.238E-06
 -26.886 -0.253E-06 -0.253E-06
 -26.876 -0.270E-06 -0.270E-06
 -26.866 -0.288E-06 -0.288E-06
 -26.856 -0.306E-06 -0.306E-06
 -26.846 -0.326E-06 -0.326E-06
 -26.836 -0.347E-06 -0.347E-06
 -26.826 -0.369E-06 -0.369E-06
 -26.816 -0.392E-06 -0.392E-06
 -26.806 -0.416E-06 -0.416E-06
 -26.796 -0.442E-06 -0.442E-06
 -26.786 -0.468E-06 -0.468E-06
 -26.776 -0.497E-06 -0.497E-06
 -26.766 -0.526E-06 -0.526E-06
 -26.756 -0.557E-06 -0.557E-06
 -26.746 -0.589E-06 -0.589E-06
 -26.736 -0.623E-06 -0.623E-06
 -26.726 -0.659E-06 -0.659E-06
 -26.716 -0.696E-06 -0.696E-06
 -26.706 -0.735E-06 -0.735E-06
 -26.696 -0.775E-06 -0.775E-06
 -26.686 -0.817E-06 -0.817E-06
 -26.676 -0.861E-06 -0.861E-06
 -26.666 -0.907E-06 -0.907E-06
 -26.656 -0.955E-06 -0.955E-06
 -26.646 -0.100E-05 -0.100E-05
 -26.636 -0.106E-05 -0.106E-05
 -26.626 -0.111E-05 -0.111E-05
 -26.616 -0.116E-05 -0.116E-05
 -26.606 -0.122E-05 -0.122E-05
 -26.596 -0.128E-05 -0.128E-05
 -26.586 -0.134E-05 -0.134E-05
 -26.576 -0.140E-05 -0.140E-05
 -26.566 -0.147E-05 -0.147E-05
 -26.556 -0.154E-05 -0.154E-05
 -26.546 -0.161E-05 -0.161E-05
 -26.536 -0.168E-05 -0.168E-05
 -26.526 -0.175E-05 -0.175E-05
 -26.516 -0.182E-05 -0.182E-05
 -26.506 -0.190E-05 -0.190E-05
 -26.496 -0.198E-05 -0.198E-05
 -26.486 -0.206E-05 -0.206E-05
 -26.476 -0.214E-05 -0.214E-05
 -26.466 -0.222E-05 -0.222E-05
 -26.456 -0.231E-05 -0.231E-05
 -26.446 -0.239E-05 -0.239E-05
 -26.436 -0.248E-05 -0.248E-05
 -26.426 -0.257E-05 -0.257E-05
 -26.416 -0.266E-05 -0.266E-05
 -26.406 -0.275E-05 -0.275E-05
 -26.396 -0.284E-05 -0.284E-05
 -26.386 -0.293E-05 -0.293E-05
 -26.376 -0.302E-05 -0.302E-05
 -26.366 -0.311E-05 -0.311E-05
 -26.356 -0.320E-05 -0.320E-05
 -26.346 -0.329E-05 -0.329E-05
 -26.336 -0.338E-05 -0.338E-05
 -26.326 -0.347E-05 -0.347E-05
 -26.316 -0.356E-05 -0.356E-05
 -26.306 -0.364E-05 -0.364E-05
 -26.296 -0.372E-05 -0.372E-05
 -26.286 -0.381E-05 -0.381E-05
 -26.276 -0.388E-05 -0.388E-05
 -26.266 -0.396E-05 -0.396E-05
 -26.256 -0.403E-05 -0.403E-05
 -26.246 -0.410E-05 -0.410E-05
 -26.236 -0.416E-05 -0.416E-05
 -26.226 -0.422E-05 -0.422E-05
 -26.216 -0.427E-05 -0.427E-05
 -26.206 -0.432E-05 -0.432E-05
 -26.196 -0.436E-05 -0.436E-05
 -26.186 -0.439E-05 -0.439E-05
 -26.176 -0.442E-05 -0.442E-05
 -26.166 -0.444E-05 -0.444E-05
 -26.156 -0.445E-05 -0.445E-05
 -26.146 -0.445E-05 -0.445E-05
 -26.136 -0.444E-05 -0.444E-05
 -26.126 -0.442E-05 -0.442E-05
 -26.116 -0.439E-05 -0.439E-05
 -26.106 -0.434E-05 -0.434E-05
 -26.096 -0.429E-05 -0.429E-05
 -26.086 -0.422E-05 -0.422E-05
 -26.076 -0.414E-05 -0.414E-05
 -26.066 -0.404E-05 -0.404E-05
 -26.056 -0.393E-05 -0.393E-05
 -26.046 -0.380E-05 -0.380E-05
 -26.036 -0.365E-05 -0.365E-05
 -26.026 -0.349E-05 -0.349E-05
 -26.016 -0.331E-05 -0.331E-05
 -26.006 -0.310E-05 -0.310E-05
 -25.996 -0.288E-05 -0.288E-05
 -25.986 -0.264E-05 -0.264E-05
 -25.976 -0.238E-05 -0.238E-05
 -25.966 -0.210E-05 -0.210E-05
 -25.956 -0.179E-05 -0.179E-05
 -25.946 -0.146E-05 -0.146E-05
 -25.936 -0.111E-05 -0.111E-05
 -25.926 -0.731E-06 -0.731E-06
 -25.916 -0.328E-06 -0.328E-06
 -25.906  0.100E-06  0.100E-06
 -25.896  0.555E-06  0.555E-06
 -25.886  0.104E-05  0.104E-05
 -25.876  0.155E-05  0.155E-05
 -25.866  0.208E-05  0.208E-05
 -25.856  0.265E-05  0.265E-05
 -25.846  0.324E-05  0.324E-05
 -25.836  0.386E-05  0.386E-05
 -25.826  0.452E-05  0.452E-05
 -25.816  0.520E-05  0.520E-05
 -25.806  0.591E-05  0.591E-05
 -25.796  0.665E-05  0.665E-05
 -25.786  0.742E-05  0.742E-05
 -25.776  0.822E-05  0.822E-05
 -25.766  0.906E-05  0.906E-05
 -25.756  0.992E-05  0.992E-05
 -25.746  0.108E-04  0.108E-04
 -25.736  0.117E-04  0.117E-04
 -25.726  0.127E-04  0.127E-04
 -25.716  0.137E-04  0.137E-04
 -25.706  0.147E-04  0.147E-04
 -25.696  0.157E-04  0.157E-04
 -25.686  0.168E-04  0.168E-04
 -25.676  0.179E-04  0.179E-04
 -25.666  0.190E-04  0.190E-04
 -25.656  0.202E-04  0.202E-04
 -25.646  0.213E-04  0.213E-04
 -25.636  0.225E-04  0.225E-04
 -25.626  0.238E-04  0.238E-04
 -25.616  0.250E-04  0.250E-04
 -25.606  0.263E-04  0.263E-04
 -25.596  0.276E-04  0.276E-04
 -25.586  0.289E-04  0.289E-04
 -25.576  0.302E-04  0.302E-04
 -25.566  0.315E-04  0.315E-04
 -25.556  0.329E-04  0.329E-04
 -25.546  0.343E-04  0.343E-04
 -25.536  0.357E-04  0.357E-04
 -25.526  0.371E-04  0.371E-04
 -25.516  0.385E-04  0.385E-04
 -25.506  0.399E-04  0.399E-04
 -25.496  0.413E-04  0.413E-04
 -25.486  0.427E-04  0.427E-04
 -25.476  0.442E-04  0.442E-04
 -25.466  0.456E-04  0.456E-04
 -25.456  0.470E-04  0.470E-04
 -25.446  0.484E-04  0.484E-04
 -25.436  0.499E-04  0.499E-04
 -25.426  0.513E-04  0.513E-04
 -25.416  0.527E-04  0.527E-04
 -25.406  0.541E-04  0.541E-04
 -25.396  0.554E-04  0.554E-04
 -25.386  0.568E-04  0.568E-04
 -25.376  0.581E-04  0.581E-04
 -25.366  0.595E-04  0.595E-04
 -25.356  0.608E-04  0.608E-04
 -25.346  0.621E-04  0.621E-04
 -25.336  0.633E-04  0.633E-04
 -25.326  0.645E-04  0.645E-04
 -25.316  0.657E-04  0.657E-04
 -25.306  0.669E-04  0.669E-04
 -25.296  0.680E-04  0.680E-04
 -25.286  0.691E-04  0.691E-04
 -25.276  0.702E-04  0.702E-04
 -25.266  0.712E-04  0.712E-04
 -25.256  0.722E-04  0.722E-04
 -25.246  0.731E-04  0.731E-04
 -25.236  0.740E-04  0.740E-04
 -25.226  0.749E-04  0.749E-04
 -25.216  0.757E-04  0.757E-04
 -25.206  0.764E-04  0.764E-04
 -25.196  0.771E-04  0.771E-04
 -25.186  0.778E-04  0.778E-04
 -25.176  0.784E-04  0.784E-04
 -25.166  0.789E-04  0.789E-04
 -25.156  0.794E-04  0.794E-04
 -25.146  0.799E-04  0.799E-04
 -25.136  0.802E-04  0.802E-04
 -25.126  0.806E-04  0.806E-04
 -25.116  0.808E-04  0.808E-04
 -25.106  0.810E-04  0.810E-04
 -25.096  0.812E-04  0.812E-04
 -25.086  0.813E-04  0.813E-04
 -25.076  0.813E-04  0.813E-04
 -25.066  0.813E-04  0.813E-04
 -25.056  0.812E-04  0.812E-04
 -25.046  0.811E-04  0.811E-04
 -25.036  0.809E-04  0.809E-04
 -25.026  0.806E-04  0.806E-04
 -25.016  0.803E-04  0.803E-04
 -25.006  0.799E-04  0.799E-04
 -24.996  0.795E-04  0.795E-04
 -24.986  0.790E-04  0.790E-04
 -24.976  0.785E-04  0.785E-04
 -24.966  0.779E-04  0.779E-04
 -24.956  0.773E-04  0.773E-04
 -24.946  0.766E-04  0.766E-04
 -24.936  0.758E-04  0.758E-04
 -24.926  0.750E-04  0.750E-04
 -24.916  0.742E-04  0.742E-04
 -24.906  0.733E-04  0.733E-04
 -24.896  0.724E-04  0.724E-04
 -24.886  0.714E-04  0.714E-04
 -24.876  0.704E-04  0.704E-04
 -24.866  0.693E-04  0.693E-04
 -24.856  0.682E-04  0.682E-04
 -24.846  0.671E-04  0.671E-04
 -24.836  0.660E-04  0.660E-04
 -24.826  0.648E-04  0.648E-04
 -24.816  0.635E-04  0.635E-04
 -24.806  0.623E-04  0.623E-04
 -24.796  0.610E-04  0.610E-04
 -24.786  0.597E-04  0.597E-04
 -24.776  0.584E-04  0.584E-04
 -24.766  0.570E-04  0.570E-04
 -24.756  0.557E-04  0.557E-04
 -24.746  0.543E-04  0.543E-04
 -24.736  0.529E-04  0.529E-04
 -24.726  0.515E-04  0.515E-04
 -24.716  0.501E-04  0.501E-04
 -24.706  0.487E-04  0.487E-04
 -24.696  0.473E-04  0.473E-04
 -24.686  0.458E-04  0.458E-04
 -24.676  0.444E-04  0.444E-04
 -24.666  0.430E-04  0.430E-04
 -24.656  0.416E-04  0.416E-04
 -24.646  0.401E-04  0.401E-04
 -24.636  0.387E-04  0.387E-04
 -24.626  0.373E-04  0.373E-04
 -24.616  0.359E-04  0.359E-04
 -24.606  0.345E-04  0.345E-04
 -24.596  0.331E-04  0.331E-04
 -24.586  0.318E-04  0.318E-04
 -24.576  0.304E-04  0.304E-04
 -24.566  0.291E-04  0.291E-04
 -24.556  0.278E-04  0.278E-04
 -24.546  0.265E-04  0.265E-04
 -24.536  0.252E-04  0.252E-04
 -24.526  0.240E-04  0.240E-04
 -24.516  0.227E-04  0.227E-04
 -24.506  0.215E-04  0.215E-04
 -24.496  0.204E-04  0.204E-04
 -24.486  0.192E-04  0.192E-04
 -24.476  0.181E-04  0.181E-04
 -24.466  0.170E-04  0.170E-04
 -24.456  0.159E-04  0.159E-04
 -24.446  0.149E-04  0.149E-04
 -24.436  0.138E-04  0.138E-04
 -24.426  0.129E-04  0.129E-04
 -24.416  0.119E-04  0.119E-04
 -24.406  0.110E-04  0.110E-04
 -24.396  0.101E-04  0.101E-04
 -24.386  0.921E-05  0.921E-05
 -24.376  0.837E-05  0.837E-05
 -24.366  0.756E-05  0.756E-05
 -24.356  0.679E-05  0.679E-05
 -24.346  0.604E-05  0.604E-05
 -24.336  0.532E-05  0.532E-05
 -24.326  0.463E-05  0.463E-05
 -24.316  0.398E-05  0.398E-05
 -24.306  0.335E-05  0.335E-05
 -24.296  0.275E-05  0.275E-05
 -24.286  0.218E-05  0.218E-05
 -24.276  0.164E-05  0.164E-05
 -24.266  0.113E-05  0.113E-05
 -24.256  0.639E-06  0.639E-06
 -24.246  0.179E-06  0.179E-06
 -24.236 -0.254E-06 -0.254E-06
 -24.226 -0.661E-06 -0.661E-06
 -24.216 -0.104E-05 -0.104E-05
 -24.206 -0.140E-05 -0.140E-05
 -24.196 -0.173E-05 -0.173E-05
 -24.186 -0.204E-05 -0.204E-05
 -24.176 -0.233E-05 -0.233E-05
 -24.166 -0.260E-05 -0.260E-05
 -24.156 -0.284E-05 -0.284E-05
 -24.146 -0.307E-05 -0.307E-05
 -24.136 -0.327E-05 -0.327E-05
 -24.126 -0.346E-05 -0.346E-05
 -24.116 -0.362E-05 -0.362E-05
 -24.106 -0.377E-05 -0.377E-05
 -24.096 -0.390E-05 -0.390E-05
 -24.086 -0.402E-05 -0.402E-05
 -24.076 -0.412E-05 -0.412E-05
 -24.066 -0.421E-05 -0.421E-05
 -24.056 -0.428E-05 -0.428E-05
 -24.046 -0.434E-05 -0.434E-05
 -24.036 -0.438E-05 -0.438E-05
 -24.026 -0.441E-05 -0.441E-05
 -24.016 -0.444E-05 -0.444E-05
 -24.006 -0.445E-05 -0.445E-05
 -23.996 -0.445E-05 -0.445E-05
 -23.986 -0.444E-05 -0.444E-05
 -23.976 -0.442E-05 -0.442E-05
 -23.966 -0.440E-05 -0.440E-05
 -23.956 -0.437E-05 -0.437E-05
 -23.946 -0.433E-05 -0.433E-05
 -23.936 -0.428E-05 -0.428E-05
 -23.926 -0.423E-05 -0.423E-05
 -23.916 -0.417E-05 -0.417E-05
 -23.906 -0.411E-05 -0.411E-05
 -23.896 -0.404E-05 -0.404E-05
 -23.886 -0.397E-05 -0.397E-05
 -23.876 -0.390E-05 -0.390E-05
 -23.866 -0.382E-05 -0.382E-05
 -23.856 -0.374E-05 -0.374E-05
 -23.846 -0.366E-05 -0.366E-05
 -23.836 -0.357E-05 -0.357E-05
 -23.826 -0.348E-05 -0.348E-05
 -23.816 -0.340E-05 -0.340E-05
 -23.806 -0.331E-05 -0.331E-05
 -23.796 -0.322E-05 -0.322E-05
 -23.786 -0.313E-05 -0.313E-05
 -23.776 -0.303E-05 -0.303E-05
 -23.766 -0.294E-05 -0.294E-05
 -23.756 -0.285E-05 -0.285E-05
 -23.746 -0.276E-05 -0.276E-05
 -23.736 -0.267E-05 -0.267E-05
 -23.726 -0.258E-05 -0.258E-05
 -23.716 -0.250E-05 -0.250E-05
 -23.706 -0.241E-05 -0.241E-05
 -23.696 -0.232E-05 -0.232E-05
 -23.686 -0.224E-05 -0.224E-05
 -23.676 -0.215E-05 -0.215E-05
 -23.666 -0.207E-05 -0.207E-05
 -23.656 -0.199E-05 -0.199E-05
 -23.646 -0.191E-05 -0.191E-05
 -23.636 -0.184E-05 -0.184E-05
 -23.626 -0.176E-05 -0.176E-05
 -23.616 -0.169E-05 -0.169E-05
 -23.606 -0.162E-05 -0.162E-05
 -23.596 -0.155E-05 -0.155E-05
 -23.586 -0.148E-05 -0.148E-05
 -23.576 -0.142E-05 -0.142E-05
 -23.566 -0.135E-05 -0.135E-05
 -23.556 -0.129E-05 -0.129E-05
 -23.546 -0.123E-05 -0.123E-05
 -23.536 -0.117E-05 -0.117E-05
 -23.526 -0.112E-05 -0.112E-05
 -23.516 -0.106E-05 -0.106E-05
 -23.506 -0.101E-05 -0.101E-05
 -23.496 -0.963E-06 -0.963E-06
 -23.486 -0.915E-06 -0.915E-06
 -23.476 -0.869E-06 -0.869E-06
 -23.466 -0.825E-06 -0.825E-06
 -23.456 -0.783E-06 -0.783E-06
 -23.446 -0.742E-06 -0.742E-06
 -23.436 -0.703E-06 -0.703E-06
 -23.426 -0.665E-06 -0.665E-06
 -23.416 -0.630E-06 -0.630E-06
 -23.406 -0.595E-06 -0.595E-06
 -23.396 -0.563E-06 -0.563E-06
 -23.386 -0.532E-06 -0.532E-06
 -23.376 -0.502E-06 -0.502E-06
 -23.366 -0.473E-06 -0.473E-06
 -23.356 -0.446E-06 -0.446E-06
 -23.346 -0.421E-06 -0.421E-06
 -23.336 -0.396E-06 -0.396E-06
 -23.326 -0.373E-06 -0.373E-06
 -23.316 -0.351E-06 -0.351E-06
 -23.306 -0.330E-06 -0.330E-06
 -23.296 -0.310E-06 -0.310E-06
 -23.286 -0.291E-06 -0.291E-06
 -23.276 -0.273E-06 -0.273E-06
 -23.266 -0.256E-06 -0.256E-06
 -23.256 -0.240E-06 -0.240E-06
 -23.246 -0.225E-06 -0.225E-06
 -23.236 -0.211E-06 -0.211E-06
 -23.226 -0.197E-06 -0.197E-06
 -23.216 -0.185E-06 -0.185E-06
 -23.206 -0.173E-06 -0.173E-06
 -23.196 -0.161E-06 -0.161E-06
 -23.186 -0.151E-06 -0.151E-06
 -23.176 -0.141E-06 -0.141E-06
 -23.166 -0.131E-06 -0.131E-06
 -23.156 -0.122E-06 -0.122E-06
 -23.146 -0.114E-06 -0.114E-06
 -23.136 -0.106E-06 -0.106E-06
 -23.126 -0.990E-07 -0.990E-07
 -23.116 -0.921E-07 -0.921E-07
 -23.106 -0.857E-07 -0.857E-07
 -23.096 -0.797E-07 -0.797E-07
 -23.086 -0.740E-07 -0.740E-07
 -23.076 -0.687E-07 -0.687E-07
 -23.066 -0.638E-07 -0.638E-07
 -23.056 -0.592E-07 -0.592E-07
 -23.046 -0.549E-07 -0.549E-07
 -23.036 -0.509E-07 -0.509E-07
 -23.026 -0.471E-07 -0.471E-07
 -23.016 -0.436E-07 -0.436E-07
 -23.006 -0.404E-07 -0.404E-07
 -22.996 -0.373E-07 -0.373E-07
 -22.986 -0.345E-07 -0.345E-07
 -22.976 -0.319E-07 -0.319E-07
 -22.966 -0.294E-07 -0.294E-07
 -22.956 -0.272E-07 -0.272E-07
 -22.946 -0.251E-07 -0.251E-07
 -22.936 -0.231E-07 -0.231E-07
 -22.926 -0.213E-07 -0.213E-07
 -22.916 -0.196E-07 -0.196E-07
 -22.906 -0.181E-07 -0.181E-07
 -22.896 -0.166E-07 -0.166E-07
 -22.886 -0.153E-07 -0.153E-07
 -22.876 -0.141E-07 -0.141E-07
 -22.866 -0.129E-07 -0.129E-07
 -22.856 -0.119E-07 -0.119E-07
 -22.846 -0.109E-07 -0.109E-07
 -22.836 -0.999E-08 -0.999E-08
 -22.826 -0.916E-08 -0.916E-08
 -22.816 -0.840E-08 -0.840E-08
 -22.806 -0.769E-08 -0.769E-08
 -22.796 -0.705E-08 -0.705E-08
 -22.786 -0.645E-08 -0.645E-08
 -22.776 -0.590E-08 -0.590E-08
 -22.766 -0.540E-08 -0.540E-08
 -22.756 -0.494E-08 -0.494E-08
 -22.746 -0.451E-08 -0.451E-08
 -22.736 -0.412E-08 -0.412E-08
 -22.726 -0.377E-08 -0.377E-08
 -22.716 -0.344E-08 -0.344E-08
 -22.706 -0.314E-08 -0.314E-08
 -22.696 -0.286E-08 -0.286E-08
 -22.686 -0.261E-08 -0.261E-08
 -22.676 -0.238E-08 -0.238E-08
 -22.666 -0.218E-08 -0.218E-08
 -22.656 -0.198E-08 -0.198E-08
 -22.646 -0.181E-08 -0.181E-08
 -22.636 -0.165E-08 -0.165E-08
 -22.626 -0.151E-08 -0.151E-08
 -22.616 -0.138E-08 -0.138E-08
 -22.606 -0.126E-08 -0.126E-08
 -22.596 -0.116E-08 -0.116E-08
 -22.586 -0.106E-08 -0.106E-08
 -22.576 -0.973E-09 -0.973E-09
 -22.566 -0.895E-09 -0.895E-09
 -22.556 -0.826E-09 -0.826E-09
 -22.546 -0.765E-09 -0.765E-09
 -22.536 -0.710E-09 -0.710E-09
 -22.526 -0.662E-09 -0.662E-09
 -22.516 -0.621E-09 -0.621E-09
 -22.506 -0.585E-09 -0.585E-09
 -22.496 -0.554E-09 -0.554E-09
 -22.486 -0.529E-09 -0.529E-09
 -22.476 -0.508E-09 -0.508E-09
 -22.466 -0.492E-09 -0.492E-09
 -22.456 -0.480E-09 -0.480E-09
 -22.446 -0.472E-09 -0.472E-09
 -22.436 -0.469E-09 -0.469E-09
 -22.426 -0.469E-09 -0.469E-09
 -22.416 -0.473E-09 -0.473E-09
 -22.406 -0.481E-09 -0.481E-09
 -22.396 -0.492E-09 -0.492E-09
 -22.386 -0.507E-09 -0.507E-09
 -22.376 -0.525E-09 -0.525E-09
 -22.366 -0.548E-09 -0.548E-09
 -22.356 -0.574E-09 -0.574E-09
 -22.346 -0.603E-09 -0.603E-09
 -22.336 -0.636E-09 -0.636E-09
 -22.326 -0.674E-09 -0.674E-09
 -22.316 -0.715E-09 -0.715E-09
 -22.306 -0.760E-09 -0.760E-09
 -22.296 -0.810E-09 -0.810E-09
 -22.286 -0.864E-09 -0.864E-09
 -22.276 -0.923E-09 -0.923E-09
 -22.266 -0.986E-09 -0.986E-09
 -22.256 -0.105E-08 -0.105E-08
 -22.246 -0.113E-08 -0.113E-08
 -22.236 -0.121E-08 -0.121E-08
 -22.226 -0.129E-08 -0.129E-08
 -22.216 -0.138E-08 -0.138E-08
 -22.206 -0.148E-08 -0.148E-08
 -22.196 -0.159E-08 -0.159E-08
 -22.186 -0.170E-08 -0.170E-08
 -22.176 -0.181E-08 -0.181E-08
 -22.166 -0.194E-08 -0.194E-08
 -22.156 -0.207E-08 -0.207E-08
 -22.146 -0.222E-08 -0.222E-08
 -22.136 -0.237E-08 -0.237E-08
 -22.126 -0.253E-08 -0.253E-08
 -22.116 -0.270E-08 -0.270E-08
 -22.106 -0.288E-08 -0.288E-08
 -22.096 -0.307E-08 -0.307E-08
 -22.086 -0.327E-08 -0.327E-08
 -22.076 -0.348E-08 -0.348E-08
 -22.066 -0.371E-08 -0.371E-08
 -22.056 -0.395E-08 -0.395E-08
 -22.046 -0.420E-08 -0.420E-08
 -22.036 -0.446E-08 -0.446E-08
 -22.026 -0.474E-08 -0.474E-08
 -22.016 -0.503E-08 -0.503E-08
 -22.006 -0.534E-08 -0.534E-08
 -21.996 -0.566E-08 -0.566E-08
 -21.986 -0.600E-08 -0.600E-08
 -21.976 -0.635E-08 -0.635E-08
 -21.966 -0.673E-08 -0.673E-08
 -21.956 -0.712E-08 -0.712E-08
 -21.946 -0.752E-08 -0.752E-08
 -21.936 -0.795E-08 -0.795E-08
 -21.926 -0.840E-08 -0.840E-08
 -21.916 -0.886E-08 -0.886E-08
 -21.906 -0.935E-08 -0.935E-08
 -21.896 -0.986E-08 -0.986E-08
 -21.886 -0.104E-07 -0.104E-07
 -21.876 -0.109E-07 -0.109E-07
 -21.866 -0.115E-07 -0.115E-07
 -21.856 -0.121E-07 -0.121E-07
 -21.846 -0.127E-07 -0.127E-07
 -21.836 -0.134E-07 -0.134E-07
 -21.826 -0.140E-07 -0.140E-07
 -21.816 -0.147E-07 -0.147E-07
 -21.806 -0.154E-07 -0.154E-07
 -21.796 -0.162E-07 -0.162E-07
 -21.786 -0.169E-07 -0.169E-07
 -21.776 -0.177E-07 -0.177E-07
 -21.766 -0.185E-07 -0.185E-07
 -21.756 -0.193E-07 -0.193E-07
 -21.746 -0.202E-07 -0.202E-07
 -21.736 -0.210E-07 -0.210E-07
 -21.726 -0.219E-07 -0.219E-07
 -21.716 -0.229E-07 -0.229E-07
 -21.706 -0.238E-07 -0.238E-07
 -21.696 -0.248E-07 -0.248E-07
 -21.686 -0.257E-07 -0.257E-07
 -21.676 -0.267E-07 -0.267E-07
 -21.666 -0.277E-07 -0.277E-07
 -21.656 -0.288E-07 -0.288E-07
 -21.646 -0.298E-07 -0.298E-07
 -21.636 -0.309E-07 -0.309E-07
 -21.626 -0.319E-07 -0.319E-07
 -21.616 -0.330E-07 -0.330E-07
 -21.606 -0.341E-07 -0.341E-07
 -21.596 -0.352E-07 -0.352E-07
 -21.586 -0.363E-07 -0.363E-07
 -21.576 -0.374E-07 -0.374E-07
 -21.566 -0.385E-07 -0.385E-07
 -21.556 -0.396E-07 -0.396E-07
 -21.546 -0.406E-07 -0.406E-07
 -21.536 -0.417E-07 -0.417E-07
 -21.526 -0.428E-07 -0.428E-07
 -21.516 -0.438E-07 -0.438E-07
 -21.506 -0.448E-07 -0.448E-07
 -21.496 -0.458E-07 -0.458E-07
 -21.486 -0.468E-07 -0.468E-07
 -21.476 -0.477E-07 -0.477E-07
 -21.466 -0.486E-07 -0.486E-07
 -21.456 -0.494E-07 -0.494E-07
 -21.446 -0.502E-07 -0.502E-07
 -21.436 -0.509E-07 -0.509E-07
 -21.426 -0.516E-07 -0.516E-07
 -21.416 -0.522E-07 -0.522E-07
 -21.406 -0.527E-07 -0.527E-07
 -21.396 -0.532E-07 -0.532E-07
 -21.386 -0.535E-07 -0.535E-07
 -21.376 -0.538E-07 -0.538E-07
 -21.366 -0.540E-07 -0.540E-07
 -21.356 -0.541E-07 -0.541E-07
 -21.346 -0.541E-07 -0.541E-07
 -21.336 -0.539E-07 -0.539E-07
 -21.326 -0.537E-07 -0.537E-07
 -21.316 -0.533E-07 -0.533E-07
 -21.306 -0.527E-07 -0.527E-07
 -21.296 -0.520E-07 -0.520E-07
 -21.286 -0.512E-07 -0.512E-07
 -21.276 -0.502E-07 -0.502E-07
 -21.266 -0.491E-07 -0.491E-07
 -21.256 -0.477E-07 -0.477E-07
 -21.246 -0.462E-07 -0.462E-07
 -21.236 -0.445E-07 -0.445E-07
 -21.226 -0.426E-07 -0.426E-07
 -21.216 -0.405E-07 -0.405E-07
 -21.206 -0.382E-07 -0.382E-07
 -21.196 -0.357E-07 -0.357E-07
 -21.186 -0.330E-07 -0.330E-07
 -21.176 -0.300E-07 -0.300E-07
 -21.166 -0.269E-07 -0.269E-07
 -21.156 -0.234E-07 -0.234E-07
 -21.146 -0.198E-07 -0.198E-07
 -21.136 -0.159E-07 -0.159E-07
 -21.126 -0.117E-07 -0.117E-07
 -21.116 -0.731E-08 -0.731E-08
 -21.106 -0.265E-08 -0.265E-08
 -21.096  0.227E-08  0.227E-08
 -21.086  0.745E-08  0.745E-08
 -21.076  0.129E-07  0.129E-07
 -21.066  0.186E-07  0.186E-07
 -21.056  0.246E-07  0.246E-07
 -21.046  0.308E-07  0.308E-07
 -21.036  0.372E-07  0.372E-07
 -21.026  0.440E-07  0.440E-07
 -21.016  0.510E-07  0.510E-07
 -21.006  0.582E-07  0.582E-07
 -20.996  0.657E-07  0.657E-07
 -20.986  0.734E-07  0.734E-07
 -20.976  0.813E-07  0.813E-07
 -20.966  0.895E-07  0.895E-07
 -20.956  0.978E-07  0.978E-07
 -20.946  0.106E-06  0.106E-06
 -20.936  0.115E-06  0.115E-06
 -20.926  0.124E-06  0.124E-06
 -20.916  0.133E-06  0.133E-06
 -20.906  0.142E-06  0.142E-06
 -20.896  0.152E-06  0.152E-06
 -20.886  0.161E-06  0.161E-06
 -20.876  0.171E-06  0.171E-06
 -20.866  0.181E-06  0.181E-06
 -20.856  0.190E-06  0.190E-06
 -20.846  0.200E-06  0.200E-06
 -20.836  0.210E-06  0.210E-06
 -20.826  0.220E-06  0.220E-06
 -20.816  0.229E-06  0.229E-06
 -20.806  0.239E-06  0.239E-06
 -20.796  0.248E-06  0.248E-06
 -20.786  0.258E-06  0.258E-06
 -20.776  0.267E-06  0.267E-06
 -20.766  0.276E-06  0.276E-06
 -20.756  0.285E-06  0.285E-06
 -20.746  0.294E-06  0.294E-06
 -20.736  0.302E-06  0.302E-06
 -20.726  0.310E-06  0.310E-06
 -20.716  0.317E-06  0.317E-06
 -20.706  0.325E-06  0.325E-06
 -20.696  0.331E-06  0.331E-06
 -20.686  0.338E-06  0.338E-06
 -20.676  0.344E-06  0.344E-06
 -20.666  0.349E-06  0.349E-06
 -20.656  0.354E-06  0.354E-06
 -20.646  0.358E-06  0.358E-06
 -20.636  0.361E-06  0.361E-06
 -20.626  0.364E-06  0.364E-06
 -20.616  0.366E-06  0.366E-06
 -20.606  0.367E-06  0.367E-06
 -20.596  0.367E-06  0.367E-06
 -20.586  0.367E-06  0.367E-06
 -20.576  0.365E-06  0.365E-06
 -20.566  0.363E-06  0.363E-06
 -20.556  0.360E-06  0.360E-06
 -20.546  0.356E-06  0.356E-06
 -20.536  0.351E-06  0.351E-06
 -20.526  0.344E-06  0.344E-06
 -20.516  0.337E-06  0.337E-06
 -20.506  0.329E-06  0.329E-06
 -20.496  0.319E-06  0.319E-06
 -20.486  0.309E-06  0.309E-06
 -20.476  0.297E-06  0.297E-06
 -20.466  0.284E-06  0.284E-06
 -20.456  0.270E-06  0.270E-06
 -20.446  0.255E-06  0.255E-06
 -20.436  0.239E-06  0.239E-06
 -20.426  0.221E-06  0.221E-06
 -20.416  0.202E-06  0.202E-06
 -20.406  0.182E-06  0.182E-06
 -20.396  0.161E-06  0.161E-06
 -20.386  0.139E-06  0.139E-06
 -20.376  0.116E-06  0.116E-06
 -20.366  0.917E-07  0.917E-07
 -20.356  0.663E-07  0.663E-07
 -20.346  0.400E-07  0.400E-07
 -20.336  0.128E-07  0.128E-07
 -20.326 -0.154E-07 -0.154E-07
 -20.316 -0.444E-07 -0.444E-07
 -20.306 -0.741E-07 -0.741E-07
 -20.296 -0.105E-06 -0.105E-06
 -20.286 -0.136E-06 -0.136E-06
 -20.276 -0.167E-06 -0.167E-06
 -20.266 -0.199E-06 -0.199E-06
 -20.256 -0.232E-06 -0.232E-06
 -20.246 -0.264E-06 -0.264E-06
 -20.236 -0.297E-06 -0.297E-06
 -20.226 -0.330E-06 -0.330E-06
 -20.216 -0.362E-06 -0.362E-06
 -20.206 -0.394E-06 -0.394E-06
 -20.196 -0.426E-06 -0.426E-06
 -20.186 -0.458E-06 -0.458E-06
 -20.176 -0.488E-06 -0.488E-06
 -20.166 -0.518E-06 -0.518E-06
 -20.156 -0.547E-06 -0.547E-06
 -20.146 -0.574E-06 -0.574E-06
 -20.136 -0.600E-06 -0.600E-06
 -20.126 -0.624E-06 -0.624E-06
 -20.116 -0.646E-06 -0.646E-06
 -20.106 -0.667E-06 -0.667E-06
 -20.096 -0.685E-06 -0.685E-06
 -20.086 -0.700E-06 -0.700E-06
 -20.076 -0.713E-06 -0.713E-06
 -20.066 -0.723E-06 -0.723E-06
 -20.056 -0.730E-06 -0.730E-06
 -20.046 -0.733E-06 -0.733E-06
 -20.036 -0.733E-06 -0.733E-06
 -20.026 -0.728E-06 -0.728E-06
 -20.016 -0.719E-06 -0.719E-06
 -20.006 -0.706E-06 -0.706E-06
 -19.996 -0.688E-06 -0.688E-06
 -19.986 -0.665E-06 -0.665E-06
 -19.976 -0.637E-06 -0.637E-06
 -19.966 -0.603E-06 -0.603E-06
 -19.956 -0.564E-06 -0.564E-06
 -19.946 -0.518E-06 -0.518E-06
 -19.936 -0.465E-06 -0.465E-06
 -19.926 -0.407E-06 -0.407E-06
 -19.916 -0.341E-06 -0.341E-06
 -19.906 -0.268E-06 -0.268E-06
 -19.896 -0.187E-06 -0.187E-06
 -19.886 -0.989E-07 -0.989E-07
 -19.876 -0.271E-08 -0.271E-08
 -19.866  0.102E-06  0.102E-06
 -19.856  0.215E-06  0.215E-06
 -19.846  0.336E-06  0.336E-06
 -19.836  0.467E-06  0.467E-06
 -19.826  0.607E-06  0.607E-06
 -19.816  0.756E-06  0.756E-06
 -19.806  0.915E-06  0.915E-06
 -19.796  0.108E-05  0.108E-05
 -19.786  0.126E-05  0.126E-05
 -19.776  0.145E-05  0.145E-05
 -19.766  0.165E-05  0.165E-05
 -19.756  0.186E-05  0.186E-05
 -19.746  0.208E-05  0.208E-05
 -19.736  0.231E-05  0.231E-05
 -19.726  0.255E-05  0.255E-05
 -19.716  0.280E-05  0.280E-05
 -19.706  0.306E-05  0.306E-05
 -19.696  0.333E-05  0.333E-05
 -19.686  0.362E-05  0.362E-05
 -19.676  0.391E-05  0.391E-05
 -19.666  0.422E-05  0.422E-05
 -19.656  0.453E-05  0.453E-05
 -19.646  0.486E-05  0.486E-05
 -19.636  0.519E-05  0.519E-05
 -19.626  0.554E-05  0.554E-05
 -19.616  0.590E-05  0.590E-05
 -19.606  0.626E-05  0.626E-05
 -19.596  0.664E-05  0.664E-05
 -19.586  0.703E-05  0.703E-05
 -19.576  0.742E-05  0.742E-05
 -19.566  0.783E-05  0.783E-05
 -19.556  0.824E-05  0.824E-05
 -19.546  0.866E-05  0.866E-05
 -19.536  0.909E-05  0.909E-05
 -19.526  0.953E-05  0.953E-05
 -19.516  0.997E-05  0.997E-05
 -19.506  0.104E-04  0.104E-04
 -19.496  0.109E-04  0.109E-04
 -19.486  0.113E-04  0.113E-04
 -19.476  0.118E-04  0.118E-04
 -19.466  0.123E-04  0.123E-04
 -19.456  0.128E-04  0.128E-04
 -19.446  0.132E-04  0.132E-04
 -19.436  0.137E-04  0.137E-04
 -19.426  0.142E-04  0.142E-04
 -19.416  0.147E-04  0.147E-04
 -19.406  0.152E-04  0.152E-04
 -19.396  0.157E-04  0.157E-04
 -19.386  0.162E-04  0.162E-04
 -19.376  0.166E-04  0.166E-04
 -19.366  0.171E-04  0.171E-04
 -19.356  0.176E-04  0.176E-04
 -19.346  0.181E-04  0.181E-04
 -19.336  0.186E-04  0.186E-04
 -19.326  0.190E-04  0.190E-04
 -19.316  0.195E-04  0.195E-04
 -19.306  0.200E-04  0.200E-04
 -19.296  0.204E-04  0.204E-04
 -19.286  0.209E-04  0.209E-04
 -19.276  0.213E-04  0.213E-04
 -19.266  0.217E-04  0.217E-04
 -19.256  0.222E-04  0.222E-04
 -19.246  0.226E-04  0.226E-04
 -19.236  0.230E-04  0.230E-04
 -19.226  0.234E-04  0.234E-04
 -19.216  0.238E-04  0.238E-04
 -19.206  0.241E-04  0.241E-04
 -19.196  0.245E-04  0.245E-04
 -19.186  0.248E-04  0.248E-04
 -19.176  0.251E-04  0.251E-04
 -19.166  0.254E-04  0.254E-04
 -19.156  0.257E-04  0.257E-04
 -19.146  0.260E-04  0.260E-04
 -19.136  0.263E-04  0.263E-04
 -19.126  0.265E-04  0.265E-04
 -19.116  0.267E-04  0.267E-04
 -19.106  0.269E-04  0.269E-04
 -19.096  0.271E-04  0.271E-04
 -19.086  0.273E-04  0.273E-04
 -19.076  0.275E-04  0.275E-04
 -19.066  0.276E-04  0.276E-04
 -19.056  0.277E-04  0.277E-04
 -19.046  0.278E-04  0.278E-04
 -19.036  0.279E-04  0.279E-04
 -19.026  0.279E-04  0.279E-04
 -19.016  0.280E-04  0.280E-04
 -19.006  0.280E-04  0.280E-04
 -18.996  0.280E-04  0.280E-04
 -18.986  0.279E-04  0.279E-04
 -18.976  0.279E-04  0.279E-04
 -18.966  0.278E-04  0.278E-04
 -18.956  0.277E-04  0.277E-04
 -18.946  0.276E-04  0.276E-04
 -18.936  0.275E-04  0.275E-04
 -18.926  0.273E-04  0.273E-04
 -18.916  0.272E-04  0.272E-04
 -18.906  0.270E-04  0.270E-04
 -18.896  0.268E-04  0.268E-04
 -18.886  0.265E-04  0.265E-04
 -18.876  0.263E-04  0.263E-04
 -18.866  0.260E-04  0.260E-04
 -18.856  0.258E-04  0.258E-04
 -18.846  0.255E-04  0.255E-04
 -18.836  0.252E-04  0.252E-04
 -18.826  0.248E-04  0.248E-04
 -18.816  0.245E-04  0.245E-04
 -18.806  0.241E-04  0.241E-04
 -18.796  0.238E-04  0.238E-04
 -18.786  0.234E-04  0.234E-04
 -18.776  0.230E-04  0.230E-04
 -18.766  0.226E-04  0.226E-04
 -18.756  0.222E-04  0.222E-04
 -18.746  0.217E-04  0.217E-04
 -18.736  0.213E-04  0.213E-04
 -18.726  0.208E-04  0.208E-04
 -18.716  0.204E-04  0.204E-04
 -18.706  0.199E-04  0.199E-04
 -18.696  0.194E-04  0.194E-04
 -18.686  0.190E-04  0.190E-04
 -18.676  0.185E-04  0.185E-04
 -18.666  0.180E-04  0.180E-04
 -18.656  0.175E-04  0.175E-04
 -18.646  0.170E-04  0.170E-04
 -18.636  0.165E-04  0.165E-04
 -18.626  0.160E-04  0.160E-04
 -18.616  0.154E-04  0.154E-04
 -18.606  0.149E-04  0.149E-04
 -18.596  0.144E-04  0.144E-04
 -18.586  0.139E-04  0.139E-04
 -18.576  0.134E-04  0.134E-04
 -18.566  0.129E-04  0.129E-04
 -18.556  0.123E-04  0.123E-04
 -18.546  0.118E-04  0.118E-04
 -18.536  0.113E-04  0.113E-04
 -18.526  0.108E-04  0.108E-04
 -18.516  0.103E-04  0.103E-04
 -18.506  0.980E-05  0.980E-05
 -18.496  0.930E-05  0.930E-05
 -18.486  0.881E-05  0.881E-05
 -18.476  0.832E-05  0.832E-05
 -18.466  0.784E-05  0.784E-05
 -18.456  0.736E-05  0.736E-05
 -18.446  0.689E-05  0.689E-05
 -18.436  0.643E-05  0.643E-05
 -18.426  0.597E-05  0.597E-05
 -18.416  0.552E-05  0.552E-05
 -18.406  0.508E-05  0.508E-05
 -18.396  0.464E-05  0.464E-05
 -18.386  0.421E-05  0.421E-05
 -18.376  0.379E-05  0.379E-05
 -18.366  0.338E-05  0.338E-05
 -18.356  0.297E-05  0.297E-05
 -18.346  0.258E-05  0.258E-05
 -18.336  0.219E-05  0.219E-05
 -18.326  0.181E-05  0.181E-05
 -18.316  0.144E-05  0.144E-05
 -18.306  0.108E-05  0.108E-05
 -18.296  0.722E-06  0.722E-06
 -18.286  0.377E-06  0.377E-06
 -18.276  0.414E-07  0.414E-07
 -18.266 -0.286E-06 -0.286E-06
 -18.256 -0.604E-06 -0.604E-06
 -18.246 -0.913E-06 -0.913E-06
 -18.236 -0.121E-05 -0.121E-05
 -18.226 -0.150E-05 -0.150E-05
 -18.216 -0.179E-05 -0.179E-05
 -18.206 -0.206E-05 -0.206E-05
 -18.196 -0.232E-05 -0.232E-05
 -18.186 -0.258E-05 -0.258E-05
 -18.176 -0.282E-05 -0.282E-05
 -18.166 -0.306E-05 -0.306E-05
 -18.156 -0.329E-05 -0.329E-05
 -18.146 -0.351E-05 -0.351E-05
 -18.136 -0.372E-05 -0.372E-05
 -18.126 -0.392E-05 -0.392E-05
 -18.116 -0.411E-05 -0.411E-05
 -18.106 -0.429E-05 -0.429E-05
 -18.096 -0.446E-05 -0.446E-05
 -18.086 -0.463E-05 -0.463E-05
 -18.076 -0.478E-05 -0.478E-05
 -18.066 -0.492E-05 -0.492E-05
 -18.056 -0.505E-05 -0.505E-05
 -18.046 -0.518E-05 -0.518E-05
 -18.036 -0.529E-05 -0.529E-05
 -18.026 -0.539E-05 -0.539E-05
 -18.016 -0.548E-05 -0.548E-05
 -18.006 -0.556E-05 -0.556E-05
 -17.996 -0.563E-05 -0.563E-05
 -17.986 -0.569E-05 -0.569E-05
 -17.976 -0.574E-05 -0.574E-05
 -17.966 -0.577E-05 -0.577E-05
 -17.956 -0.579E-05 -0.579E-05
 -17.946 -0.580E-05 -0.580E-05
 -17.936 -0.580E-05 -0.580E-05
 -17.926 -0.578E-05 -0.578E-05
 -17.916 -0.575E-05 -0.575E-05
 -17.906 -0.570E-05 -0.570E-05
 -17.896 -0.564E-05 -0.564E-05
 -17.886 -0.557E-05 -0.557E-05
 -17.876 -0.547E-05 -0.547E-05
 -17.866 -0.537E-05 -0.537E-05
 -17.856 -0.524E-05 -0.524E-05
 -17.846 -0.510E-05 -0.510E-05
 -17.836 -0.494E-05 -0.494E-05
 -17.826 -0.476E-05 -0.476E-05
 -17.816 -0.456E-05 -0.456E-05
 -17.806 -0.435E-05 -0.435E-05
 -17.796 -0.411E-05 -0.411E-05
 -17.786 -0.385E-05 -0.385E-05
 -17.776 -0.358E-05 -0.358E-05
 -17.766 -0.328E-05 -0.328E-05
 -17.756 -0.296E-05 -0.296E-05
 -17.746 -0.261E-05 -0.261E-05
 -17.736 -0.224E-05 -0.224E-05
 -17.726 -0.185E-05 -0.185E-05
 -17.716 -0.144E-05 -0.144E-05
 -17.706 -0.999E-06 -0.999E-06
 -17.696 -0.534E-06 -0.534E-06
 -17.686 -0.439E-07 -0.439E-07
 -17.676  0.472E-06  0.472E-06
 -17.666  0.102E-05  0.102E-05
 -17.656  0.158E-05  0.158E-05
 -17.646  0.218E-05  0.218E-05
 -17.636  0.280E-05  0.280E-05
 -17.626  0.346E-05  0.346E-05
 -17.616  0.414E-05  0.414E-05
 -17.606  0.484E-05  0.484E-05
 -17.596  0.558E-05  0.558E-05
 -17.586  0.634E-05  0.634E-05
 -17.576  0.714E-05  0.714E-05
 -17.566  0.796E-05  0.796E-05
 -17.556  0.881E-05  0.881E-05
 -17.546  0.968E-05  0.968E-05
 -17.536  0.106E-04  0.106E-04
 -17.526  0.115E-04  0.115E-04
 -17.516  0.125E-04  0.125E-04
 -17.506  0.135E-04  0.135E-04
 -17.496  0.145E-04  0.145E-04
 -17.486  0.155E-04  0.155E-04
 -17.476  0.166E-04  0.166E-04
 -17.466  0.177E-04  0.177E-04
 -17.456  0.188E-04  0.188E-04
 -17.446  0.199E-04  0.199E-04
 -17.436  0.211E-04  0.211E-04
 -17.426  0.223E-04  0.223E-04
 -17.416  0.235E-04  0.235E-04
 -17.406  0.247E-04  0.247E-04
 -17.396  0.260E-04  0.260E-04
 -17.386  0.272E-04  0.272E-04
 -17.376  0.285E-04  0.285E-04
 -17.366  0.298E-04  0.298E-04
 -17.356  0.311E-04  0.311E-04
 -17.346  0.325E-04  0.325E-04
 -17.336  0.338E-04  0.338E-04
 -17.326  0.351E-04  0.351E-04
 -17.316  0.365E-04  0.365E-04
 -17.306  0.379E-04  0.379E-04
 -17.296  0.392E-04  0.392E-04
 -17.286  0.406E-04  0.406E-04
 -17.276  0.420E-04  0.420E-04
 -17.266  0.434E-04  0.434E-04
 -17.256  0.447E-04  0.447E-04
 -17.246  0.461E-04  0.461E-04
 -17.236  0.475E-04  0.475E-04
 -17.226  0.488E-04  0.488E-04
 -17.216  0.502E-04  0.502E-04
 -17.206  0.515E-04  0.515E-04
 -17.196  0.529E-04  0.529E-04
 -17.186  0.542E-04  0.542E-04
 -17.176  0.555E-04  0.555E-04
 -17.166  0.567E-04  0.567E-04
 -17.156  0.580E-04  0.580E-04
 -17.146  0.592E-04  0.592E-04
 -17.136  0.604E-04  0.604E-04
 -17.126  0.616E-04  0.616E-04
 -17.116  0.628E-04  0.628E-04
 -17.106  0.639E-04  0.639E-04
 -17.096  0.650E-04  0.650E-04
 -17.086  0.661E-04  0.661E-04
 -17.076  0.671E-04  0.671E-04
 -17.066  0.681E-04  0.681E-04
 -17.056  0.690E-04  0.690E-04
 -17.046  0.699E-04  0.699E-04
 -17.036  0.708E-04  0.708E-04
 -17.026  0.716E-04  0.716E-04
 -17.016  0.724E-04  0.724E-04
 -17.006  0.731E-04  0.731E-04
 -16.996  0.738E-04  0.738E-04
 -16.986  0.745E-04  0.745E-04
 -16.976  0.751E-04  0.751E-04
 -16.966  0.756E-04  0.756E-04
 -16.956  0.761E-04  0.761E-04
 -16.946  0.765E-04  0.765E-04
 -16.936  0.769E-04  0.769E-04
 -16.926  0.772E-04  0.772E-04
 -16.916  0.775E-04  0.775E-04
 -16.906  0.777E-04  0.777E-04
 -16.896  0.779E-04  0.779E-04
 -16.886  0.780E-04  0.780E-04
 -16.876  0.781E-04  0.781E-04
 -16.866  0.781E-04  0.781E-04
 -16.856  0.780E-04  0.780E-04
 -16.846  0.779E-04  0.779E-04
 -16.836  0.778E-04  0.778E-04
 -16.826  0.776E-04  0.776E-04
 -16.816  0.773E-04  0.773E-04
 -16.806  0.770E-04  0.770E-04
 -16.796  0.766E-04  0.766E-04
 -16.786  0.762E-04  0.762E-04
 -16.776  0.757E-04  0.757E-04
 -16.766  0.751E-04  0.751E-04
 -16.756  0.746E-04  0.746E-04
 -16.746  0.739E-04  0.739E-04
 -16.736  0.733E-04  0.733E-04
 -16.726  0.726E-04  0.726E-04
 -16.716  0.718E-04  0.718E-04
 -16.706  0.710E-04  0.710E-04
 -16.696  0.701E-04  0.701E-04
 -16.686  0.693E-04  0.693E-04
 -16.676  0.683E-04  0.683E-04
 -16.666  0.674E-04  0.674E-04
 -16.656  0.664E-04  0.664E-04
 -16.646  0.653E-04  0.653E-04
 -16.636  0.643E-04  0.643E-04
 -16.626  0.632E-04  0.632E-04
 -16.616  0.621E-04  0.621E-04
 -16.606  0.609E-04  0.609E-04
 -16.596  0.597E-04  0.597E-04
 -16.586  0.585E-04  0.585E-04
 -16.576  0.573E-04  0.573E-04
 -16.566  0.561E-04  0.561E-04
 -16.556  0.549E-04  0.549E-04
 -16.546  0.536E-04  0.536E-04
 -16.536  0.523E-04  0.523E-04
 -16.526  0.510E-04  0.510E-04
 -16.516  0.497E-04  0.497E-04
 -16.506  0.484E-04  0.484E-04
 -16.496  0.471E-04  0.471E-04
 -16.486  0.458E-04  0.458E-04
 -16.476  0.445E-04  0.445E-04
 -16.466  0.432E-04  0.432E-04
 -16.456  0.419E-04  0.419E-04
 -16.446  0.405E-04  0.405E-04
 -16.436  0.392E-04  0.392E-04
 -16.426  0.379E-04  0.379E-04
 -16.416  0.366E-04  0.366E-04
 -16.406  0.354E-04  0.354E-04
 -16.396  0.341E-04  0.341E-04
 -16.386  0.328E-04  0.328E-04
 -16.376  0.316E-04  0.316E-04
 -16.366  0.304E-04  0.304E-04
 -16.356  0.292E-04  0.292E-04
 -16.346  0.280E-04  0.280E-04
 -16.336  0.268E-04  0.268E-04
 -16.326  0.256E-04  0.256E-04
 -16.316  0.245E-04  0.245E-04
 -16.306  0.234E-04  0.234E-04
 -16.296  0.223E-04  0.223E-04
 -16.286  0.212E-04  0.212E-04
 -16.276  0.202E-04  0.202E-04
 -16.266  0.191E-04  0.191E-04
 -16.256  0.181E-04  0.181E-04
 -16.246  0.172E-04  0.172E-04
 -16.236  0.162E-04  0.162E-04
 -16.226  0.153E-04  0.153E-04
 -16.216  0.144E-04  0.144E-04
 -16.206  0.135E-04  0.135E-04
 -16.196  0.127E-04  0.127E-04
 -16.186  0.119E-04  0.119E-04
 -16.176  0.111E-04  0.111E-04
 -16.166  0.103E-04  0.103E-04
 -16.156  0.961E-05  0.961E-05
 -16.146  0.890E-05  0.890E-05
 -16.136  0.822E-05  0.822E-05
 -16.126  0.757E-05  0.757E-05
 -16.116  0.694E-05  0.694E-05
 -16.106  0.634E-05  0.634E-05
 -16.096  0.576E-05  0.576E-05
 -16.086  0.521E-05  0.521E-05
 -16.076  0.468E-05  0.468E-05
 -16.066  0.418E-05  0.418E-05
 -16.056  0.370E-05  0.370E-05
 -16.046  0.325E-05  0.325E-05
 -16.036  0.282E-05  0.282E-05
 -16.026  0.241E-05  0.241E-05
 -16.016  0.202E-05  0.202E-05
 -16.006  0.166E-05  0.166E-05
 -15.996  0.131E-05  0.131E-05
 -15.986  0.990E-06  0.990E-06
 -15.976  0.686E-06  0.686E-06
 -15.966  0.401E-06  0.401E-06
 -15.956  0.134E-06  0.134E-06
 -15.946 -0.115E-06 -0.115E-06
 -15.936 -0.347E-06 -0.347E-06
 -15.926 -0.563E-06 -0.563E-06
 -15.916 -0.762E-06 -0.762E-06
 -15.906 -0.947E-06 -0.947E-06
 -15.896 -0.112E-05 -0.112E-05
 -15.886 -0.127E-05 -0.127E-05
 -15.876 -0.142E-05 -0.142E-05
 -15.866 -0.155E-05 -0.155E-05
 -15.856 -0.166E-05 -0.166E-05
 -15.846 -0.177E-05 -0.177E-05
 -15.836 -0.187E-05 -0.187E-05
 -15.826 -0.195E-05 -0.195E-05
 -15.816 -0.203E-05 -0.203E-05
 -15.806 -0.209E-05 -0.209E-05
 -15.796 -0.215E-05 -0.215E-05
 -15.786 -0.220E-05 -0.220E-05
 -15.776 -0.224E-05 -0.224E-05
 -15.766 -0.228E-05 -0.228E-05
 -15.756 -0.231E-05 -0.231E-05
 -15.746 -0.233E-05 -0.233E-05
 -15.736 -0.235E-05 -0.235E-05
 -15.726 -0.236E-05 -0.236E-05
 -15.716 -0.237E-05 -0.237E-05
 -15.706 -0.238E-05 -0.238E-05
 -15.696 -0.238E-05 -0.238E-05
 -15.686 -0.237E-05 -0.237E-05
 -15.676 -0.237E-05 -0.237E-05
 -15.666 -0.236E-05 -0.236E-05
 -15.656 -0.235E-05 -0.235E-05
 -15.646 -0.234E-05 -0.234E-05
 -15.636 -0.232E-05 -0.232E-05
 -15.626 -0.231E-05 -0.231E-05
 -15.616 -0.229E-05 -0.229E-05
 -15.606 -0.227E-05 -0.227E-05
 -15.596 -0.225E-05 -0.225E-05
 -15.586 -0.224E-05 -0.224E-05
 -15.576 -0.222E-05 -0.222E-05
 -15.566 -0.220E-05 -0.220E-05
 -15.556 -0.219E-05 -0.219E-05
 -15.546 -0.217E-05 -0.217E-05
 -15.536 -0.215E-05 -0.215E-05
 -15.526 -0.214E-05 -0.214E-05
 -15.516 -0.213E-05 -0.213E-05
 -15.506 -0.212E-05 -0.212E-05
 -15.496 -0.211E-05 -0.211E-05
 -15.486 -0.210E-05 -0.210E-05
 -15.476 -0.209E-05 -0.209E-05
 -15.466 -0.209E-05 -0.209E-05
 -15.456 -0.209E-05 -0.209E-05
 -15.446 -0.209E-05 -0.209E-05
 -15.436 -0.209E-05 -0.209E-05
 -15.426 -0.210E-05 -0.210E-05
 -15.416 -0.211E-05 -0.211E-05
 -15.406 -0.212E-05 -0.212E-05
 -15.396 -0.213E-05 -0.213E-05
 -15.386 -0.215E-05 -0.215E-05
 -15.376 -0.217E-05 -0.217E-05
 -15.366 -0.219E-05 -0.219E-05
 -15.356 -0.222E-05 -0.222E-05
 -15.346 -0.224E-05 -0.224E-05
 -15.336 -0.228E-05 -0.228E-05
 -15.326 -0.231E-05 -0.231E-05
 -15.316 -0.235E-05 -0.235E-05
 -15.306 -0.239E-05 -0.239E-05
 -15.296 -0.244E-05 -0.244E-05
 -15.286 -0.248E-05 -0.248E-05
 -15.276 -0.254E-05 -0.254E-05
 -15.266 -0.259E-05 -0.259E-05
 -15.256 -0.265E-05 -0.265E-05
 -15.246 -0.271E-05 -0.271E-05
 -15.236 -0.278E-05 -0.278E-05
 -15.226 -0.285E-05 -0.285E-05
 -15.216 -0.292E-05 -0.292E-05
 -15.206 -0.299E-05 -0.299E-05
 -15.196 -0.307E-05 -0.307E-05
 -15.186 -0.315E-05 -0.315E-05
 -15.176 -0.324E-05 -0.324E-05
 -15.166 -0.332E-05 -0.332E-05
 -15.156 -0.341E-05 -0.341E-05
 -15.146 -0.351E-05 -0.351E-05
 -15.136 -0.360E-05 -0.360E-05
 -15.126 -0.370E-05 -0.370E-05
 -15.116 -0.380E-05 -0.380E-05
 -15.106 -0.390E-05 -0.390E-05
 -15.096 -0.401E-05 -0.401E-05
 -15.086 -0.411E-05 -0.411E-05
 -15.076 -0.422E-05 -0.422E-05
 -15.066 -0.433E-05 -0.433E-05
 -15.056 -0.444E-05 -0.444E-05
 -15.046 -0.456E-05 -0.456E-05
 -15.036 -0.467E-05 -0.467E-05
 -15.026 -0.478E-05 -0.478E-05
 -15.016 -0.489E-05 -0.489E-05
 -15.006 -0.501E-05 -0.501E-05
 -14.996 -0.512E-05 -0.512E-05
 -14.986 -0.523E-05 -0.523E-05
 -14.976 -0.534E-05 -0.534E-05
 -14.966 -0.545E-05 -0.545E-05
 -14.956 -0.555E-05 -0.555E-05
 -14.946 -0.565E-05 -0.565E-05
 -14.936 -0.575E-05 -0.575E-05
 -14.926 -0.585E-05 -0.585E-05
 -14.916 -0.594E-05 -0.594E-05
 -14.906 -0.603E-05 -0.603E-05
 -14.896 -0.611E-05 -0.611E-05
 -14.886 -0.618E-05 -0.618E-05
 -14.876 -0.625E-05 -0.625E-05
 -14.866 -0.631E-05 -0.631E-05
 -14.856 -0.637E-05 -0.637E-05
 -14.846 -0.641E-05 -0.641E-05
 -14.836 -0.645E-05 -0.645E-05
 -14.826 -0.647E-05 -0.647E-05
 -14.816 -0.649E-05 -0.649E-05
 -14.806 -0.649E-05 -0.649E-05
 -14.796 -0.648E-05 -0.648E-05
 -14.786 -0.646E-05 -0.646E-05
 -14.776 -0.643E-05 -0.643E-05
 -14.766 -0.638E-05 -0.638E-05
 -14.756 -0.631E-05 -0.631E-05
 -14.746 -0.623E-05 -0.623E-05
 -14.736 -0.613E-05 -0.613E-05
 -14.726 -0.601E-05 -0.601E-05
 -14.716 -0.587E-05 -0.587E-05
 -14.706 -0.571E-05 -0.571E-05
 -14.696 -0.553E-05 -0.553E-05
 -14.686 -0.533E-05 -0.533E-05
 -14.676 -0.511E-05 -0.511E-05
 -14.666 -0.486E-05 -0.486E-05
 -14.656 -0.459E-05 -0.459E-05
 -14.646 -0.429E-05 -0.429E-05
 -14.636 -0.396E-05 -0.396E-05
 -14.626 -0.361E-05 -0.361E-05
 -14.616 -0.323E-05 -0.323E-05
 -14.606 -0.282E-05 -0.282E-05
 -14.596 -0.238E-05 -0.238E-05
 -14.586 -0.191E-05 -0.191E-05
 -14.576 -0.140E-05 -0.140E-05
 -14.566 -0.867E-06 -0.867E-06
 -14.556 -0.296E-06 -0.296E-06
 -14.546  0.309E-06  0.309E-06
 -14.536  0.950E-06  0.950E-06
 -14.526  0.163E-05  0.163E-05
 -14.516  0.234E-05  0.234E-05
 -14.506  0.309E-05  0.309E-05
 -14.496  0.388E-05  0.388E-05
 -14.486  0.471E-05  0.471E-05
 -14.476  0.557E-05  0.557E-05
 -14.466  0.648E-05  0.648E-05
 -14.456  0.743E-05  0.743E-05
 -14.446  0.841E-05  0.841E-05
 -14.436  0.944E-05  0.944E-05
 -14.426  0.105E-04  0.105E-04
 -14.416  0.116E-04  0.116E-04
 -14.406  0.128E-04  0.128E-04
 -14.396  0.140E-04  0.140E-04
 -14.386  0.152E-04  0.152E-04
 -14.376  0.165E-04  0.165E-04
 -14.366  0.178E-04  0.178E-04
 -14.356  0.192E-04  0.192E-04
 -14.346  0.206E-04  0.206E-04
 -14.336  0.220E-04  0.220E-04
 -14.326  0.235E-04  0.235E-04
 -14.316  0.250E-04  0.250E-04
 -14.306  0.266E-04  0.266E-04
 -14.296  0.282E-04  0.282E-04
 -14.286  0.298E-04  0.298E-04
 -14.276  0.315E-04  0.315E-04
 -14.266  0.332E-04  0.332E-04
 -14.256  0.350E-04  0.350E-04
 -14.246  0.368E-04  0.368E-04
 -14.236  0.386E-04  0.386E-04
 -14.226  0.404E-04  0.404E-04
 -14.216  0.423E-04  0.423E-04
 -14.206  0.442E-04  0.442E-04
 -14.196  0.462E-04  0.462E-04
 -14.186  0.482E-04  0.482E-04
 -14.176  0.502E-04  0.502E-04
 -14.166  0.522E-04  0.522E-04
 -14.156  0.542E-04  0.542E-04
 -14.146  0.563E-04  0.563E-04
 -14.136  0.584E-04  0.584E-04
 -14.126  0.605E-04  0.605E-04
 -14.116  0.626E-04  0.626E-04
 -14.106  0.647E-04  0.647E-04
 -14.096  0.669E-04  0.669E-04
 -14.086  0.691E-04  0.691E-04
 -14.076  0.712E-04  0.712E-04
 -14.066  0.734E-04  0.734E-04
 -14.056  0.756E-04  0.756E-04
 -14.046  0.777E-04  0.777E-04
 -14.036  0.799E-04  0.799E-04
 -14.026  0.821E-04  0.821E-04
 -14.016  0.842E-04  0.842E-04
 -14.006  0.864E-04  0.864E-04
 -13.996  0.885E-04  0.885E-04
 -13.986  0.907E-04  0.907E-04
 -13.976  0.928E-04  0.928E-04
 -13.966  0.949E-04  0.949E-04
 -13.956  0.970E-04  0.970E-04
 -13.946  0.990E-04  0.990E-04
 -13.936  0.101E-03  0.101E-03
 -13.926  0.103E-03  0.103E-03
 -13.916  0.105E-03  0.105E-03
 -13.906  0.107E-03  0.107E-03
 -13.896  0.109E-03  0.109E-03
 -13.886  0.111E-03  0.111E-03
 -13.876  0.113E-03  0.113E-03
 -13.866  0.114E-03  0.114E-03
 -13.856  0.116E-03  0.116E-03
 -13.846  0.118E-03  0.118E-03
 -13.836  0.119E-03  0.119E-03
 -13.826  0.121E-03  0.121E-03
 -13.816  0.123E-03  0.123E-03
 -13.806  0.124E-03  0.124E-03
 -13.796  0.126E-03  0.126E-03
 -13.786  0.127E-03  0.127E-03
 -13.776  0.128E-03  0.128E-03
 -13.766  0.130E-03  0.130E-03
 -13.756  0.131E-03  0.131E-03
 -13.746  0.132E-03  0.132E-03
 -13.736  0.133E-03  0.133E-03
 -13.726  0.134E-03  0.134E-03
 -13.716  0.135E-03  0.135E-03
 -13.706  0.136E-03  0.136E-03
 -13.696  0.136E-03  0.136E-03
 -13.686  0.137E-03  0.137E-03
 -13.676  0.138E-03  0.138E-03
 -13.666  0.138E-03  0.138E-03
 -13.656  0.139E-03  0.139E-03
 -13.646  0.139E-03  0.139E-03
 -13.636  0.140E-03  0.140E-03
 -13.626  0.140E-03  0.140E-03
 -13.616  0.140E-03  0.140E-03
 -13.606  0.140E-03  0.140E-03
 -13.596  0.140E-03  0.140E-03
 -13.586  0.140E-03  0.140E-03
 -13.576  0.140E-03  0.140E-03
 -13.566  0.140E-03  0.140E-03
 -13.556  0.140E-03  0.140E-03
 -13.546  0.139E-03  0.139E-03
 -13.536  0.139E-03  0.139E-03
 -13.526  0.139E-03  0.139E-03
 -13.516  0.138E-03  0.138E-03
 -13.506  0.137E-03  0.137E-03
 -13.496  0.137E-03  0.137E-03
 -13.486  0.136E-03  0.136E-03
 -13.476  0.135E-03  0.135E-03
 -13.466  0.134E-03  0.134E-03
 -13.456  0.133E-03  0.133E-03
 -13.446  0.132E-03  0.132E-03
 -13.436  0.131E-03  0.131E-03
 -13.426  0.130E-03  0.130E-03
 -13.416  0.129E-03  0.129E-03
 -13.406  0.127E-03  0.127E-03
 -13.396  0.126E-03  0.126E-03
 -13.386  0.125E-03  0.125E-03
 -13.376  0.123E-03  0.123E-03
 -13.366  0.122E-03  0.122E-03
 -13.356  0.120E-03  0.120E-03
 -13.346  0.118E-03  0.118E-03
 -13.336  0.117E-03  0.117E-03
 -13.326  0.115E-03  0.115E-03
 -13.316  0.113E-03  0.113E-03
 -13.306  0.112E-03  0.112E-03
 -13.296  0.110E-03  0.110E-03
 -13.286  0.108E-03  0.108E-03
 -13.276  0.106E-03  0.106E-03
 -13.266  0.104E-03  0.104E-03
 -13.256  0.102E-03  0.102E-03
 -13.246  0.100E-03  0.100E-03
 -13.236  0.983E-04  0.983E-04
 -13.226  0.962E-04  0.962E-04
 -13.216  0.942E-04  0.942E-04
 -13.206  0.921E-04  0.921E-04
 -13.196  0.901E-04  0.901E-04
 -13.186  0.880E-04  0.880E-04
 -13.176  0.859E-04  0.859E-04
 -13.166  0.838E-04  0.838E-04
 -13.156  0.817E-04  0.817E-04
 -13.146  0.796E-04  0.796E-04
 -13.136  0.774E-04  0.774E-04
 -13.126  0.753E-04  0.753E-04
 -13.116  0.732E-04  0.732E-04
 -13.106  0.711E-04  0.711E-04
 -13.096  0.690E-04  0.690E-04
 -13.086  0.669E-04  0.669E-04
 -13.076  0.648E-04  0.648E-04
 -13.066  0.627E-04  0.627E-04
 -13.056  0.606E-04  0.606E-04
 -13.046  0.586E-04  0.586E-04
 -13.036  0.565E-04  0.565E-04
 -13.026  0.545E-04  0.545E-04
 -13.016  0.525E-04  0.525E-04
 -13.006  0.505E-04  0.505E-04
 -12.996  0.485E-04  0.485E-04
 -12.986  0.466E-04  0.466E-04
 -12.976  0.447E-04  0.447E-04
 -12.966  0.428E-04  0.428E-04
 -12.956  0.409E-04  0.409E-04
 -12.946  0.391E-04  0.391E-04
 -12.936  0.372E-04  0.372E-04
 -12.926  0.354E-04  0.354E-04
 -12.916  0.337E-04  0.337E-04
 -12.906  0.320E-04  0.320E-04
 -12.896  0.303E-04  0.303E-04
 -12.886  0.286E-04  0.286E-04
 -12.876  0.269E-04  0.269E-04
 -12.866  0.253E-04  0.253E-04
 -12.856  0.238E-04  0.238E-04
 -12.846  0.222E-04  0.222E-04
 -12.836  0.207E-04  0.207E-04
 -12.826  0.192E-04  0.192E-04
 -12.816  0.178E-04  0.178E-04
 -12.806  0.163E-04  0.163E-04
 -12.796  0.150E-04  0.150E-04
 -12.786  0.136E-04  0.136E-04
 -12.776  0.123E-04  0.123E-04
 -12.766  0.110E-04  0.110E-04
 -12.756  0.974E-05  0.974E-05
 -12.746  0.851E-05  0.851E-05
 -12.736  0.732E-05  0.732E-05
 -12.726  0.615E-05  0.615E-05
 -12.716  0.501E-05  0.501E-05
 -12.706  0.391E-05  0.391E-05
 -12.696  0.283E-05  0.283E-05
 -12.686  0.178E-05  0.178E-05
 -12.676  0.758E-06  0.758E-06
 -12.666 -0.236E-06 -0.236E-06
 -12.656 -0.120E-05 -0.120E-05
 -12.646 -0.214E-05 -0.214E-05
 -12.636 -0.306E-05 -0.306E-05
 -12.626 -0.395E-05 -0.395E-05
 -12.616 -0.481E-05 -0.481E-05
 -12.606 -0.565E-05 -0.565E-05
 -12.596 -0.647E-05 -0.647E-05
 -12.586 -0.727E-05 -0.727E-05
 -12.576 -0.804E-05 -0.804E-05
 -12.566 -0.879E-05 -0.879E-05
 -12.556 -0.952E-05 -0.952E-05
 -12.546 -0.102E-04 -0.102E-04
 -12.536 -0.109E-04 -0.109E-04
 -12.526 -0.116E-04 -0.116E-04
 -12.516 -0.122E-04 -0.122E-04
 -12.506 -0.129E-04 -0.129E-04
 -12.496 -0.135E-04 -0.135E-04
 -12.486 -0.141E-04 -0.141E-04
 -12.476 -0.146E-04 -0.146E-04
 -12.466 -0.152E-04 -0.152E-04
 -12.456 -0.157E-04 -0.157E-04
 -12.446 -0.162E-04 -0.162E-04
 -12.436 -0.167E-04 -0.167E-04
 -12.426 -0.172E-04 -0.172E-04
 -12.416 -0.176E-04 -0.176E-04
 -12.406 -0.181E-04 -0.181E-04
 -12.396 -0.185E-04 -0.185E-04
 -12.386 -0.189E-04 -0.189E-04
 -12.376 -0.192E-04 -0.192E-04
 -12.366 -0.196E-04 -0.196E-04
 -12.356 -0.199E-04 -0.199E-04
 -12.346 -0.202E-04 -0.202E-04
 -12.336 -0.205E-04 -0.205E-04
 -12.326 -0.208E-04 -0.208E-04
 -12.316 -0.210E-04 -0.210E-04
 -12.306 -0.212E-04 -0.212E-04
 -12.296 -0.213E-04 -0.213E-04
 -12.286 -0.215E-04 -0.215E-04
 -12.276 -0.216E-04 -0.216E-04
 -12.266 -0.217E-04 -0.217E-04
 -12.256 -0.217E-04 -0.217E-04
 -12.246 -0.217E-04 -0.217E-04
 -12.236 -0.216E-04 -0.216E-04
 -12.226 -0.216E-04 -0.216E-04
 -12.216 -0.214E-04 -0.214E-04
 -12.206 -0.213E-04 -0.213E-04
 -12.196 -0.211E-04 -0.211E-04
 -12.186 -0.208E-04 -0.208E-04
 -12.176 -0.205E-04 -0.205E-04
 -12.166 -0.201E-04 -0.201E-04
 -12.156 -0.197E-04 -0.197E-04
 -12.146 -0.192E-04 -0.192E-04
 -12.136 -0.187E-04 -0.187E-04
 -12.126 -0.181E-04 -0.181E-04
 -12.116 -0.174E-04 -0.174E-04
 -12.106 -0.166E-04 -0.166E-04
 -12.096 -0.158E-04 -0.158E-04
 -12.086 -0.150E-04 -0.150E-04
 -12.076 -0.140E-04 -0.140E-04
 -12.066 -0.130E-04 -0.130E-04
 -12.056 -0.118E-04 -0.118E-04
 -12.046 -0.107E-04 -0.107E-04
 -12.036 -0.937E-05 -0.937E-05
 -12.026 -0.800E-05 -0.800E-05
 -12.016 -0.655E-05 -0.655E-05
 -12.006 -0.500E-05 -0.500E-05
 -11.996 -0.335E-05 -0.335E-05
 -11.986 -0.162E-05 -0.162E-05
 -11.976  0.221E-06  0.221E-06
 -11.966  0.216E-05  0.216E-05
 -11.956  0.420E-05  0.420E-05
 -11.946  0.634E-05  0.634E-05
 -11.936  0.858E-05  0.858E-05
 -11.926  0.109E-04  0.109E-04
 -11.916  0.134E-04  0.134E-04
 -11.906  0.160E-04  0.160E-04
 -11.896  0.186E-04  0.186E-04
 -11.886  0.214E-04  0.214E-04
 -11.876  0.243E-04  0.243E-04
 -11.866  0.273E-04  0.273E-04
 -11.856  0.305E-04  0.305E-04
 -11.846  0.337E-04  0.337E-04
 -11.836  0.370E-04  0.370E-04
 -11.826  0.405E-04  0.405E-04
 -11.816  0.440E-04  0.440E-04
 -11.806  0.477E-04  0.477E-04
 -11.796  0.515E-04  0.515E-04
 -11.786  0.554E-04  0.554E-04
 -11.776  0.594E-04  0.594E-04
 -11.766  0.635E-04  0.635E-04
 -11.756  0.676E-04  0.676E-04
 -11.746  0.719E-04  0.719E-04
 -11.736  0.763E-04  0.763E-04
 -11.726  0.808E-04  0.808E-04
 -11.716  0.853E-04  0.853E-04
 -11.706  0.900E-04  0.900E-04
 -11.696  0.947E-04  0.947E-04
 -11.686  0.995E-04  0.995E-04
 -11.676  0.104E-03  0.104E-03
 -11.666  0.109E-03  0.109E-03
 -11.656  0.114E-03  0.114E-03
 -11.646  0.119E-03  0.119E-03
 -11.636  0.125E-03  0.125E-03
 -11.626  0.130E-03  0.130E-03
 -11.616  0.135E-03  0.135E-03
 -11.606  0.140E-03  0.140E-03
 -11.596  0.145E-03  0.145E-03
 -11.586  0.151E-03  0.151E-03
 -11.576  0.156E-03  0.156E-03
 -11.566  0.161E-03  0.161E-03
 -11.556  0.167E-03  0.167E-03
 -11.546  0.172E-03  0.172E-03
 -11.536  0.177E-03  0.177E-03
 -11.526  0.182E-03  0.182E-03
 -11.516  0.188E-03  0.188E-03
 -11.506  0.193E-03  0.193E-03
 -11.496  0.198E-03  0.198E-03
 -11.486  0.203E-03  0.203E-03
 -11.476  0.208E-03  0.208E-03
 -11.466  0.213E-03  0.213E-03
 -11.456  0.218E-03  0.218E-03
 -11.446  0.222E-03  0.222E-03
 -11.436  0.227E-03  0.227E-03
 -11.426  0.232E-03  0.232E-03
 -11.416  0.236E-03  0.236E-03
 -11.406  0.240E-03  0.240E-03
 -11.396  0.244E-03  0.244E-03
 -11.386  0.248E-03  0.248E-03
 -11.376  0.252E-03  0.252E-03
 -11.366  0.256E-03  0.256E-03
 -11.356  0.259E-03  0.259E-03
 -11.346  0.263E-03  0.263E-03
 -11.336  0.266E-03  0.266E-03
 -11.326  0.269E-03  0.269E-03
 -11.316  0.271E-03  0.271E-03
 -11.306  0.274E-03  0.274E-03
 -11.296  0.276E-03  0.276E-03
 -11.286  0.278E-03  0.278E-03
 -11.276  0.280E-03  0.280E-03
 -11.266  0.282E-03  0.282E-03
 -11.256  0.283E-03  0.283E-03
 -11.246  0.284E-03  0.284E-03
 -11.236  0.285E-03  0.285E-03
 -11.226  0.285E-03  0.285E-03
 -11.216  0.285E-03  0.285E-03
 -11.206  0.285E-03  0.285E-03
 -11.196  0.285E-03  0.285E-03
 -11.186  0.284E-03  0.284E-03
 -11.176  0.283E-03  0.283E-03
 -11.166  0.281E-03  0.281E-03
 -11.156  0.279E-03  0.279E-03
 -11.146  0.277E-03  0.277E-03
 -11.136  0.275E-03  0.275E-03
 -11.126  0.272E-03  0.272E-03
 -11.116  0.268E-03  0.268E-03
 -11.106  0.265E-03  0.265E-03
 -11.096  0.261E-03  0.261E-03
 -11.086  0.256E-03  0.256E-03
 -11.076  0.251E-03  0.251E-03
 -11.066  0.246E-03  0.246E-03
 -11.056  0.240E-03  0.240E-03
 -11.046  0.234E-03  0.234E-03
 -11.036  0.227E-03  0.227E-03
 -11.026  0.220E-03  0.220E-03
 -11.016  0.213E-03  0.213E-03
 -11.006  0.205E-03  0.205E-03
 -10.996  0.196E-03  0.196E-03
 -10.986  0.187E-03  0.187E-03
 -10.976  0.177E-03  0.177E-03
 -10.966  0.167E-03  0.167E-03
 -10.956  0.156E-03  0.156E-03
 -10.946  0.145E-03  0.145E-03
 -10.936  0.133E-03  0.133E-03
 -10.926  0.121E-03  0.121E-03
 -10.916  0.108E-03  0.108E-03
 -10.906  0.945E-04  0.945E-04
 -10.896  0.802E-04  0.802E-04
 -10.886  0.653E-04  0.653E-04
 -10.876  0.498E-04  0.498E-04
 -10.866  0.336E-04  0.336E-04
 -10.856  0.167E-04  0.167E-04
 -10.846 -0.956E-06 -0.956E-06
 -10.836 -0.193E-04 -0.193E-04
 -10.826 -0.384E-04 -0.384E-04
 -10.816 -0.583E-04 -0.583E-04
 -10.806 -0.790E-04 -0.790E-04
 -10.796 -0.100E-03 -0.100E-03
 -10.786 -0.123E-03 -0.123E-03
 -10.776 -0.146E-03 -0.146E-03
 -10.766 -0.170E-03 -0.170E-03
 -10.756 -0.195E-03 -0.195E-03
 -10.746 -0.221E-03 -0.221E-03
 -10.736 -0.248E-03 -0.248E-03
 -10.726 -0.275E-03 -0.275E-03
 -10.716 -0.304E-03 -0.304E-03
 -10.706 -0.334E-03 -0.334E-03
 -10.696 -0.365E-03 -0.365E-03
 -10.686 -0.396E-03 -0.396E-03
 -10.676 -0.429E-03 -0.429E-03
 -10.666 -0.463E-03 -0.463E-03
 -10.656 -0.498E-03 -0.498E-03
 -10.646 -0.534E-03 -0.534E-03
 -10.636 -0.572E-03 -0.572E-03
 -10.626 -0.610E-03 -0.610E-03
 -10.616 -0.650E-03 -0.650E-03
 -10.606 -0.691E-03 -0.691E-03
 -10.596 -0.732E-03 -0.732E-03
 -10.586 -0.776E-03 -0.776E-03
 -10.576 -0.820E-03 -0.820E-03
 -10.566 -0.866E-03 -0.866E-03
 -10.556 -0.913E-03 -0.913E-03
 -10.546 -0.961E-03 -0.961E-03
 -10.536 -0.101E-02 -0.101E-02
 -10.526 -0.106E-02 -0.106E-02
 -10.516 -0.111E-02 -0.111E-02
 -10.506 -0.117E-02 -0.117E-02
 -10.496 -0.122E-02 -0.122E-02
 -10.486 -0.127E-02 -0.127E-02
 -10.476 -0.133E-02 -0.133E-02
 -10.466 -0.139E-02 -0.139E-02
 -10.456 -0.145E-02 -0.145E-02
 -10.446 -0.151E-02 -0.151E-02
 -10.436 -0.157E-02 -0.157E-02
 -10.426 -0.163E-02 -0.163E-02
 -10.416 -0.169E-02 -0.169E-02
 -10.406 -0.175E-02 -0.175E-02
 -10.396 -0.182E-02 -0.182E-02
 -10.386 -0.188E-02 -0.188E-02
 -10.376 -0.195E-02 -0.195E-02
 -10.366 -0.201E-02 -0.201E-02
 -10.356 -0.208E-02 -0.208E-02
 -10.346 -0.215E-02 -0.215E-02
 -10.336 -0.221E-02 -0.221E-02
 -10.326 -0.228E-02 -0.228E-02
 -10.316 -0.235E-02 -0.235E-02
 -10.306 -0.241E-02 -0.241E-02
 -10.296 -0.248E-02 -0.248E-02
 -10.286 -0.254E-02 -0.254E-02
 -10.276 -0.261E-02 -0.261E-02
 -10.266 -0.267E-02 -0.267E-02
 -10.256 -0.274E-02 -0.274E-02
 -10.246 -0.280E-02 -0.280E-02
 -10.236 -0.286E-02 -0.286E-02
 -10.226 -0.292E-02 -0.292E-02
 -10.216 -0.297E-02 -0.297E-02
 -10.206 -0.303E-02 -0.303E-02
 -10.196 -0.308E-02 -0.308E-02
 -10.186 -0.313E-02 -0.313E-02
 -10.176 -0.317E-02 -0.317E-02
 -10.166 -0.321E-02 -0.321E-02
 -10.156 -0.325E-02 -0.325E-02
 -10.146 -0.329E-02 -0.329E-02
 -10.136 -0.332E-02 -0.332E-02
 -10.126 -0.334E-02 -0.334E-02
 -10.116 -0.336E-02 -0.336E-02
 -10.106 -0.338E-02 -0.338E-02
 -10.096 -0.339E-02 -0.339E-02
 -10.086 -0.339E-02 -0.339E-02
 -10.076 -0.339E-02 -0.339E-02
 -10.066 -0.338E-02 -0.338E-02
 -10.056 -0.336E-02 -0.336E-02
 -10.046 -0.334E-02 -0.334E-02
 -10.036 -0.330E-02 -0.330E-02
 -10.026 -0.326E-02 -0.326E-02
 -10.016 -0.321E-02 -0.321E-02
 -10.006 -0.315E-02 -0.315E-02
  -9.996 -0.308E-02 -0.308E-02
  -9.986 -0.300E-02 -0.300E-02
  -9.976 -0.290E-02 -0.290E-02
  -9.966 -0.280E-02 -0.280E-02
  -9.956 -0.268E-02 -0.268E-02
  -9.946 -0.256E-02 -0.256E-02
  -9.936 -0.241E-02 -0.241E-02
  -9.926 -0.226E-02 -0.226E-02
  -9.916 -0.209E-02 -0.209E-02
  -9.906 -0.191E-02 -0.191E-02
  -9.896 -0.171E-02 -0.171E-02
  -9.886 -0.149E-02 -0.149E-02
  -9.876 -0.126E-02 -0.126E-02
  -9.866 -0.102E-02 -0.102E-02
  -9.856 -0.755E-03 -0.755E-03
  -9.846 -0.475E-03 -0.475E-03
  -9.836 -0.176E-03 -0.176E-03
  -9.826  0.140E-03  0.140E-03
  -9.816  0.476E-03  0.476E-03
  -9.806  0.830E-03  0.830E-03
  -9.796  0.120E-02  0.120E-02
  -9.786  0.160E-02  0.160E-02
  -9.776  0.201E-02  0.201E-02
  -9.766  0.245E-02  0.245E-02
  -9.756  0.290E-02  0.290E-02
  -9.746  0.338E-02  0.338E-02
  -9.736  0.388E-02  0.388E-02
  -9.726  0.440E-02  0.440E-02
  -9.716  0.494E-02  0.494E-02
  -9.706  0.551E-02  0.551E-02
  -9.696  0.609E-02  0.609E-02
  -9.686  0.670E-02  0.670E-02
  -9.676  0.734E-02  0.734E-02
  -9.666  0.799E-02  0.799E-02
  -9.656  0.867E-02  0.867E-02
  -9.646  0.937E-02  0.937E-02
  -9.636  0.101E-01  0.101E-01
  -9.626  0.108E-01  0.108E-01
  -9.616  0.116E-01  0.116E-01
  -9.606  0.124E-01  0.124E-01
  -9.596  0.132E-01  0.132E-01
  -9.586  0.141E-01  0.141E-01
  -9.576  0.149E-01  0.149E-01
  -9.566  0.158E-01  0.158E-01
  -9.556  0.167E-01  0.167E-01
  -9.546  0.176E-01  0.176E-01
  -9.536  0.186E-01  0.186E-01
  -9.526  0.196E-01  0.196E-01
  -9.516  0.205E-01  0.205E-01
  -9.506  0.215E-01  0.215E-01
  -9.496  0.226E-01  0.226E-01
  -9.486  0.236E-01  0.236E-01
  -9.476  0.247E-01  0.247E-01
  -9.466  0.258E-01  0.258E-01
  -9.456  0.268E-01  0.268E-01
  -9.446  0.280E-01  0.280E-01
  -9.436  0.291E-01  0.291E-01
  -9.426  0.302E-01  0.302E-01
  -9.416  0.314E-01  0.314E-01
  -9.406  0.325E-01  0.325E-01
  -9.396  0.337E-01  0.337E-01
  -9.386  0.349E-01  0.349E-01
  -9.376  0.361E-01  0.361E-01
  -9.366  0.373E-01  0.373E-01
  -9.356  0.385E-01  0.385E-01
  -9.346  0.398E-01  0.398E-01
  -9.336  0.410E-01  0.410E-01
  -9.326  0.422E-01  0.422E-01
  -9.316  0.434E-01  0.434E-01
  -9.306  0.447E-01  0.447E-01
  -9.296  0.459E-01  0.459E-01
  -9.286  0.472E-01  0.472E-01
  -9.276  0.484E-01  0.484E-01
  -9.266  0.496E-01  0.496E-01
  -9.256  0.509E-01  0.509E-01
  -9.246  0.521E-01  0.521E-01
  -9.236  0.533E-01  0.533E-01
  -9.226  0.546E-01  0.546E-01
  -9.216  0.558E-01  0.558E-01
  -9.206  0.570E-01  0.570E-01
  -9.196  0.582E-01  0.582E-01
  -9.186  0.594E-01  0.594E-01
  -9.176  0.605E-01  0.605E-01
  -9.166  0.617E-01  0.617E-01
  -9.156  0.629E-01  0.629E-01
  -9.146  0.640E-01  0.640E-01
  -9.136  0.651E-01  0.651E-01
  -9.126  0.662E-01  0.662E-01
  -9.116  0.673E-01  0.673E-01
  -9.106  0.684E-01  0.684E-01
  -9.096  0.694E-01  0.694E-01
  -9.086  0.705E-01  0.705E-01
  -9.076  0.715E-01  0.715E-01
  -9.066  0.725E-01  0.725E-01
  -9.056  0.734E-01  0.734E-01
  -9.046  0.744E-01  0.744E-01
  -9.036  0.753E-01  0.753E-01
  -9.026  0.762E-01  0.762E-01
  -9.016  0.771E-01  0.771E-01
  -9.006  0.780E-01  0.780E-01
  -8.996  0.788E-01  0.788E-01
  -8.986  0.796E-01  0.796E-01
  -8.976  0.804E-01  0.804E-01
  -8.966  0.811E-01  0.811E-01
  -8.956  0.819E-01  0.819E-01
  -8.946  0.826E-01  0.826E-01
  -8.936  0.833E-01  0.833E-01
  -8.926  0.839E-01  0.839E-01
  -8.916  0.845E-01  0.845E-01
  -8.906  0.851E-01  0.851E-01
  -8.896  0.857E-01  0.857E-01
  -8.886  0.863E-01  0.863E-01
  -8.876  0.868E-01  0.868E-01
  -8.866  0.873E-01  0.873E-01
  -8.856  0.877E-01  0.877E-01
  -8.846  0.882E-01  0.882E-01
  -8.836  0.886E-01  0.886E-01
  -8.826  0.890E-01  0.890E-01
  -8.816  0.894E-01  0.894E-01
  -8.806  0.897E-01  0.897E-01
  -8.796  0.900E-01  0.900E-01
  -8.786  0.903E-01  0.903E-01
  -8.776  0.906E-01  0.906E-01
  -8.766  0.908E-01  0.908E-01
  -8.756  0.910E-01  0.910E-01
  -8.746  0.912E-01  0.912E-01
  -8.736  0.914E-01  0.914E-01
  -8.726  0.915E-01  0.915E-01
  -8.716  0.916E-01  0.916E-01
  -8.706  0.917E-01  0.917E-01
  -8.696  0.918E-01  0.918E-01
  -8.686  0.918E-01  0.918E-01
  -8.676  0.918E-01  0.918E-01
  -8.666  0.918E-01  0.918E-01
  -8.656  0.918E-01  0.918E-01
  -8.646  0.918E-01  0.918E-01
  -8.636  0.917E-01  0.917E-01
  -8.626  0.916E-01  0.916E-01
  -8.616  0.915E-01  0.915E-01
  -8.606  0.914E-01  0.914E-01
  -8.596  0.913E-01  0.913E-01
  -8.586  0.911E-01  0.911E-01
  -8.576  0.909E-01  0.909E-01
  -8.566  0.907E-01  0.907E-01
  -8.556  0.905E-01  0.905E-01
  -8.546  0.902E-01  0.902E-01
  -8.536  0.900E-01  0.900E-01
  -8.526  0.897E-01  0.897E-01
  -8.516  0.894E-01  0.894E-01
  -8.506  0.891E-01  0.891E-01
  -8.496  0.887E-01  0.887E-01
  -8.486  0.884E-01  0.884E-01
  -8.476  0.880E-01  0.880E-01
  -8.466  0.876E-01  0.876E-01
  -8.456  0.872E-01  0.872E-01
  -8.446  0.868E-01  0.868E-01
  -8.436  0.863E-01  0.863E-01
  -8.426  0.859E-01  0.859E-01
  -8.416  0.854E-01  0.854E-01
  -8.406  0.849E-01  0.849E-01
  -8.396  0.844E-01  0.844E-01
  -8.386  0.839E-01  0.839E-01
  -8.376  0.833E-01  0.833E-01
  -8.366  0.828E-01  0.828E-01
  -8.356  0.822E-01  0.822E-01
  -8.346  0.817E-01  0.817E-01
  -8.336  0.811E-01  0.811E-01
  -8.326  0.805E-01  0.805E-01
  -8.316  0.799E-01  0.799E-01
  -8.306  0.792E-01  0.792E-01
  -8.296  0.786E-01  0.786E-01
  -8.286  0.779E-01  0.779E-01
  -8.276  0.773E-01  0.773E-01
  -8.266  0.766E-01  0.766E-01
  -8.256  0.760E-01  0.760E-01
  -8.246  0.753E-01  0.753E-01
  -8.236  0.746E-01  0.746E-01
  -8.226  0.739E-01  0.739E-01
  -8.216  0.732E-01  0.732E-01
  -8.206  0.725E-01  0.725E-01
  -8.196  0.718E-01  0.718E-01
  -8.186  0.711E-01  0.711E-01
  -8.176  0.704E-01  0.704E-01
  -8.166  0.697E-01  0.697E-01
  -8.156  0.689E-01  0.689E-01
  -8.146  0.682E-01  0.682E-01
  -8.136  0.675E-01  0.675E-01
  -8.126  0.668E-01  0.668E-01
  -8.116  0.661E-01  0.661E-01
  -8.106  0.655E-01  0.655E-01
  -8.096  0.648E-01  0.648E-01
  -8.086  0.641E-01  0.641E-01
  -8.076  0.634E-01  0.634E-01
  -8.066  0.628E-01  0.628E-01
  -8.056  0.622E-01  0.622E-01
  -8.046  0.615E-01  0.615E-01
  -8.036  0.609E-01  0.609E-01
  -8.026  0.603E-01  0.603E-01
  -8.016  0.598E-01  0.598E-01
  -8.006  0.592E-01  0.592E-01
  -7.996  0.587E-01  0.587E-01
  -7.986  0.582E-01  0.582E-01
  -7.976  0.577E-01  0.577E-01
  -7.966  0.572E-01  0.572E-01
  -7.956  0.568E-01  0.568E-01
  -7.946  0.564E-01  0.564E-01
  -7.936  0.560E-01  0.560E-01
  -7.926  0.556E-01  0.556E-01
  -7.916  0.553E-01  0.553E-01
  -7.906  0.550E-01  0.550E-01
  -7.896  0.547E-01  0.547E-01
  -7.886  0.545E-01  0.545E-01
  -7.876  0.543E-01  0.543E-01
  -7.866  0.541E-01  0.541E-01
  -7.856  0.540E-01  0.540E-01
  -7.846  0.539E-01  0.539E-01
  -7.836  0.538E-01  0.538E-01
  -7.826  0.538E-01  0.538E-01
  -7.816  0.538E-01  0.538E-01
  -7.806  0.539E-01  0.539E-01
  -7.796  0.539E-01  0.539E-01
  -7.786  0.541E-01  0.541E-01
  -7.776  0.542E-01  0.542E-01
  -7.766  0.544E-01  0.544E-01
  -7.756  0.546E-01  0.546E-01
  -7.746  0.549E-01  0.549E-01
  -7.736  0.552E-01  0.552E-01
  -7.726  0.556E-01  0.556E-01
  -7.716  0.560E-01  0.560E-01
  -7.706  0.564E-01  0.564E-01
  -7.696  0.568E-01  0.568E-01
  -7.686  0.573E-01  0.573E-01
  -7.676  0.579E-01  0.579E-01
  -7.666  0.584E-01  0.584E-01
  -7.656  0.590E-01  0.590E-01
  -7.646  0.596E-01  0.596E-01
  -7.636  0.603E-01  0.603E-01
  -7.626  0.610E-01  0.610E-01
  -7.616  0.617E-01  0.617E-01
  -7.606  0.624E-01  0.624E-01
  -7.596  0.632E-01  0.632E-01
  -7.586  0.640E-01  0.640E-01
  -7.576  0.648E-01  0.648E-01
  -7.566  0.656E-01  0.656E-01
  -7.556  0.665E-01  0.665E-01
  -7.546  0.673E-01  0.673E-01
  -7.536  0.682E-01  0.682E-01
  -7.526  0.691E-01  0.691E-01
  -7.516  0.700E-01  0.700E-01
  -7.506  0.710E-01  0.710E-01
  -7.496  0.719E-01  0.719E-01
  -7.486  0.728E-01  0.728E-01
  -7.476  0.738E-01  0.738E-01
  -7.466  0.747E-01  0.747E-01
  -7.456  0.757E-01  0.757E-01
  -7.446  0.766E-01  0.766E-01
  -7.436  0.776E-01  0.776E-01
  -7.426  0.785E-01  0.785E-01
  -7.416  0.794E-01  0.794E-01
  -7.406  0.803E-01  0.803E-01
  -7.396  0.813E-01  0.813E-01
  -7.386  0.822E-01  0.822E-01
  -7.376  0.830E-01  0.830E-01
  -7.366  0.839E-01  0.839E-01
  -7.356  0.847E-01  0.847E-01
  -7.346  0.856E-01  0.856E-01
  -7.336  0.864E-01  0.864E-01
  -7.326  0.871E-01  0.871E-01
  -7.316  0.879E-01  0.879E-01
  -7.306  0.886E-01  0.886E-01
  -7.296  0.893E-01  0.893E-01
  -7.286  0.899E-01  0.899E-01
  -7.276  0.906E-01  0.906E-01
  -7.266  0.911E-01  0.911E-01
  -7.256  0.917E-01  0.917E-01
  -7.246  0.922E-01  0.922E-01
  -7.236  0.927E-01  0.927E-01
  -7.226  0.931E-01  0.931E-01
  -7.216  0.935E-01  0.935E-01
  -7.206  0.938E-01  0.938E-01
  -7.196  0.941E-01  0.941E-01
  -7.186  0.944E-01  0.944E-01
  -7.176  0.946E-01  0.946E-01
  -7.166  0.947E-01  0.947E-01
  -7.156  0.948E-01  0.948E-01
  -7.146  0.949E-01  0.949E-01
  -7.136  0.949E-01  0.949E-01
  -7.126  0.948E-01  0.948E-01
  -7.116  0.948E-01  0.948E-01
  -7.106  0.946E-01  0.946E-01
  -7.096  0.944E-01  0.944E-01
  -7.086  0.942E-01  0.942E-01
  -7.076  0.939E-01  0.939E-01
  -7.066  0.935E-01  0.935E-01
  -7.056  0.931E-01  0.931E-01
  -7.046  0.927E-01  0.927E-01
  -7.036  0.922E-01  0.922E-01
  -7.026  0.917E-01  0.917E-01
  -7.016  0.911E-01  0.911E-01
  -7.006  0.904E-01  0.904E-01
  -6.996  0.897E-01  0.897E-01
  -6.986  0.890E-01  0.890E-01
  -6.976  0.882E-01  0.882E-01
  -6.966  0.874E-01  0.874E-01
  -6.956  0.865E-01  0.865E-01
  -6.946  0.856E-01  0.856E-01
  -6.936  0.847E-01  0.847E-01
  -6.926  0.837E-01  0.837E-01
  -6.916  0.826E-01  0.826E-01
  -6.906  0.816E-01  0.816E-01
  -6.896  0.805E-01  0.805E-01
  -6.886  0.793E-01  0.793E-01
  -6.876  0.782E-01  0.782E-01
  -6.866  0.770E-01  0.770E-01
  -6.856  0.757E-01  0.757E-01
  -6.846  0.745E-01  0.745E-01
  -6.836  0.732E-01  0.732E-01
  -6.826  0.719E-01  0.719E-01
  -6.816  0.706E-01  0.706E-01
  -6.806  0.692E-01  0.692E-01
  -6.796  0.679E-01  0.679E-01
  -6.786  0.665E-01  0.665E-01
  -6.776  0.651E-01  0.651E-01
  -6.766  0.637E-01  0.637E-01
  -6.756  0.623E-01  0.623E-01
  -6.746  0.608E-01  0.608E-01
  -6.736  0.594E-01  0.594E-01
  -6.726  0.580E-01  0.580E-01
  -6.716  0.566E-01  0.566E-01
  -6.706  0.551E-01  0.551E-01
  -6.696  0.537E-01  0.537E-01
  -6.686  0.523E-01  0.523E-01
  -6.676  0.508E-01  0.508E-01
  -6.666  0.494E-01  0.494E-01
  -6.656  0.480E-01  0.480E-01
  -6.646  0.466E-01  0.466E-01
  -6.636  0.453E-01  0.453E-01
  -6.626  0.439E-01  0.439E-01
  -6.616  0.426E-01  0.426E-01
  -6.606  0.412E-01  0.412E-01
  -6.596  0.399E-01  0.399E-01
  -6.586  0.386E-01  0.386E-01
  -6.576  0.374E-01  0.374E-01
  -6.566  0.361E-01  0.361E-01
  -6.556  0.349E-01  0.349E-01
  -6.546  0.338E-01  0.338E-01
  -6.536  0.326E-01  0.326E-01
  -6.526  0.315E-01  0.315E-01
  -6.516  0.304E-01  0.304E-01
  -6.506  0.293E-01  0.293E-01
  -6.496  0.283E-01  0.283E-01
  -6.486  0.273E-01  0.273E-01
  -6.476  0.264E-01  0.264E-01
  -6.466  0.255E-01  0.255E-01
  -6.456  0.246E-01  0.246E-01
  -6.446  0.238E-01  0.238E-01
  -6.436  0.230E-01  0.230E-01
  -6.426  0.222E-01  0.222E-01
  -6.416  0.215E-01  0.215E-01
  -6.406  0.208E-01  0.208E-01
  -6.396  0.202E-01  0.202E-01
  -6.386  0.196E-01  0.196E-01
  -6.376  0.191E-01  0.191E-01
  -6.366  0.185E-01  0.185E-01
  -6.356  0.181E-01  0.181E-01
  -6.346  0.177E-01  0.177E-01
  -6.336  0.173E-01  0.173E-01
  -6.326  0.169E-01  0.169E-01
  -6.316  0.166E-01  0.166E-01
  -6.306  0.164E-01  0.164E-01
  -6.296  0.162E-01  0.162E-01
  -6.286  0.160E-01  0.160E-01
  -6.276  0.158E-01  0.158E-01
  -6.266  0.157E-01  0.157E-01
  -6.256  0.157E-01  0.157E-01
  -6.246  0.157E-01  0.157E-01
  -6.236  0.157E-01  0.157E-01
  -6.226  0.157E-01  0.157E-01
  -6.216  0.158E-01  0.158E-01
  -6.206  0.159E-01  0.159E-01
  -6.196  0.161E-01  0.161E-01
  -6.186  0.163E-01  0.163E-01
  -6.176  0.165E-01  0.165E-01
  -6.166  0.168E-01  0.168E-01
  -6.156  0.171E-01  0.171E-01
  -6.146  0.174E-01  0.174E-01
  -6.136  0.177E-01  0.177E-01
  -6.126  0.181E-01  0.181E-01
  -6.116  0.185E-01  0.185E-01
  -6.106  0.189E-01  0.189E-01
  -6.096  0.193E-01  0.193E-01
  -6.086  0.198E-01  0.198E-01
  -6.076  0.202E-01  0.202E-01
  -6.066  0.207E-01  0.207E-01
  -6.056  0.212E-01  0.212E-01
  -6.046  0.218E-01  0.218E-01
  -6.036  0.223E-01  0.223E-01
  -6.026  0.229E-01  0.229E-01
  -6.016  0.234E-01  0.234E-01
  -6.006  0.240E-01  0.240E-01
  -5.996  0.246E-01  0.246E-01
  -5.986  0.252E-01  0.252E-01
  -5.976  0.258E-01  0.258E-01
  -5.966  0.264E-01  0.264E-01
  -5.956  0.270E-01  0.270E-01
  -5.946  0.276E-01  0.276E-01
  -5.936  0.282E-01  0.282E-01
  -5.926  0.288E-01  0.288E-01
  -5.916  0.294E-01  0.294E-01
  -5.906  0.300E-01  0.300E-01
  -5.896  0.306E-01  0.306E-01
  -5.886  0.312E-01  0.312E-01
  -5.876  0.318E-01  0.318E-01
  -5.866  0.324E-01  0.324E-01
  -5.856  0.330E-01  0.330E-01
  -5.846  0.336E-01  0.336E-01
  -5.836  0.341E-01  0.341E-01
  -5.826  0.347E-01  0.347E-01
  -5.816  0.352E-01  0.352E-01
  -5.806  0.357E-01  0.357E-01
  -5.796  0.362E-01  0.362E-01
  -5.786  0.367E-01  0.367E-01
  -5.776  0.372E-01  0.372E-01
  -5.766  0.377E-01  0.377E-01
  -5.756  0.381E-01  0.381E-01
  -5.746  0.386E-01  0.386E-01
  -5.736  0.390E-01  0.390E-01
  -5.726  0.394E-01  0.394E-01
  -5.716  0.398E-01  0.398E-01
  -5.706  0.401E-01  0.401E-01
  -5.696  0.405E-01  0.405E-01
  -5.686  0.408E-01  0.408E-01
  -5.676  0.411E-01  0.411E-01
  -5.666  0.414E-01  0.414E-01
  -5.656  0.417E-01  0.417E-01
  -5.646  0.420E-01  0.420E-01
  -5.636  0.422E-01  0.422E-01
  -5.626  0.424E-01  0.424E-01
  -5.616  0.426E-01  0.426E-01
  -5.606  0.428E-01  0.428E-01
  -5.596  0.430E-01  0.430E-01
  -5.586  0.431E-01  0.431E-01
  -5.576  0.433E-01  0.433E-01
  -5.566  0.434E-01  0.434E-01
  -5.556  0.435E-01  0.435E-01
  -5.546  0.436E-01  0.436E-01
  -5.536  0.436E-01  0.436E-01
  -5.526  0.437E-01  0.437E-01
  -5.516  0.437E-01  0.437E-01
  -5.506  0.438E-01  0.438E-01
  -5.496  0.438E-01  0.438E-01
  -5.486  0.438E-01  0.438E-01
  -5.476  0.438E-01  0.438E-01
  -5.466  0.438E-01  0.438E-01
  -5.456  0.437E-01  0.437E-01
  -5.446  0.437E-01  0.437E-01
  -5.436  0.436E-01  0.436E-01
  -5.426  0.436E-01  0.436E-01
  -5.416  0.435E-01  0.435E-01
  -5.406  0.434E-01  0.434E-01
  -5.396  0.433E-01  0.433E-01
  -5.386  0.432E-01  0.432E-01
  -5.376  0.431E-01  0.431E-01
  -5.366  0.430E-01  0.430E-01
  -5.356  0.429E-01  0.429E-01
  -5.346  0.428E-01  0.428E-01
  -5.336  0.427E-01  0.427E-01
  -5.326  0.426E-01  0.426E-01
  -5.316  0.425E-01  0.425E-01
  -5.306  0.424E-01  0.424E-01
  -5.296  0.422E-01  0.422E-01
  -5.286  0.421E-01  0.421E-01
  -5.276  0.420E-01  0.420E-01
  -5.266  0.419E-01  0.419E-01
  -5.256  0.418E-01  0.418E-01
  -5.246  0.417E-01  0.417E-01
  -5.236  0.416E-01  0.416E-01
  -5.226  0.414E-01  0.414E-01
  -5.216  0.413E-01  0.413E-01
  -5.206  0.412E-01  0.412E-01
  -5.196  0.412E-01  0.412E-01
  -5.186  0.411E-01  0.411E-01
  -5.176  0.410E-01  0.410E-01
  -5.166  0.409E-01  0.409E-01
  -5.156  0.408E-01  0.408E-01
  -5.146  0.408E-01  0.408E-01
  -5.136  0.407E-01  0.407E-01
  -5.126  0.407E-01  0.407E-01
  -5.116  0.406E-01  0.406E-01
  -5.106  0.406E-01  0.406E-01
  -5.096  0.406E-01  0.406E-01
  -5.086  0.406E-01  0.406E-01
  -5.076  0.406E-01  0.406E-01
  -5.066  0.406E-01  0.406E-01
  -5.056  0.406E-01  0.406E-01
  -5.046  0.406E-01  0.406E-01
  -5.036  0.407E-01  0.407E-01
  -5.026  0.407E-01  0.407E-01
  -5.016  0.408E-01  0.408E-01
  -5.006  0.409E-01  0.409E-01
  -4.996  0.409E-01  0.409E-01
  -4.986  0.410E-01  0.410E-01
  -4.976  0.411E-01  0.411E-01
  -4.966  0.412E-01  0.412E-01
  -4.956  0.414E-01  0.414E-01
  -4.946  0.415E-01  0.415E-01
  -4.936  0.417E-01  0.417E-01
  -4.926  0.418E-01  0.418E-01
  -4.916  0.420E-01  0.420E-01
  -4.906  0.422E-01  0.422E-01
  -4.896  0.424E-01  0.424E-01
  -4.886  0.426E-01  0.426E-01
  -4.876  0.428E-01  0.428E-01
  -4.866  0.430E-01  0.430E-01
  -4.856  0.433E-01  0.433E-01
  -4.846  0.436E-01  0.436E-01
  -4.836  0.438E-01  0.438E-01
  -4.826  0.441E-01  0.441E-01
  -4.816  0.444E-01  0.444E-01
  -4.806  0.447E-01  0.447E-01
  -4.796  0.450E-01  0.450E-01
  -4.786  0.454E-01  0.454E-01
  -4.776  0.457E-01  0.457E-01
  -4.766  0.461E-01  0.461E-01
  -4.756  0.465E-01  0.465E-01
  -4.746  0.468E-01  0.468E-01
  -4.736  0.472E-01  0.472E-01
  -4.726  0.476E-01  0.476E-01
  -4.716  0.481E-01  0.481E-01
  -4.706  0.485E-01  0.485E-01
  -4.696  0.489E-01  0.489E-01
  -4.686  0.494E-01  0.494E-01
  -4.676  0.499E-01  0.499E-01
  -4.666  0.504E-01  0.504E-01
  -4.656  0.508E-01  0.508E-01
  -4.646  0.513E-01  0.513E-01
  -4.636  0.519E-01  0.519E-01
  -4.626  0.524E-01  0.524E-01
  -4.616  0.529E-01  0.529E-01
  -4.606  0.535E-01  0.535E-01
  -4.596  0.540E-01  0.540E-01
  -4.586  0.546E-01  0.546E-01
  -4.576  0.552E-01  0.552E-01
  -4.566  0.558E-01  0.558E-01
  -4.556  0.564E-01  0.564E-01
  -4.546  0.570E-01  0.570E-01
  -4.536  0.576E-01  0.576E-01
  -4.526  0.582E-01  0.582E-01
  -4.516  0.589E-01  0.589E-01
  -4.506  0.595E-01  0.595E-01
  -4.496  0.602E-01  0.602E-01
  -4.486  0.608E-01  0.608E-01
  -4.476  0.615E-01  0.615E-01
  -4.466  0.622E-01  0.622E-01
  -4.456  0.628E-01  0.628E-01
  -4.446  0.635E-01  0.635E-01
  -4.436  0.642E-01  0.642E-01
  -4.426  0.649E-01  0.649E-01
  -4.416  0.656E-01  0.656E-01
  -4.406  0.663E-01  0.663E-01
  -4.396  0.670E-01  0.670E-01
  -4.386  0.677E-01  0.677E-01
  -4.376  0.684E-01  0.684E-01
  -4.366  0.691E-01  0.691E-01
  -4.356  0.698E-01  0.698E-01
  -4.346  0.705E-01  0.705E-01
  -4.336  0.712E-01  0.712E-01
  -4.326  0.720E-01  0.720E-01
  -4.316  0.727E-01  0.727E-01
  -4.306  0.734E-01  0.734E-01
  -4.296  0.741E-01  0.741E-01
  -4.286  0.748E-01  0.748E-01
  -4.276  0.755E-01  0.755E-01
  -4.266  0.762E-01  0.762E-01
  -4.256  0.769E-01  0.769E-01
  -4.246  0.775E-01  0.775E-01
  -4.236  0.782E-01  0.782E-01
  -4.226  0.789E-01  0.789E-01
  -4.216  0.795E-01  0.795E-01
  -4.206  0.802E-01  0.802E-01
  -4.196  0.809E-01  0.809E-01
  -4.186  0.815E-01  0.815E-01
  -4.176  0.821E-01  0.821E-01
  -4.166  0.827E-01  0.827E-01
  -4.156  0.834E-01  0.834E-01
  -4.146  0.840E-01  0.840E-01
  -4.136  0.845E-01  0.845E-01
  -4.126  0.851E-01  0.851E-01
  -4.116  0.857E-01  0.857E-01
  -4.106  0.862E-01  0.862E-01
  -4.096  0.868E-01  0.868E-01
  -4.086  0.873E-01  0.873E-01
  -4.076  0.878E-01  0.878E-01
  -4.066  0.883E-01  0.883E-01
  -4.056  0.888E-01  0.888E-01
  -4.046  0.893E-01  0.893E-01
  -4.036  0.898E-01  0.898E-01
  -4.026  0.902E-01  0.902E-01
  -4.016  0.906E-01  0.906E-01
  -4.006  0.910E-01  0.910E-01
  -3.996  0.915E-01  0.915E-01
  -3.986  0.918E-01  0.918E-01
  -3.976  0.922E-01  0.922E-01
  -3.966  0.926E-01  0.926E-01
  -3.956  0.929E-01  0.929E-01
  -3.946  0.932E-01  0.932E-01
  -3.936  0.935E-01  0.935E-01
  -3.926  0.938E-01  0.938E-01
  -3.916  0.941E-01  0.941E-01
  -3.906  0.944E-01  0.944E-01
  -3.896  0.946E-01  0.946E-01
  -3.886  0.949E-01  0.949E-01
  -3.876  0.951E-01  0.951E-01
  -3.866  0.953E-01  0.953E-01
  -3.856  0.955E-01  0.955E-01
  -3.846  0.957E-01  0.957E-01
  -3.836  0.958E-01  0.958E-01
  -3.826  0.960E-01  0.960E-01
  -3.816  0.961E-01  0.961E-01
  -3.806  0.962E-01  0.962E-01
  -3.796  0.963E-01  0.963E-01
  -3.786  0.964E-01  0.964E-01
  -3.776  0.965E-01  0.965E-01
  -3.766  0.966E-01  0.966E-01
  -3.756  0.966E-01  0.966E-01
  -3.746  0.966E-01  0.966E-01
  -3.736  0.967E-01  0.967E-01
  -3.726  0.967E-01  0.967E-01
  -3.716  0.967E-01  0.967E-01
  -3.706  0.967E-01  0.967E-01
  -3.696  0.967E-01  0.967E-01
  -3.686  0.966E-01  0.966E-01
  -3.676  0.966E-01  0.966E-01
  -3.666  0.966E-01  0.966E-01
  -3.656  0.965E-01  0.965E-01
  -3.646  0.964E-01  0.964E-01
  -3.636  0.963E-01  0.963E-01
  -3.626  0.963E-01  0.963E-01
  -3.616  0.962E-01  0.962E-01
  -3.606  0.960E-01  0.960E-01
  -3.596  0.959E-01  0.959E-01
  -3.586  0.958E-01  0.958E-01
  -3.576  0.957E-01  0.957E-01
  -3.566  0.955E-01  0.955E-01
  -3.556  0.954E-01  0.954E-01
  -3.546  0.952E-01  0.952E-01
  -3.536  0.950E-01  0.950E-01
  -3.526  0.949E-01  0.949E-01
  -3.516  0.947E-01  0.947E-01
  -3.506  0.945E-01  0.945E-01
  -3.496  0.943E-01  0.943E-01
  -3.486  0.941E-01  0.941E-01
  -3.476  0.939E-01  0.939E-01
  -3.466  0.937E-01  0.937E-01
  -3.456  0.934E-01  0.934E-01
  -3.446  0.932E-01  0.932E-01
  -3.436  0.930E-01  0.930E-01
  -3.426  0.927E-01  0.927E-01
  -3.416  0.925E-01  0.925E-01
  -3.406  0.922E-01  0.922E-01
  -3.396  0.919E-01  0.919E-01
  -3.386  0.917E-01  0.917E-01
  -3.376  0.914E-01  0.914E-01
  -3.366  0.911E-01  0.911E-01
  -3.356  0.908E-01  0.908E-01
  -3.346  0.905E-01  0.905E-01
  -3.336  0.903E-01  0.903E-01
  -3.326  0.900E-01  0.900E-01
  -3.316  0.896E-01  0.896E-01
  -3.306  0.893E-01  0.893E-01
  -3.296  0.890E-01  0.890E-01
  -3.286  0.887E-01  0.887E-01
  -3.276  0.884E-01  0.884E-01
  -3.266  0.881E-01  0.881E-01
  -3.256  0.877E-01  0.877E-01
  -3.246  0.874E-01  0.874E-01
  -3.236  0.871E-01  0.871E-01
  -3.226  0.868E-01  0.868E-01
  -3.216  0.864E-01  0.864E-01
  -3.206  0.861E-01  0.861E-01
  -3.196  0.858E-01  0.858E-01
  -3.186  0.854E-01  0.854E-01
  -3.176  0.851E-01  0.851E-01
  -3.166  0.848E-01  0.848E-01
  -3.156  0.844E-01  0.844E-01
  -3.146  0.841E-01  0.841E-01
  -3.136  0.838E-01  0.838E-01
  -3.126  0.835E-01  0.835E-01
  -3.116  0.831E-01  0.831E-01
  -3.106  0.828E-01  0.828E-01
  -3.096  0.825E-01  0.825E-01
  -3.086  0.822E-01  0.822E-01
  -3.076  0.820E-01  0.820E-01
  -3.066  0.817E-01  0.817E-01
  -3.056  0.814E-01  0.814E-01
  -3.046  0.812E-01  0.812E-01
  -3.036  0.809E-01  0.809E-01
  -3.026  0.807E-01  0.807E-01
  -3.016  0.805E-01  0.805E-01
  -3.006  0.803E-01  0.803E-01
  -2.996  0.801E-01  0.801E-01
  -2.986  0.799E-01  0.799E-01
  -2.976  0.797E-01  0.797E-01
  -2.966  0.796E-01  0.796E-01
  -2.956  0.795E-01  0.795E-01
  -2.946  0.794E-01  0.794E-01
  -2.936  0.793E-01  0.793E-01
  -2.926  0.793E-01  0.793E-01
  -2.916  0.792E-01  0.792E-01
  -2.906  0.792E-01  0.792E-01
  -2.896  0.793E-01  0.793E-01
  -2.886  0.793E-01  0.793E-01
  -2.876  0.794E-01  0.794E-01
  -2.866  0.795E-01  0.795E-01
  -2.856  0.796E-01  0.796E-01
  -2.846  0.798E-01  0.798E-01
  -2.836  0.800E-01  0.800E-01
  -2.826  0.802E-01  0.802E-01
  -2.816  0.805E-01  0.805E-01
  -2.806  0.808E-01  0.808E-01
  -2.796  0.811E-01  0.811E-01
  -2.786  0.815E-01  0.815E-01
  -2.776  0.819E-01  0.819E-01
  -2.766  0.823E-01  0.823E-01
  -2.756  0.828E-01  0.828E-01
  -2.746  0.833E-01  0.833E-01
  -2.736  0.838E-01  0.838E-01
  -2.726  0.844E-01  0.844E-01
  -2.716  0.850E-01  0.850E-01
  -2.706  0.857E-01  0.857E-01
  -2.696  0.864E-01  0.864E-01
  -2.686  0.871E-01  0.871E-01
  -2.676  0.879E-01  0.879E-01
  -2.666  0.887E-01  0.887E-01
  -2.656  0.896E-01  0.896E-01
  -2.646  0.904E-01  0.904E-01
  -2.636  0.914E-01  0.914E-01
  -2.626  0.923E-01  0.923E-01
  -2.616  0.933E-01  0.933E-01
  -2.606  0.943E-01  0.943E-01
  -2.596  0.954E-01  0.954E-01
  -2.586  0.965E-01  0.965E-01
  -2.576  0.976E-01  0.976E-01
  -2.566  0.987E-01  0.987E-01
  -2.556  0.999E-01  0.999E-01
  -2.546  0.101E+00  0.101E+00
  -2.536  0.102E+00  0.102E+00
  -2.526  0.104E+00  0.104E+00
  -2.516  0.105E+00  0.105E+00
  -2.506  0.106E+00  0.106E+00
  -2.496  0.107E+00  0.107E+00
  -2.486  0.109E+00  0.109E+00
  -2.476  0.110E+00  0.110E+00
  -2.466  0.111E+00  0.111E+00
  -2.456  0.113E+00  0.113E+00
  -2.446  0.114E+00  0.114E+00
  -2.436  0.116E+00  0.116E+00
  -2.426  0.117E+00  0.117E+00
  -2.416  0.118E+00  0.118E+00
  -2.406  0.120E+00  0.120E+00
  -2.396  0.121E+00  0.121E+00
  -2.386  0.123E+00  0.123E+00
  -2.376  0.124E+00  0.124E+00
  -2.366  0.125E+00  0.125E+00
  -2.356  0.127E+00  0.127E+00
  -2.346  0.128E+00  0.128E+00
  -2.336  0.129E+00  0.129E+00
  -2.326  0.131E+00  0.131E+00
  -2.316  0.132E+00  0.132E+00
  -2.306  0.133E+00  0.133E+00
  -2.296  0.134E+00  0.134E+00
  -2.286  0.136E+00  0.136E+00
  -2.276  0.137E+00  0.137E+00
  -2.266  0.138E+00  0.138E+00
  -2.256  0.139E+00  0.139E+00
  -2.246  0.140E+00  0.140E+00
  -2.236  0.141E+00  0.141E+00
  -2.226  0.142E+00  0.142E+00
  -2.216  0.143E+00  0.143E+00
  -2.206  0.144E+00  0.144E+00
  -2.196  0.145E+00  0.145E+00
  -2.186  0.146E+00  0.146E+00
  -2.176  0.146E+00  0.146E+00
  -2.166  0.147E+00  0.147E+00
  -2.156  0.148E+00  0.148E+00
  -2.146  0.148E+00  0.148E+00
  -2.136  0.149E+00  0.149E+00
  -2.126  0.149E+00  0.149E+00
  -2.116  0.150E+00  0.150E+00
  -2.106  0.150E+00  0.150E+00
  -2.096  0.150E+00  0.150E+00
  -2.086  0.151E+00  0.151E+00
  -2.076  0.151E+00  0.151E+00
  -2.066  0.151E+00  0.151E+00
  -2.056  0.151E+00  0.151E+00
  -2.046  0.151E+00  0.151E+00
  -2.036  0.151E+00  0.151E+00
  -2.026  0.151E+00  0.151E+00
  -2.016  0.150E+00  0.150E+00
  -2.006  0.150E+00  0.150E+00
  -1.996  0.150E+00  0.150E+00
  -1.986  0.149E+00  0.149E+00
  -1.976  0.149E+00  0.149E+00
  -1.966  0.148E+00  0.148E+00
  -1.956  0.148E+00  0.148E+00
  -1.946  0.147E+00  0.147E+00
  -1.936  0.146E+00  0.146E+00
  -1.926  0.146E+00  0.146E+00
  -1.916  0.145E+00  0.145E+00
  -1.906  0.144E+00  0.144E+00
  -1.896  0.143E+00  0.143E+00
  -1.886  0.142E+00  0.142E+00
  -1.876  0.141E+00  0.141E+00
  -1.866  0.140E+00  0.140E+00
  -1.856  0.139E+00  0.139E+00
  -1.846  0.137E+00  0.137E+00
  -1.836  0.136E+00  0.136E+00
  -1.826  0.135E+00  0.135E+00
  -1.816  0.133E+00  0.133E+00
  -1.806  0.132E+00  0.132E+00
  -1.796  0.131E+00  0.131E+00
  -1.786  0.129E+00  0.129E+00
  -1.776  0.128E+00  0.128E+00
  -1.766  0.126E+00  0.126E+00
  -1.756  0.125E+00  0.125E+00
  -1.746  0.123E+00  0.123E+00
  -1.736  0.121E+00  0.121E+00
  -1.726  0.120E+00  0.120E+00
  -1.716  0.118E+00  0.118E+00
  -1.706  0.116E+00  0.116E+00
  -1.696  0.115E+00  0.115E+00
  -1.686  0.113E+00  0.113E+00
  -1.676  0.111E+00  0.111E+00
  -1.666  0.109E+00  0.109E+00
  -1.656  0.108E+00  0.108E+00
  -1.646  0.106E+00  0.106E+00
  -1.636  0.104E+00  0.104E+00
  -1.626  0.102E+00  0.102E+00
  -1.616  0.101E+00  0.101E+00
  -1.606  0.990E-01  0.990E-01
  -1.596  0.972E-01  0.972E-01
  -1.586  0.955E-01  0.955E-01
  -1.576  0.938E-01  0.938E-01
  -1.566  0.920E-01  0.920E-01
  -1.556  0.903E-01  0.903E-01
  -1.546  0.886E-01  0.886E-01
  -1.536  0.870E-01  0.870E-01
  -1.526  0.853E-01  0.853E-01
  -1.516  0.837E-01  0.837E-01
  -1.506  0.820E-01  0.820E-01
  -1.496  0.804E-01  0.804E-01
  -1.486  0.788E-01  0.788E-01
  -1.476  0.773E-01  0.773E-01
  -1.466  0.757E-01  0.757E-01
  -1.456  0.742E-01  0.742E-01
  -1.446  0.727E-01  0.727E-01
  -1.436  0.713E-01  0.713E-01
  -1.426  0.698E-01  0.698E-01
  -1.416  0.684E-01  0.684E-01
  -1.406  0.670E-01  0.670E-01
  -1.396  0.657E-01  0.657E-01
  -1.386  0.644E-01  0.644E-01
  -1.376  0.631E-01  0.631E-01
  -1.366  0.618E-01  0.618E-01
  -1.356  0.606E-01  0.606E-01
  -1.346  0.594E-01  0.594E-01
  -1.336  0.582E-01  0.582E-01
  -1.326  0.570E-01  0.570E-01
  -1.316  0.559E-01  0.559E-01
  -1.306  0.548E-01  0.548E-01
  -1.296  0.538E-01  0.538E-01
  -1.286  0.527E-01  0.527E-01
  -1.276  0.517E-01  0.517E-01
  -1.266  0.508E-01  0.508E-01
  -1.256  0.498E-01  0.498E-01
  -1.246  0.489E-01  0.489E-01
  -1.236  0.480E-01  0.480E-01
  -1.226  0.471E-01  0.471E-01
  -1.216  0.463E-01  0.463E-01
  -1.206  0.455E-01  0.455E-01
  -1.196  0.447E-01  0.447E-01
  -1.186  0.439E-01  0.439E-01
  -1.176  0.432E-01  0.432E-01
  -1.166  0.424E-01  0.424E-01
  -1.156  0.417E-01  0.417E-01
  -1.146  0.410E-01  0.410E-01
  -1.136  0.404E-01  0.404E-01
  -1.126  0.397E-01  0.397E-01
  -1.116  0.391E-01  0.391E-01
  -1.106  0.385E-01  0.385E-01
  -1.096  0.379E-01  0.379E-01
  -1.086  0.373E-01  0.373E-01
  -1.076  0.368E-01  0.368E-01
  -1.066  0.362E-01  0.362E-01
  -1.056  0.357E-01  0.357E-01
  -1.046  0.352E-01  0.352E-01
  -1.036  0.346E-01  0.346E-01
  -1.026  0.342E-01  0.342E-01
  -1.016  0.337E-01  0.337E-01
  -1.006  0.332E-01  0.332E-01
  -0.996  0.327E-01  0.327E-01
  -0.986  0.323E-01  0.323E-01
  -0.976  0.318E-01  0.318E-01
  -0.966  0.314E-01  0.314E-01
  -0.956  0.309E-01  0.309E-01
  -0.946  0.305E-01  0.305E-01
  -0.936  0.301E-01  0.301E-01
  -0.926  0.297E-01  0.297E-01
  -0.916  0.293E-01  0.293E-01
  -0.906  0.289E-01  0.289E-01
  -0.896  0.285E-01  0.285E-01
  -0.886  0.281E-01  0.281E-01
  -0.876  0.277E-01  0.277E-01
  -0.866  0.273E-01  0.273E-01
  -0.856  0.269E-01  0.269E-01
  -0.846  0.265E-01  0.265E-01
  -0.836  0.262E-01  0.262E-01
  -0.826  0.258E-01  0.258E-01
  -0.816  0.254E-01  0.254E-01
  -0.806  0.251E-01  0.251E-01
  -0.796  0.247E-01  0.247E-01
  -0.786  0.244E-01  0.244E-01
  -0.776  0.240E-01  0.240E-01
  -0.766  0.237E-01  0.237E-01
  -0.756  0.234E-01  0.234E-01
  -0.746  0.231E-01  0.231E-01
  -0.736  0.227E-01  0.227E-01
  -0.726  0.224E-01  0.224E-01
  -0.716  0.221E-01  0.221E-01
  -0.706  0.218E-01  0.218E-01
  -0.696  0.216E-01  0.216E-01
  -0.686  0.213E-01  0.213E-01
  -0.676  0.210E-01  0.210E-01
  -0.666  0.208E-01  0.208E-01
  -0.656  0.205E-01  0.205E-01
  -0.646  0.203E-01  0.203E-01
  -0.636  0.201E-01  0.201E-01
  -0.626  0.198E-01  0.198E-01
  -0.616  0.196E-01  0.196E-01
  -0.606  0.195E-01  0.195E-01
  -0.596  0.193E-01  0.193E-01
  -0.586  0.191E-01  0.191E-01
  -0.576  0.190E-01  0.190E-01
  -0.566  0.189E-01  0.189E-01
  -0.556  0.188E-01  0.188E-01
  -0.546  0.187E-01  0.187E-01
  -0.536  0.186E-01  0.186E-01
  -0.526  0.186E-01  0.186E-01
  -0.516  0.185E-01  0.185E-01
  -0.506  0.185E-01  0.185E-01
  -0.496  0.185E-01  0.185E-01
  -0.486  0.186E-01  0.186E-01
  -0.476  0.186E-01  0.186E-01
  -0.466  0.187E-01  0.187E-01
  -0.456  0.188E-01  0.188E-01
  -0.446  0.189E-01  0.189E-01
  -0.436  0.190E-01  0.190E-01
  -0.426  0.192E-01  0.192E-01
  -0.416  0.194E-01  0.194E-01
  -0.406  0.196E-01  0.196E-01
  -0.396  0.198E-01  0.198E-01
  -0.386  0.201E-01  0.201E-01
  -0.376  0.204E-01  0.204E-01
  -0.366  0.207E-01  0.207E-01
  -0.356  0.210E-01  0.210E-01
  -0.346  0.214E-01  0.214E-01
  -0.336  0.218E-01  0.218E-01
  -0.326  0.222E-01  0.222E-01
  -0.316  0.226E-01  0.226E-01
  -0.306  0.231E-01  0.231E-01
  -0.296  0.236E-01  0.236E-01
  -0.286  0.241E-01  0.241E-01
  -0.276  0.246E-01  0.246E-01
  -0.266  0.252E-01  0.252E-01
  -0.256  0.258E-01  0.258E-01
  -0.246  0.264E-01  0.264E-01
  -0.236  0.270E-01  0.270E-01
  -0.226  0.276E-01  0.276E-01
  -0.216  0.283E-01  0.283E-01
  -0.206  0.290E-01  0.290E-01
  -0.196  0.297E-01  0.297E-01
  -0.186  0.304E-01  0.304E-01
  -0.176  0.311E-01  0.311E-01
  -0.166  0.319E-01  0.319E-01
  -0.156  0.326E-01  0.326E-01
  -0.146  0.334E-01  0.334E-01
  -0.136  0.342E-01  0.342E-01
  -0.126  0.350E-01  0.350E-01
  -0.116  0.358E-01  0.358E-01
  -0.106  0.367E-01  0.367E-01
  -0.096  0.375E-01  0.375E-01
  -0.086  0.383E-01  0.383E-01
  -0.076  0.392E-01  0.392E-01
  -0.066  0.401E-01  0.401E-01
  -0.056  0.409E-01  0.409E-01
  -0.046  0.418E-01  0.418E-01
  -0.036  0.427E-01  0.427E-01
  -0.026  0.435E-01  0.435E-01
  -0.016  0.444E-01  0.444E-01
  -0.006  0.453E-01  0.453E-01
   0.004  0.461E-01  0.461E-01
   0.014  0.470E-01  0.470E-01
   0.024  0.479E-01  0.479E-01
   0.034  0.487E-01  0.487E-01
   0.044  0.496E-01  0.496E-01
   0.054  0.504E-01  0.504E-01
   0.064  0.512E-01  0.512E-01
   0.074  0.521E-01  0.521E-01
   0.084  0.529E-01  0.529E-01
   0.094  0.537E-01  0.537E-01
   0.104  0.545E-01  0.545E-01
   0.114  0.552E-01  0.552E-01
   0.124  0.560E-01  0.560E-01
   0.134  0.568E-01  0.568E-01
   0.144  0.575E-01  0.575E-01
   0.154  0.582E-01  0.582E-01
   0.164  0.589E-01  0.589E-01
   0.174  0.596E-01  0.596E-01
   0.184  0.603E-01  0.603E-01
   0.194  0.609E-01  0.609E-01
   0.204  0.616E-01  0.616E-01
   0.214  0.622E-01  0.622E-01
   0.224  0.628E-01  0.628E-01
   0.234  0.634E-01  0.634E-01
   0.244  0.639E-01  0.639E-01
   0.254  0.645E-01  0.645E-01
   0.264  0.650E-01  0.650E-01
   0.274  0.655E-01  0.655E-01
   0.284  0.660E-01  0.660E-01
   0.294  0.665E-01  0.665E-01
   0.304  0.669E-01  0.669E-01
   0.314  0.674E-01  0.674E-01
   0.324  0.678E-01  0.678E-01
   0.334  0.682E-01  0.682E-01
   0.344  0.686E-01  0.686E-01
   0.354  0.690E-01  0.690E-01
   0.364  0.693E-01  0.693E-01
   0.374  0.697E-01  0.697E-01
   0.384  0.700E-01  0.700E-01
   0.394  0.703E-01  0.703E-01
   0.404  0.707E-01  0.707E-01
   0.414  0.710E-01  0.710E-01
   0.424  0.713E-01  0.713E-01
   0.434  0.715E-01  0.715E-01
   0.444  0.718E-01  0.718E-01
   0.454  0.721E-01  0.721E-01
   0.464  0.724E-01  0.724E-01
   0.474  0.726E-01  0.726E-01
   0.484  0.729E-01  0.729E-01
   0.494  0.731E-01  0.731E-01
   0.504  0.734E-01  0.734E-01
   0.514  0.736E-01  0.736E-01
   0.524  0.739E-01  0.739E-01
   0.534  0.741E-01  0.741E-01
   0.544  0.744E-01  0.744E-01
   0.554  0.746E-01  0.746E-01
   0.564  0.749E-01  0.749E-01
   0.574  0.751E-01  0.751E-01
   0.584  0.754E-01  0.754E-01
   0.594  0.756E-01  0.756E-01
   0.604  0.759E-01  0.759E-01
   0.614  0.761E-01  0.761E-01
   0.624  0.764E-01  0.764E-01
   0.634  0.767E-01  0.767E-01
   0.644  0.770E-01  0.770E-01
   0.654  0.773E-01  0.773E-01
   0.664  0.776E-01  0.776E-01
   0.674  0.779E-01  0.779E-01
   0.684  0.782E-01  0.782E-01
   0.694  0.785E-01  0.785E-01
   0.704  0.788E-01  0.788E-01
   0.714  0.791E-01  0.791E-01
   0.724  0.795E-01  0.795E-01
   0.734  0.798E-01  0.798E-01
   0.744  0.802E-01  0.802E-01
   0.754  0.805E-01  0.805E-01
   0.764  0.809E-01  0.809E-01
   0.774  0.812E-01  0.812E-01
   0.784  0.816E-01  0.816E-01
   0.794  0.820E-01  0.820E-01
   0.804  0.823E-01  0.823E-01
   0.814  0.827E-01  0.827E-01
   0.824  0.831E-01  0.831E-01
   0.834  0.835E-01  0.835E-01
   0.844  0.838E-01  0.838E-01
   0.854  0.842E-01  0.842E-01
   0.864  0.846E-01  0.846E-01
   0.874  0.849E-01  0.849E-01
   0.884  0.853E-01  0.853E-01
   0.894  0.857E-01  0.857E-01
   0.904  0.860E-01  0.860E-01
   0.914  0.864E-01  0.864E-01
   0.924  0.867E-01  0.867E-01
   0.934  0.870E-01  0.870E-01
   0.944  0.873E-01  0.873E-01
   0.954  0.876E-01  0.876E-01
   0.964  0.879E-01  0.879E-01
   0.974  0.882E-01  0.882E-01
   0.984  0.884E-01  0.884E-01
   0.994  0.887E-01  0.887E-01
   1.004  0.889E-01  0.889E-01
   1.014  0.891E-01  0.891E-01
   1.024  0.893E-01  0.893E-01
   1.034  0.895E-01  0.895E-01
   1.044  0.896E-01  0.896E-01
   1.054  0.897E-01  0.897E-01
   1.064  0.898E-01  0.898E-01
   1.074  0.899E-01  0.899E-01
   1.084  0.899E-01  0.899E-01
   1.094  0.899E-01  0.899E-01
   1.104  0.899E-01  0.899E-01
   1.114  0.898E-01  0.898E-01
   1.124  0.898E-01  0.898E-01
   1.134  0.897E-01  0.897E-01
   1.144  0.895E-01  0.895E-01
   1.154  0.894E-01  0.894E-01
   1.164  0.892E-01  0.892E-01
   1.174  0.889E-01  0.889E-01
   1.184  0.887E-01  0.887E-01
   1.194  0.884E-01  0.884E-01
   1.204  0.880E-01  0.880E-01
   1.214  0.877E-01  0.877E-01
   1.224  0.873E-01  0.873E-01
   1.234  0.868E-01  0.868E-01
   1.244  0.864E-01  0.864E-01
   1.254  0.859E-01  0.859E-01
   1.264  0.853E-01  0.853E-01
   1.274  0.848E-01  0.848E-01
   1.284  0.842E-01  0.842E-01
   1.294  0.835E-01  0.835E-01
   1.304  0.829E-01  0.829E-01
   1.314  0.822E-01  0.822E-01
   1.324  0.815E-01  0.815E-01
   1.334  0.807E-01  0.807E-01
   1.344  0.799E-01  0.799E-01
   1.354  0.791E-01  0.791E-01
   1.364  0.783E-01  0.783E-01
   1.374  0.774E-01  0.774E-01
   1.384  0.765E-01  0.765E-01
   1.394  0.756E-01  0.756E-01
   1.404  0.747E-01  0.747E-01
   1.414  0.737E-01  0.737E-01
   1.424  0.727E-01  0.727E-01
   1.434  0.717E-01  0.717E-01
   1.444  0.707E-01  0.707E-01
   1.454  0.696E-01  0.696E-01
   1.464  0.686E-01  0.686E-01
   1.474  0.675E-01  0.675E-01
   1.484  0.664E-01  0.664E-01
   1.494  0.653E-01  0.653E-01
   1.504  0.642E-01  0.642E-01
   1.514  0.631E-01  0.631E-01
   1.524  0.619E-01  0.619E-01
   1.534  0.608E-01  0.608E-01
   1.544  0.596E-01  0.596E-01
   1.554  0.585E-01  0.585E-01
   1.564  0.573E-01  0.573E-01
   1.574  0.562E-01  0.562E-01
   1.584  0.550E-01  0.550E-01
   1.594  0.538E-01  0.538E-01
   1.604  0.527E-01  0.527E-01
   1.614  0.515E-01  0.515E-01
   1.624  0.504E-01  0.504E-01
   1.634  0.492E-01  0.492E-01
   1.644  0.481E-01  0.481E-01
   1.654  0.470E-01  0.470E-01
   1.664  0.458E-01  0.458E-01
   1.674  0.447E-01  0.447E-01
   1.684  0.436E-01  0.436E-01
   1.694  0.426E-01  0.426E-01
   1.704  0.415E-01  0.415E-01
   1.714  0.404E-01  0.404E-01
   1.724  0.394E-01  0.394E-01
   1.734  0.384E-01  0.384E-01
   1.744  0.374E-01  0.374E-01
   1.754  0.364E-01  0.364E-01
   1.764  0.355E-01  0.355E-01
   1.774  0.345E-01  0.345E-01
   1.784  0.336E-01  0.336E-01
   1.794  0.328E-01  0.328E-01
   1.804  0.319E-01  0.319E-01
   1.814  0.311E-01  0.311E-01
   1.824  0.303E-01  0.303E-01
   1.834  0.295E-01  0.295E-01
   1.844  0.287E-01  0.287E-01
   1.854  0.280E-01  0.280E-01
   1.864  0.274E-01  0.274E-01
   1.874  0.267E-01  0.267E-01
   1.884  0.261E-01  0.261E-01
   1.894  0.255E-01  0.255E-01
   1.904  0.249E-01  0.249E-01
   1.914  0.244E-01  0.244E-01
   1.924  0.239E-01  0.239E-01
   1.934  0.235E-01  0.235E-01
   1.944  0.231E-01  0.231E-01
   1.954  0.227E-01  0.227E-01
   1.964  0.224E-01  0.224E-01
   1.974  0.220E-01  0.220E-01
   1.984  0.218E-01  0.218E-01
   1.994  0.215E-01  0.215E-01
   2.004  0.214E-01  0.214E-01
   2.014  0.212E-01  0.212E-01
   2.024  0.211E-01  0.211E-01
   2.034  0.210E-01  0.210E-01
   2.044  0.210E-01  0.210E-01
   2.054  0.210E-01  0.210E-01
   2.064  0.210E-01  0.210E-01
   2.074  0.211E-01  0.211E-01
   2.084  0.212E-01  0.212E-01
   2.094  0.213E-01  0.213E-01
   2.104  0.215E-01  0.215E-01
   2.114  0.218E-01  0.218E-01
   2.124  0.220E-01  0.220E-01
   2.134  0.223E-01  0.223E-01
   2.144  0.227E-01  0.227E-01
   2.154  0.230E-01  0.230E-01
   2.164  0.235E-01  0.235E-01
   2.174  0.239E-01  0.239E-01
   2.184  0.244E-01  0.244E-01
   2.194  0.249E-01  0.249E-01
   2.204  0.255E-01  0.255E-01
   2.214  0.261E-01  0.261E-01
   2.224  0.267E-01  0.267E-01
   2.234  0.274E-01  0.274E-01
   2.244  0.281E-01  0.281E-01
   2.254  0.288E-01  0.288E-01
   2.264  0.295E-01  0.295E-01
   2.274  0.303E-01  0.303E-01
   2.284  0.311E-01  0.311E-01
   2.294  0.320E-01  0.320E-01
   2.304  0.328E-01  0.328E-01
   2.314  0.337E-01  0.337E-01
   2.324  0.346E-01  0.346E-01
   2.334  0.356E-01  0.356E-01
   2.344  0.365E-01  0.365E-01
   2.354  0.375E-01  0.375E-01
   2.364  0.385E-01  0.385E-01
   2.374  0.396E-01  0.396E-01
   2.384  0.406E-01  0.406E-01
   2.394  0.417E-01  0.417E-01
   2.404  0.427E-01  0.427E-01
   2.414  0.438E-01  0.438E-01
   2.424  0.449E-01  0.449E-01
   2.434  0.460E-01  0.460E-01
   2.444  0.471E-01  0.471E-01
   2.454  0.483E-01  0.483E-01
   2.464  0.494E-01  0.494E-01
   2.474  0.505E-01  0.505E-01
   2.484  0.517E-01  0.517E-01
   2.494  0.528E-01  0.528E-01
   2.504  0.539E-01  0.539E-01
   2.514  0.551E-01  0.551E-01
   2.524  0.562E-01  0.562E-01
   2.534  0.573E-01  0.573E-01
   2.544  0.584E-01  0.584E-01
   2.554  0.595E-01  0.595E-01
   2.564  0.606E-01  0.606E-01
   2.574  0.617E-01  0.617E-01
   2.584  0.628E-01  0.628E-01
   2.594  0.638E-01  0.638E-01
   2.604  0.649E-01  0.649E-01
   2.614  0.659E-01  0.659E-01
   2.624  0.669E-01  0.669E-01
   2.634  0.678E-01  0.678E-01
   2.644  0.688E-01  0.688E-01
   2.654  0.697E-01  0.697E-01
   2.664  0.706E-01  0.706E-01
   2.674  0.715E-01  0.715E-01
   2.684  0.723E-01  0.723E-01
   2.694  0.731E-01  0.731E-01
   2.704  0.739E-01  0.739E-01
   2.714  0.746E-01  0.746E-01
   2.724  0.753E-01  0.753E-01
   2.734  0.760E-01  0.760E-01
   2.744  0.766E-01  0.766E-01
   2.754  0.772E-01  0.772E-01
   2.764  0.778E-01  0.778E-01
   2.774  0.783E-01  0.783E-01
   2.784  0.787E-01  0.787E-01
   2.794  0.792E-01  0.792E-01
   2.804  0.795E-01  0.795E-01
   2.814  0.799E-01  0.799E-01
   2.824  0.802E-01  0.802E-01
   2.834  0.804E-01  0.804E-01
   2.844  0.806E-01  0.806E-01
   2.854  0.808E-01  0.808E-01
   2.864  0.809E-01  0.809E-01
   2.874  0.810E-01  0.810E-01
   2.884  0.810E-01  0.810E-01
   2.894  0.810E-01  0.810E-01
   2.904  0.809E-01  0.809E-01
   2.914  0.808E-01  0.808E-01
   2.924  0.807E-01  0.807E-01
   2.934  0.804E-01  0.804E-01
   2.944  0.802E-01  0.802E-01
   2.954  0.799E-01  0.799E-01
   2.964  0.795E-01  0.795E-01
   2.974  0.792E-01  0.792E-01
   2.984  0.787E-01  0.787E-01
   2.994  0.783E-01  0.783E-01
   3.004  0.777E-01  0.777E-01
   3.014  0.772E-01  0.772E-01
   3.024  0.766E-01  0.766E-01
   3.034  0.759E-01  0.759E-01
   3.044  0.752E-01  0.752E-01
   3.054  0.745E-01  0.745E-01
   3.064  0.738E-01  0.738E-01
   3.074  0.730E-01  0.730E-01
   3.084  0.721E-01  0.721E-01
   3.094  0.713E-01  0.713E-01
   3.104  0.704E-01  0.704E-01
   3.114  0.695E-01  0.695E-01
   3.124  0.685E-01  0.685E-01
   3.134  0.675E-01  0.675E-01
   3.144  0.665E-01  0.665E-01
   3.154  0.655E-01  0.655E-01
   3.164  0.644E-01  0.644E-01
   3.174  0.633E-01  0.633E-01
   3.184  0.622E-01  0.622E-01
   3.194  0.611E-01  0.611E-01
   3.204  0.599E-01  0.599E-01
   3.214  0.588E-01  0.588E-01
   3.224  0.576E-01  0.576E-01
   3.234  0.564E-01  0.564E-01
   3.244  0.552E-01  0.552E-01
   3.254  0.539E-01  0.539E-01
   3.264  0.527E-01  0.527E-01
   3.274  0.515E-01  0.515E-01
   3.284  0.502E-01  0.502E-01
   3.294  0.490E-01  0.490E-01
   3.304  0.477E-01  0.477E-01
   3.314  0.465E-01  0.465E-01
   3.324  0.452E-01  0.452E-01
   3.334  0.439E-01  0.439E-01
   3.344  0.427E-01  0.427E-01
   3.354  0.414E-01  0.414E-01
   3.364  0.402E-01  0.402E-01
   3.374  0.389E-01  0.389E-01
   3.384  0.377E-01  0.377E-01
   3.394  0.364E-01  0.364E-01
   3.404  0.352E-01  0.352E-01
   3.414  0.340E-01  0.340E-01
   3.424  0.328E-01  0.328E-01
   3.434  0.316E-01  0.316E-01
   3.444  0.304E-01  0.304E-01
   3.454  0.293E-01  0.293E-01
   3.464  0.281E-01  0.281E-01
   3.474  0.270E-01  0.270E-01
   3.484  0.259E-01  0.259E-01
   3.494  0.248E-01  0.248E-01
   3.504  0.237E-01  0.237E-01
   3.514  0.226E-01  0.226E-01
   3.524  0.216E-01  0.216E-01
   3.534  0.205E-01  0.205E-01
   3.544  0.195E-01  0.195E-01
   3.554  0.186E-01  0.186E-01
   3.564  0.176E-01  0.176E-01
   3.574  0.167E-01  0.167E-01
   3.584  0.157E-01  0.157E-01
   3.594  0.149E-01  0.149E-01
   3.604  0.140E-01  0.140E-01
   3.614  0.131E-01  0.131E-01
   3.624  0.123E-01  0.123E-01
   3.634  0.115E-01  0.115E-01
   3.644  0.107E-01  0.107E-01
   3.654  0.998E-02  0.998E-02
   3.664  0.925E-02  0.925E-02
   3.674  0.855E-02  0.855E-02
   3.684  0.787E-02  0.787E-02
   3.694  0.721E-02  0.721E-02
   3.704  0.657E-02  0.657E-02
   3.714  0.596E-02  0.596E-02
   3.724  0.538E-02  0.538E-02
   3.734  0.481E-02  0.481E-02
   3.744  0.427E-02  0.427E-02
   3.754  0.375E-02  0.375E-02
   3.764  0.326E-02  0.326E-02
   3.774  0.278E-02  0.278E-02
   3.784  0.233E-02  0.233E-02
   3.794  0.190E-02  0.190E-02
   3.804  0.149E-02  0.149E-02
   3.814  0.110E-02  0.110E-02
   3.824  0.726E-03  0.726E-03
   3.834  0.376E-03  0.376E-03
   3.844  0.448E-04  0.448E-04
   3.854 -0.267E-03 -0.267E-03
   3.864 -0.561E-03 -0.561E-03
   3.874 -0.837E-03 -0.837E-03
   3.884 -0.109E-02 -0.109E-02
   3.894 -0.134E-02 -0.134E-02
   3.904 -0.156E-02 -0.156E-02
   3.914 -0.177E-02 -0.177E-02
   3.924 -0.196E-02 -0.196E-02
   3.934 -0.214E-02 -0.214E-02
   3.944 -0.231E-02 -0.231E-02
   3.954 -0.246E-02 -0.246E-02
   3.964 -0.259E-02 -0.259E-02
   3.974 -0.272E-02 -0.272E-02
   3.984 -0.283E-02 -0.283E-02
   3.994 -0.293E-02 -0.293E-02
   4.004 -0.302E-02 -0.302E-02
   4.014 -0.309E-02 -0.309E-02
   4.024 -0.316E-02 -0.316E-02
   4.034 -0.322E-02 -0.322E-02
   4.044 -0.326E-02 -0.326E-02
   4.054 -0.330E-02 -0.330E-02
   4.064 -0.333E-02 -0.333E-02
   4.074 -0.335E-02 -0.335E-02
   4.084 -0.337E-02 -0.337E-02
   4.094 -0.338E-02 -0.338E-02
   4.104 -0.338E-02 -0.338E-02
   4.114 -0.337E-02 -0.337E-02
   4.124 -0.336E-02 -0.336E-02
   4.134 -0.334E-02 -0.334E-02
   4.144 -0.332E-02 -0.332E-02
   4.154 -0.329E-02 -0.329E-02
   4.164 -0.326E-02 -0.326E-02
   4.174 -0.322E-02 -0.322E-02
   4.184 -0.318E-02 -0.318E-02
   4.194 -0.314E-02 -0.314E-02
   4.204 -0.309E-02 -0.309E-02
   4.214 -0.304E-02 -0.304E-02
   4.224 -0.299E-02 -0.299E-02
   4.234 -0.293E-02 -0.293E-02
   4.244 -0.288E-02 -0.288E-02
   4.254 -0.282E-02 -0.282E-02
   4.264 -0.276E-02 -0.276E-02
   4.274 -0.270E-02 -0.270E-02
   4.284 -0.263E-02 -0.263E-02
   4.294 -0.257E-02 -0.257E-02
   4.304 -0.251E-02 -0.251E-02
   4.314 -0.244E-02 -0.244E-02
   4.324 -0.238E-02 -0.238E-02
   4.334 -0.231E-02 -0.231E-02
   4.344 -0.225E-02 -0.225E-02
   4.354 -0.218E-02 -0.218E-02
   4.364 -0.212E-02 -0.212E-02
   4.374 -0.205E-02 -0.205E-02
   4.384 -0.199E-02 -0.199E-02
   4.394 -0.192E-02 -0.192E-02
   4.404 -0.186E-02 -0.186E-02
   4.414 -0.180E-02 -0.180E-02
   4.424 -0.174E-02 -0.174E-02
   4.434 -0.168E-02 -0.168E-02
   4.444 -0.162E-02 -0.162E-02
   4.454 -0.156E-02 -0.156E-02
   4.464 -0.150E-02 -0.150E-02
   4.474 -0.144E-02 -0.144E-02
   4.484 -0.139E-02 -0.139E-02
   4.494 -0.134E-02 -0.134E-02
   4.504 -0.128E-02 -0.128E-02
   4.514 -0.123E-02 -0.123E-02
   4.524 -0.118E-02 -0.118E-02
   4.534 -0.113E-02 -0.113E-02
   4.544 -0.109E-02 -0.109E-02
   4.554 -0.104E-02 -0.104E-02
   4.564 -0.996E-03 -0.996E-03
   4.574 -0.953E-03 -0.953E-03
   4.584 -0.911E-03 -0.911E-03
   4.594 -0.871E-03 -0.871E-03
   4.604 -0.831E-03 -0.831E-03
   4.614 -0.793E-03 -0.793E-03
   4.624 -0.757E-03 -0.757E-03
   4.634 -0.721E-03 -0.721E-03
   4.644 -0.687E-03 -0.687E-03
   4.654 -0.654E-03 -0.654E-03
   4.664 -0.623E-03 -0.623E-03
   4.674 -0.592E-03 -0.592E-03
   4.684 -0.563E-03 -0.563E-03
   4.694 -0.535E-03 -0.535E-03
   4.704 -0.508E-03 -0.508E-03
   4.714 -0.482E-03 -0.482E-03
   4.724 -0.457E-03 -0.457E-03
   4.734 -0.433E-03 -0.433E-03
   4.744 -0.411E-03 -0.411E-03
   4.754 -0.389E-03 -0.389E-03
   4.764 -0.368E-03 -0.368E-03
   4.774 -0.348E-03 -0.348E-03
   4.784 -0.329E-03 -0.329E-03
   4.794 -0.311E-03 -0.311E-03
   4.804 -0.294E-03 -0.294E-03
   4.814 -0.277E-03 -0.277E-03
   4.824 -0.262E-03 -0.262E-03
   4.834 -0.247E-03 -0.247E-03
   4.844 -0.233E-03 -0.233E-03
   4.854 -0.219E-03 -0.219E-03
   4.864 -0.206E-03 -0.206E-03
   4.874 -0.194E-03 -0.194E-03
   4.884 -0.183E-03 -0.183E-03
   4.894 -0.172E-03 -0.172E-03
   4.904 -0.161E-03 -0.161E-03
   4.914 -0.151E-03 -0.151E-03
   4.924 -0.142E-03 -0.142E-03
   4.934 -0.133E-03 -0.133E-03
   4.944 -0.125E-03 -0.125E-03
   4.954 -0.117E-03 -0.117E-03
   4.964 -0.110E-03 -0.110E-03
   4.974 -0.103E-03 -0.103E-03
   4.984 -0.962E-04 -0.962E-04
   4.994 -0.900E-04 -0.900E-04
   5.004 -0.842E-04 -0.842E-04
   5.014 -0.786E-04 -0.786E-04
   5.024 -0.735E-04 -0.735E-04
   5.034 -0.686E-04 -0.686E-04
   5.044 -0.640E-04 -0.640E-04
   5.054 -0.597E-04 -0.597E-04
   5.064 -0.556E-04 -0.556E-04
   5.074 -0.518E-04 -0.518E-04
   5.084 -0.483E-04 -0.483E-04
   5.094 -0.449E-04 -0.449E-04
   5.104 -0.418E-04 -0.418E-04
   5.114 -0.389E-04 -0.389E-04
   5.124 -0.361E-04 -0.361E-04
   5.134 -0.336E-04 -0.336E-04
   5.144 -0.312E-04 -0.312E-04
   5.154 -0.289E-04 -0.289E-04
   5.164 -0.268E-04 -0.268E-04
   5.174 -0.249E-04 -0.249E-04
   5.184 -0.231E-04 -0.231E-04
   5.194 -0.214E-04 -0.214E-04
   5.204 -0.198E-04 -0.198E-04
   5.214 -0.183E-04 -0.183E-04
   5.224 -0.169E-04 -0.169E-04
   5.234 -0.157E-04 -0.157E-04
   5.244 -0.145E-04 -0.145E-04
   5.254 -0.134E-04 -0.134E-04
   5.264 -0.124E-04 -0.124E-04
   5.274 -0.114E-04 -0.114E-04
   5.284 -0.105E-04 -0.105E-04
   5.294 -0.969E-05 -0.969E-05
