# E (eV)   ldos(E)   pdos(E)   
 -27.116 -0.323E-09 -0.323E-09
 -27.106 -0.348E-09 -0.348E-09
 -27.096 -0.376E-09 -0.376E-09
 -27.086 -0.405E-09 -0.405E-09
 -27.076 -0.437E-09 -0.437E-09
 -27.066 -0.470E-09 -0.470E-09
 -27.056 -0.506E-09 -0.506E-09
 -27.046 -0.545E-09 -0.545E-09
 -27.036 -0.586E-09 -0.586E-09
 -27.026 -0.630E-09 -0.630E-09
 -27.016 -0.676E-09 -0.676E-09
 -27.006 -0.726E-09 -0.726E-09
 -26.996 -0.779E-09 -0.779E-09
 -26.986 -0.836E-09 -0.836E-09
 -26.976 -0.896E-09 -0.896E-09
 -26.966 -0.960E-09 -0.960E-09
 -26.956 -0.103E-08 -0.103E-08
 -26.946 -0.110E-08 -0.110E-08
 -26.936 -0.118E-08 -0.118E-08
 -26.926 -0.126E-08 -0.126E-08
 -26.916 -0.134E-08 -0.134E-08
 -26.906 -0.144E-08 -0.144E-08
 -26.896 -0.153E-08 -0.153E-08
 -26.886 -0.163E-08 -0.163E-08
 -26.876 -0.174E-08 -0.174E-08
 -26.866 -0.186E-08 -0.186E-08
 -26.856 -0.198E-08 -0.198E-08
 -26.846 -0.210E-08 -0.210E-08
 -26.836 -0.224E-08 -0.224E-08
 -26.826 -0.238E-08 -0.238E-08
 -26.816 -0.253E-08 -0.253E-08
 -26.806 -0.269E-08 -0.269E-08
 -26.796 -0.285E-08 -0.285E-08
 -26.786 -0.302E-08 -0.302E-08
 -26.776 -0.321E-08 -0.321E-08
 -26.766 -0.340E-08 -0.340E-08
 -26.756 -0.360E-08 -0.360E-08
 -26.746 -0.381E-08 -0.381E-08
 -26.736 -0.403E-08 -0.403E-08
 -26.726 -0.426E-08 -0.426E-08
 -26.716 -0.450E-08 -0.450E-08
 -26.706 -0.475E-08 -0.475E-08
 -26.696 -0.501E-08 -0.501E-08
 -26.686 -0.528E-08 -0.528E-08
 -26.676 -0.557E-08 -0.557E-08
 -26.666 -0.586E-08 -0.586E-08
 -26.656 -0.617E-08 -0.617E-08
 -26.646 -0.649E-08 -0.649E-08
 -26.636 -0.682E-08 -0.682E-08
 -26.626 -0.717E-08 -0.717E-08
 -26.616 -0.752E-08 -0.752E-08
 -26.606 -0.789E-08 -0.789E-08
 -26.596 -0.828E-08 -0.828E-08
 -26.586 -0.867E-08 -0.867E-08
 -26.576 -0.908E-08 -0.908E-08
 -26.566 -0.950E-08 -0.950E-08
 -26.556 -0.994E-08 -0.994E-08
 -26.546 -0.104E-07 -0.104E-07
 -26.536 -0.108E-07 -0.108E-07
 -26.526 -0.113E-07 -0.113E-07
 -26.516 -0.118E-07 -0.118E-07
 -26.506 -0.123E-07 -0.123E-07
 -26.496 -0.128E-07 -0.128E-07
 -26.486 -0.133E-07 -0.133E-07
 -26.476 -0.139E-07 -0.139E-07
 -26.466 -0.144E-07 -0.144E-07
 -26.456 -0.149E-07 -0.149E-07
 -26.446 -0.155E-07 -0.155E-07
 -26.436 -0.161E-07 -0.161E-07
 -26.426 -0.166E-07 -0.166E-07
 -26.416 -0.172E-07 -0.172E-07
 -26.406 -0.178E-07 -0.178E-07
 -26.396 -0.184E-07 -0.184E-07
 -26.386 -0.190E-07 -0.190E-07
 -26.376 -0.196E-07 -0.196E-07
 -26.366 -0.202E-07 -0.202E-07
 -26.356 -0.208E-07 -0.208E-07
 -26.346 -0.213E-07 -0.213E-07
 -26.336 -0.219E-07 -0.219E-07
 -26.326 -0.225E-07 -0.225E-07
 -26.316 -0.231E-07 -0.231E-07
 -26.306 -0.236E-07 -0.236E-07
 -26.296 -0.242E-07 -0.242E-07
 -26.286 -0.247E-07 -0.247E-07
 -26.276 -0.252E-07 -0.252E-07
 -26.266 -0.257E-07 -0.257E-07
 -26.256 -0.262E-07 -0.262E-07
 -26.246 -0.266E-07 -0.266E-07
 -26.236 -0.270E-07 -0.270E-07
 -26.226 -0.274E-07 -0.274E-07
 -26.216 -0.278E-07 -0.278E-07
 -26.206 -0.281E-07 -0.281E-07
 -26.196 -0.284E-07 -0.284E-07
 -26.186 -0.286E-07 -0.286E-07
 -26.176 -0.288E-07 -0.288E-07
 -26.166 -0.289E-07 -0.289E-07
 -26.156 -0.290E-07 -0.290E-07
 -26.146 -0.290E-07 -0.290E-07
 -26.136 -0.289E-07 -0.289E-07
 -26.126 -0.288E-07 -0.288E-07
 -26.116 -0.286E-07 -0.286E-07
 -26.106 -0.284E-07 -0.284E-07
 -26.096 -0.280E-07 -0.280E-07
 -26.086 -0.276E-07 -0.276E-07
 -26.076 -0.270E-07 -0.270E-07
 -26.066 -0.264E-07 -0.264E-07
 -26.056 -0.257E-07 -0.257E-07
 -26.046 -0.249E-07 -0.249E-07
 -26.036 -0.239E-07 -0.239E-07
 -26.026 -0.229E-07 -0.229E-07
 -26.016 -0.217E-07 -0.217E-07
 -26.006 -0.204E-07 -0.204E-07
 -25.996 -0.190E-07 -0.190E-07
 -25.986 -0.175E-07 -0.175E-07
 -25.976 -0.158E-07 -0.158E-07
 -25.966 -0.140E-07 -0.140E-07
 -25.956 -0.120E-07 -0.120E-07
 -25.946 -0.987E-08 -0.987E-08
 -25.936 -0.760E-08 -0.760E-08
 -25.926 -0.516E-08 -0.516E-08
 -25.916 -0.257E-08 -0.257E-08
 -25.906  0.199E-09  0.199E-09
 -25.896  0.313E-08  0.313E-08
 -25.886  0.624E-08  0.624E-08
 -25.876  0.953E-08  0.953E-08
 -25.866  0.130E-07  0.130E-07
 -25.856  0.166E-07  0.166E-07
 -25.846  0.205E-07  0.205E-07
 -25.836  0.245E-07  0.245E-07
 -25.826  0.287E-07  0.287E-07
 -25.816  0.331E-07  0.331E-07
 -25.806  0.377E-07  0.377E-07
 -25.796  0.425E-07  0.425E-07
 -25.786  0.475E-07  0.475E-07
 -25.776  0.527E-07  0.527E-07
 -25.766  0.581E-07  0.581E-07
 -25.756  0.637E-07  0.637E-07
 -25.746  0.695E-07  0.695E-07
 -25.736  0.755E-07  0.755E-07
 -25.726  0.817E-07  0.817E-07
 -25.716  0.880E-07  0.880E-07
 -25.706  0.946E-07  0.946E-07
 -25.696  0.101E-06  0.101E-06
 -25.686  0.108E-06  0.108E-06
 -25.676  0.115E-06  0.115E-06
 -25.666  0.123E-06  0.123E-06
 -25.656  0.130E-06  0.130E-06
 -25.646  0.138E-06  0.138E-06
 -25.636  0.146E-06  0.146E-06
 -25.626  0.153E-06  0.153E-06
 -25.616  0.162E-06  0.162E-06
 -25.606  0.170E-06  0.170E-06
 -25.596  0.178E-06  0.178E-06
 -25.586  0.187E-06  0.187E-06
 -25.576  0.195E-06  0.195E-06
 -25.566  0.204E-06  0.204E-06
 -25.556  0.213E-06  0.213E-06
 -25.546  0.222E-06  0.222E-06
 -25.536  0.231E-06  0.231E-06
 -25.526  0.240E-06  0.240E-06
 -25.516  0.249E-06  0.249E-06
 -25.506  0.258E-06  0.258E-06
 -25.496  0.268E-06  0.268E-06
 -25.486  0.277E-06  0.277E-06
 -25.476  0.286E-06  0.286E-06
 -25.466  0.295E-06  0.295E-06
 -25.456  0.305E-06  0.305E-06
 -25.446  0.314E-06  0.314E-06
 -25.436  0.323E-06  0.323E-06
 -25.426  0.333E-06  0.333E-06
 -25.416  0.342E-06  0.342E-06
 -25.406  0.351E-06  0.351E-06
 -25.396  0.360E-06  0.360E-06
 -25.386  0.369E-06  0.369E-06
 -25.376  0.377E-06  0.377E-06
 -25.366  0.386E-06  0.386E-06
 -25.356  0.395E-06  0.395E-06
 -25.346  0.403E-06  0.403E-06
 -25.336  0.411E-06  0.411E-06
 -25.326  0.419E-06  0.419E-06
 -25.316  0.427E-06  0.427E-06
 -25.306  0.435E-06  0.435E-06
 -25.296  0.442E-06  0.442E-06
 -25.286  0.449E-06  0.449E-06
 -25.276  0.456E-06  0.456E-06
 -25.266  0.463E-06  0.463E-06
 -25.256  0.469E-06  0.469E-06
 -25.246  0.475E-06  0.475E-06
 -25.236  0.481E-06  0.481E-06
 -25.226  0.487E-06  0.487E-06
 -25.216  0.492E-06  0.492E-06
 -25.206  0.497E-06  0.497E-06
 -25.196  0.502E-06  0.502E-06
 -25.186  0.506E-06  0.506E-06
 -25.176  0.510E-06  0.510E-06
 -25.166  0.514E-06  0.514E-06
 -25.156  0.517E-06  0.517E-06
 -25.146  0.520E-06  0.520E-06
 -25.136  0.522E-06  0.522E-06
 -25.126  0.525E-06  0.525E-06
 -25.116  0.526E-06  0.526E-06
 -25.106  0.528E-06  0.528E-06
 -25.096  0.529E-06  0.529E-06
 -25.086  0.529E-06  0.529E-06
 -25.076  0.530E-06  0.530E-06
 -25.066  0.530E-06  0.530E-06
 -25.056  0.529E-06  0.529E-06
 -25.046  0.528E-06  0.528E-06
 -25.036  0.527E-06  0.527E-06
 -25.026  0.525E-06  0.525E-06
 -25.016  0.523E-06  0.523E-06
 -25.006  0.521E-06  0.521E-06
 -24.996  0.518E-06  0.518E-06
 -24.986  0.515E-06  0.515E-06
 -24.976  0.512E-06  0.512E-06
 -24.966  0.508E-06  0.508E-06
 -24.956  0.504E-06  0.504E-06
 -24.946  0.500E-06  0.500E-06
 -24.936  0.495E-06  0.495E-06
 -24.926  0.490E-06  0.490E-06
 -24.916  0.484E-06  0.484E-06
 -24.906  0.478E-06  0.478E-06
 -24.896  0.472E-06  0.472E-06
 -24.886  0.466E-06  0.466E-06
 -24.876  0.460E-06  0.460E-06
 -24.866  0.453E-06  0.453E-06
 -24.856  0.446E-06  0.446E-06
 -24.846  0.438E-06  0.438E-06
 -24.836  0.431E-06  0.431E-06
 -24.826  0.423E-06  0.423E-06
 -24.816  0.415E-06  0.415E-06
 -24.806  0.407E-06  0.407E-06
 -24.796  0.399E-06  0.399E-06
 -24.786  0.390E-06  0.390E-06
 -24.776  0.382E-06  0.382E-06
 -24.766  0.373E-06  0.373E-06
 -24.756  0.364E-06  0.364E-06
 -24.746  0.355E-06  0.355E-06
 -24.736  0.346E-06  0.346E-06
 -24.726  0.337E-06  0.337E-06
 -24.716  0.328E-06  0.328E-06
 -24.706  0.319E-06  0.319E-06
 -24.696  0.309E-06  0.309E-06
 -24.686  0.300E-06  0.300E-06
 -24.676  0.291E-06  0.291E-06
 -24.666  0.282E-06  0.282E-06
 -24.656  0.272E-06  0.272E-06
 -24.646  0.263E-06  0.263E-06
 -24.636  0.254E-06  0.254E-06
 -24.626  0.245E-06  0.245E-06
 -24.616  0.235E-06  0.235E-06
 -24.606  0.226E-06  0.226E-06
 -24.596  0.217E-06  0.217E-06
 -24.586  0.208E-06  0.208E-06
 -24.576  0.200E-06  0.200E-06
 -24.566  0.191E-06  0.191E-06
 -24.556  0.182E-06  0.182E-06
 -24.546  0.174E-06  0.174E-06
 -24.536  0.166E-06  0.166E-06
 -24.526  0.158E-06  0.158E-06
 -24.516  0.149E-06  0.149E-06
 -24.506  0.142E-06  0.142E-06
 -24.496  0.134E-06  0.134E-06
 -24.486  0.126E-06  0.126E-06
 -24.476  0.119E-06  0.119E-06
 -24.466  0.112E-06  0.112E-06
 -24.456  0.105E-06  0.105E-06
 -24.446  0.979E-07  0.979E-07
 -24.436  0.913E-07  0.913E-07
 -24.426  0.848E-07  0.848E-07
 -24.416  0.785E-07  0.785E-07
 -24.406  0.725E-07  0.725E-07
 -24.396  0.666E-07  0.666E-07
 -24.386  0.609E-07  0.609E-07
 -24.376  0.554E-07  0.554E-07
 -24.366  0.501E-07  0.501E-07
 -24.356  0.450E-07  0.450E-07
 -24.346  0.401E-07  0.401E-07
 -24.336  0.354E-07  0.354E-07
 -24.326  0.309E-07  0.309E-07
 -24.316  0.266E-07  0.266E-07
 -24.306  0.225E-07  0.225E-07
 -24.296  0.185E-07  0.185E-07
 -24.286  0.148E-07  0.148E-07
 -24.276  0.112E-07  0.112E-07
 -24.266  0.786E-08  0.786E-08
 -24.256  0.466E-08  0.466E-08
 -24.246  0.164E-08  0.164E-08
 -24.236 -0.121E-08 -0.121E-08
 -24.226 -0.389E-08 -0.389E-08
 -24.216 -0.640E-08 -0.640E-08
 -24.206 -0.876E-08 -0.876E-08
 -24.196 -0.110E-07 -0.110E-07
 -24.186 -0.130E-07 -0.130E-07
 -24.176 -0.149E-07 -0.149E-07
 -24.166 -0.167E-07 -0.167E-07
 -24.156 -0.183E-07 -0.183E-07
 -24.146 -0.198E-07 -0.198E-07
 -24.136 -0.211E-07 -0.211E-07
 -24.126 -0.223E-07 -0.223E-07
 -24.116 -0.234E-07 -0.234E-07
 -24.106 -0.244E-07 -0.244E-07
 -24.096 -0.253E-07 -0.253E-07
 -24.086 -0.261E-07 -0.261E-07
 -24.076 -0.267E-07 -0.267E-07
 -24.066 -0.273E-07 -0.273E-07
 -24.056 -0.278E-07 -0.278E-07
 -24.046 -0.282E-07 -0.282E-07
 -24.036 -0.285E-07 -0.285E-07
 -24.026 -0.287E-07 -0.287E-07
 -24.016 -0.289E-07 -0.289E-07
 -24.006 -0.290E-07 -0.290E-07
 -23.996 -0.290E-07 -0.290E-07
 -23.986 -0.289E-07 -0.289E-07
 -23.976 -0.288E-07 -0.288E-07
 -23.966 -0.287E-07 -0.287E-07
 -23.956 -0.285E-07 -0.285E-07
 -23.946 -0.282E-07 -0.282E-07
 -23.936 -0.279E-07 -0.279E-07
 -23.926 -0.276E-07 -0.276E-07
 -23.916 -0.272E-07 -0.272E-07
 -23.906 -0.268E-07 -0.268E-07
 -23.896 -0.264E-07 -0.264E-07
 -23.886 -0.260E-07 -0.260E-07
 -23.876 -0.255E-07 -0.255E-07
 -23.866 -0.250E-07 -0.250E-07
 -23.856 -0.244E-07 -0.244E-07
 -23.846 -0.239E-07 -0.239E-07
 -23.836 -0.234E-07 -0.234E-07
 -23.826 -0.228E-07 -0.228E-07
 -23.816 -0.222E-07 -0.222E-07
 -23.806 -0.216E-07 -0.216E-07
 -23.796 -0.210E-07 -0.210E-07
 -23.786 -0.205E-07 -0.205E-07
 -23.776 -0.199E-07 -0.199E-07
 -23.766 -0.193E-07 -0.193E-07
 -23.756 -0.187E-07 -0.187E-07
 -23.746 -0.181E-07 -0.181E-07
 -23.736 -0.175E-07 -0.175E-07
 -23.726 -0.169E-07 -0.169E-07
 -23.716 -0.163E-07 -0.163E-07
 -23.706 -0.158E-07 -0.158E-07
 -23.696 -0.152E-07 -0.152E-07
 -23.686 -0.147E-07 -0.147E-07
 -23.676 -0.141E-07 -0.141E-07
 -23.666 -0.136E-07 -0.136E-07
 -23.656 -0.131E-07 -0.131E-07
 -23.646 -0.125E-07 -0.125E-07
 -23.636 -0.120E-07 -0.120E-07
 -23.626 -0.116E-07 -0.116E-07
 -23.616 -0.111E-07 -0.111E-07
 -23.606 -0.106E-07 -0.106E-07
 -23.596 -0.102E-07 -0.102E-07
 -23.586 -0.972E-08 -0.972E-08
 -23.576 -0.929E-08 -0.929E-08
 -23.566 -0.888E-08 -0.888E-08
 -23.556 -0.847E-08 -0.847E-08
 -23.546 -0.808E-08 -0.808E-08
 -23.536 -0.771E-08 -0.771E-08
 -23.526 -0.734E-08 -0.734E-08
 -23.516 -0.699E-08 -0.699E-08
 -23.506 -0.665E-08 -0.665E-08
 -23.496 -0.633E-08 -0.633E-08
 -23.486 -0.601E-08 -0.601E-08
 -23.476 -0.571E-08 -0.571E-08
 -23.466 -0.542E-08 -0.542E-08
 -23.456 -0.514E-08 -0.514E-08
 -23.446 -0.488E-08 -0.488E-08
 -23.436 -0.462E-08 -0.462E-08
 -23.426 -0.437E-08 -0.437E-08
 -23.416 -0.414E-08 -0.414E-08
 -23.406 -0.391E-08 -0.391E-08
 -23.396 -0.370E-08 -0.370E-08
 -23.386 -0.350E-08 -0.350E-08
 -23.376 -0.330E-08 -0.330E-08
 -23.366 -0.311E-08 -0.311E-08
 -23.356 -0.294E-08 -0.294E-08
 -23.346 -0.277E-08 -0.277E-08
 -23.336 -0.261E-08 -0.261E-08
 -23.326 -0.245E-08 -0.245E-08
 -23.316 -0.231E-08 -0.231E-08
 -23.306 -0.217E-08 -0.217E-08
 -23.296 -0.204E-08 -0.204E-08
 -23.286 -0.192E-08 -0.192E-08
 -23.276 -0.180E-08 -0.180E-08
 -23.266 -0.169E-08 -0.169E-08
 -23.256 -0.158E-08 -0.158E-08
 -23.246 -0.148E-08 -0.148E-08
 -23.236 -0.139E-08 -0.139E-08
 -23.226 -0.130E-08 -0.130E-08
 -23.216 -0.122E-08 -0.122E-08
 -23.206 -0.114E-08 -0.114E-08
 -23.196 -0.106E-08 -0.106E-08
 -23.186 -0.994E-09 -0.994E-09
 -23.176 -0.928E-09 -0.928E-09
 -23.166 -0.866E-09 -0.866E-09
 -23.156 -0.808E-09 -0.808E-09
 -23.146 -0.753E-09 -0.753E-09
 -23.136 -0.702E-09 -0.702E-09
 -23.126 -0.653E-09 -0.653E-09
 -23.116 -0.608E-09 -0.608E-09
 -23.106 -0.566E-09 -0.566E-09
 -23.096 -0.527E-09 -0.527E-09
 -23.086 -0.489E-09 -0.489E-09
 -23.076 -0.455E-09 -0.455E-09
 -23.066 -0.423E-09 -0.423E-09
 -23.056 -0.392E-09 -0.392E-09
 -23.046 -0.364E-09 -0.364E-09
 -23.036 -0.338E-09 -0.338E-09
 -23.026 -0.314E-09 -0.314E-09
 -23.016 -0.291E-09 -0.291E-09
 -23.006 -0.270E-09 -0.270E-09
 -22.996 -0.250E-09 -0.250E-09
 -22.986 -0.232E-09 -0.232E-09
 -22.976 -0.215E-09 -0.215E-09
 -22.966 -0.200E-09 -0.200E-09
 -22.956 -0.186E-09 -0.186E-09
 -22.946 -0.172E-09 -0.172E-09
 -22.936 -0.160E-09 -0.160E-09
 -22.926 -0.149E-09 -0.149E-09
 -22.916 -0.139E-09 -0.139E-09
 -22.906 -0.130E-09 -0.130E-09
 -22.896 -0.122E-09 -0.122E-09
 -22.886 -0.114E-09 -0.114E-09
 -22.876 -0.108E-09 -0.108E-09
 -22.866 -0.102E-09 -0.102E-09
 -22.856 -0.964E-10 -0.964E-10
 -22.846 -0.919E-10 -0.919E-10
 -22.836 -0.881E-10 -0.881E-10
 -22.826 -0.850E-10 -0.850E-10
 -22.816 -0.826E-10 -0.826E-10
 -22.806 -0.808E-10 -0.808E-10
 -22.796 -0.797E-10 -0.797E-10
 -22.786 -0.792E-10 -0.792E-10
 -22.776 -0.793E-10 -0.793E-10
 -22.766 -0.802E-10 -0.802E-10
 -22.756 -0.817E-10 -0.817E-10
 -22.746 -0.839E-10 -0.839E-10
 -22.736 -0.868E-10 -0.868E-10
 -22.726 -0.905E-10 -0.905E-10
 -22.716 -0.949E-10 -0.949E-10
 -22.706 -0.100E-09 -0.100E-09
 -22.696 -0.106E-09 -0.106E-09
 -22.686 -0.113E-09 -0.113E-09
 -22.676 -0.121E-09 -0.121E-09
 -22.666 -0.130E-09 -0.130E-09
 -22.656 -0.140E-09 -0.140E-09
 -22.646 -0.151E-09 -0.151E-09
 -22.636 -0.164E-09 -0.164E-09
 -22.626 -0.177E-09 -0.177E-09
 -22.616 -0.192E-09 -0.192E-09
 -22.606 -0.209E-09 -0.209E-09
 -22.596 -0.227E-09 -0.227E-09
 -22.586 -0.247E-09 -0.247E-09
 -22.576 -0.269E-09 -0.269E-09
 -22.566 -0.293E-09 -0.293E-09
 -22.556 -0.319E-09 -0.319E-09
 -22.546 -0.347E-09 -0.347E-09
 -22.536 -0.378E-09 -0.378E-09
 -22.526 -0.411E-09 -0.411E-09
 -22.516 -0.447E-09 -0.447E-09
 -22.506 -0.487E-09 -0.487E-09
 -22.496 -0.529E-09 -0.529E-09
 -22.486 -0.576E-09 -0.576E-09
 -22.476 -0.626E-09 -0.626E-09
 -22.466 -0.680E-09 -0.680E-09
 -22.456 -0.738E-09 -0.738E-09
 -22.446 -0.802E-09 -0.802E-09
 -22.436 -0.870E-09 -0.870E-09
 -22.426 -0.944E-09 -0.944E-09
 -22.416 -0.102E-08 -0.102E-08
 -22.406 -0.111E-08 -0.111E-08
 -22.396 -0.120E-08 -0.120E-08
 -22.386 -0.130E-08 -0.130E-08
 -22.376 -0.141E-08 -0.141E-08
 -22.366 -0.152E-08 -0.152E-08
 -22.356 -0.165E-08 -0.165E-08
 -22.346 -0.178E-08 -0.178E-08
 -22.336 -0.192E-08 -0.192E-08
 -22.326 -0.207E-08 -0.207E-08
 -22.316 -0.224E-08 -0.224E-08
 -22.306 -0.241E-08 -0.241E-08
 -22.296 -0.260E-08 -0.260E-08
 -22.286 -0.280E-08 -0.280E-08
 -22.276 -0.302E-08 -0.302E-08
 -22.266 -0.325E-08 -0.325E-08
 -22.256 -0.349E-08 -0.349E-08
 -22.246 -0.375E-08 -0.375E-08
 -22.236 -0.403E-08 -0.403E-08
 -22.226 -0.433E-08 -0.433E-08
 -22.216 -0.465E-08 -0.465E-08
 -22.206 -0.499E-08 -0.499E-08
 -22.196 -0.535E-08 -0.535E-08
 -22.186 -0.573E-08 -0.573E-08
 -22.176 -0.614E-08 -0.614E-08
 -22.166 -0.657E-08 -0.657E-08
 -22.156 -0.703E-08 -0.703E-08
 -22.146 -0.752E-08 -0.752E-08
 -22.136 -0.804E-08 -0.804E-08
 -22.126 -0.859E-08 -0.859E-08
 -22.116 -0.917E-08 -0.917E-08
 -22.106 -0.978E-08 -0.978E-08
 -22.096 -0.104E-07 -0.104E-07
 -22.086 -0.111E-07 -0.111E-07
 -22.076 -0.118E-07 -0.118E-07
 -22.066 -0.126E-07 -0.126E-07
 -22.056 -0.134E-07 -0.134E-07
 -22.046 -0.143E-07 -0.143E-07
 -22.036 -0.152E-07 -0.152E-07
 -22.026 -0.161E-07 -0.161E-07
 -22.016 -0.171E-07 -0.171E-07
 -22.006 -0.182E-07 -0.182E-07
 -21.996 -0.193E-07 -0.193E-07
 -21.986 -0.204E-07 -0.204E-07
 -21.976 -0.216E-07 -0.216E-07
 -21.966 -0.229E-07 -0.229E-07
 -21.956 -0.242E-07 -0.242E-07
 -21.946 -0.256E-07 -0.256E-07
 -21.936 -0.271E-07 -0.271E-07
 -21.926 -0.286E-07 -0.286E-07
 -21.916 -0.302E-07 -0.302E-07
 -21.906 -0.318E-07 -0.318E-07
 -21.896 -0.336E-07 -0.336E-07
 -21.886 -0.353E-07 -0.353E-07
 -21.876 -0.372E-07 -0.372E-07
 -21.866 -0.392E-07 -0.392E-07
 -21.856 -0.412E-07 -0.412E-07
 -21.846 -0.433E-07 -0.433E-07
 -21.836 -0.455E-07 -0.455E-07
 -21.826 -0.477E-07 -0.477E-07
 -21.816 -0.500E-07 -0.500E-07
 -21.806 -0.525E-07 -0.525E-07
 -21.796 -0.550E-07 -0.550E-07
 -21.786 -0.575E-07 -0.575E-07
 -21.776 -0.602E-07 -0.602E-07
 -21.766 -0.629E-07 -0.629E-07
 -21.756 -0.657E-07 -0.657E-07
 -21.746 -0.686E-07 -0.686E-07
 -21.736 -0.716E-07 -0.716E-07
 -21.726 -0.746E-07 -0.746E-07
 -21.716 -0.777E-07 -0.777E-07
 -21.706 -0.809E-07 -0.809E-07
 -21.696 -0.841E-07 -0.841E-07
 -21.686 -0.875E-07 -0.875E-07
 -21.676 -0.908E-07 -0.908E-07
 -21.666 -0.943E-07 -0.943E-07
 -21.656 -0.977E-07 -0.977E-07
 -21.646 -0.101E-06 -0.101E-06
 -21.636 -0.105E-06 -0.105E-06
 -21.626 -0.108E-06 -0.108E-06
 -21.616 -0.112E-06 -0.112E-06
 -21.606 -0.116E-06 -0.116E-06
 -21.596 -0.119E-06 -0.119E-06
 -21.586 -0.123E-06 -0.123E-06
 -21.576 -0.127E-06 -0.127E-06
 -21.566 -0.130E-06 -0.130E-06
 -21.556 -0.134E-06 -0.134E-06
 -21.546 -0.138E-06 -0.138E-06
 -21.536 -0.141E-06 -0.141E-06
 -21.526 -0.145E-06 -0.145E-06
 -21.516 -0.148E-06 -0.148E-06
 -21.506 -0.152E-06 -0.152E-06
 -21.496 -0.155E-06 -0.155E-06
 -21.486 -0.158E-06 -0.158E-06
 -21.476 -0.161E-06 -0.161E-06
 -21.466 -0.164E-06 -0.164E-06
 -21.456 -0.166E-06 -0.166E-06
 -21.446 -0.169E-06 -0.169E-06
 -21.436 -0.171E-06 -0.171E-06
 -21.426 -0.173E-06 -0.173E-06
 -21.416 -0.175E-06 -0.175E-06
 -21.406 -0.177E-06 -0.177E-06
 -21.396 -0.178E-06 -0.178E-06
 -21.386 -0.179E-06 -0.179E-06
 -21.376 -0.180E-06 -0.180E-06
 -21.366 -0.180E-06 -0.180E-06
 -21.356 -0.180E-06 -0.180E-06
 -21.346 -0.179E-06 -0.179E-06
 -21.336 -0.178E-06 -0.178E-06
 -21.326 -0.177E-06 -0.177E-06
 -21.316 -0.175E-06 -0.175E-06
 -21.306 -0.173E-06 -0.173E-06
 -21.296 -0.170E-06 -0.170E-06
 -21.286 -0.166E-06 -0.166E-06
 -21.276 -0.162E-06 -0.162E-06
 -21.266 -0.157E-06 -0.157E-06
 -21.256 -0.152E-06 -0.152E-06
 -21.246 -0.146E-06 -0.146E-06
 -21.236 -0.139E-06 -0.139E-06
 -21.226 -0.131E-06 -0.131E-06
 -21.216 -0.123E-06 -0.123E-06
 -21.206 -0.114E-06 -0.114E-06
 -21.196 -0.104E-06 -0.104E-06
 -21.186 -0.932E-07 -0.932E-07
 -21.176 -0.814E-07 -0.814E-07
 -21.166 -0.688E-07 -0.688E-07
 -21.156 -0.552E-07 -0.552E-07
 -21.146 -0.406E-07 -0.406E-07
 -21.136 -0.251E-07 -0.251E-07
 -21.126 -0.851E-08 -0.851E-08
 -21.116  0.911E-08  0.911E-08
 -21.106  0.278E-07  0.278E-07
 -21.096  0.476E-07  0.476E-07
 -21.086  0.685E-07  0.685E-07
 -21.076  0.905E-07  0.905E-07
 -21.066  0.114E-06  0.114E-06
 -21.056  0.138E-06  0.138E-06
 -21.046  0.163E-06  0.163E-06
 -21.036  0.190E-06  0.190E-06
 -21.026  0.218E-06  0.218E-06
 -21.016  0.247E-06  0.247E-06
 -21.006  0.278E-06  0.278E-06
 -20.996  0.309E-06  0.309E-06
 -20.986  0.342E-06  0.342E-06
 -20.976  0.376E-06  0.376E-06
 -20.966  0.411E-06  0.411E-06
 -20.956  0.447E-06  0.447E-06
 -20.946  0.485E-06  0.485E-06
 -20.936  0.524E-06  0.524E-06
 -20.926  0.564E-06  0.564E-06
 -20.916  0.605E-06  0.605E-06
 -20.906  0.648E-06  0.648E-06
 -20.896  0.691E-06  0.691E-06
 -20.886  0.736E-06  0.736E-06
 -20.876  0.781E-06  0.781E-06
 -20.866  0.828E-06  0.828E-06
 -20.856  0.876E-06  0.876E-06
 -20.846  0.925E-06  0.925E-06
 -20.836  0.974E-06  0.974E-06
 -20.826  0.103E-05  0.103E-05
 -20.816  0.108E-05  0.108E-05
 -20.806  0.113E-05  0.113E-05
 -20.796  0.118E-05  0.118E-05
 -20.786  0.124E-05  0.124E-05
 -20.776  0.129E-05  0.129E-05
 -20.766  0.135E-05  0.135E-05
 -20.756  0.140E-05  0.140E-05
 -20.746  0.146E-05  0.146E-05
 -20.736  0.151E-05  0.151E-05
 -20.726  0.157E-05  0.157E-05
 -20.716  0.163E-05  0.163E-05
 -20.706  0.169E-05  0.169E-05
 -20.696  0.174E-05  0.174E-05
 -20.686  0.180E-05  0.180E-05
 -20.676  0.186E-05  0.186E-05
 -20.666  0.192E-05  0.192E-05
 -20.656  0.197E-05  0.197E-05
 -20.646  0.203E-05  0.203E-05
 -20.636  0.209E-05  0.209E-05
 -20.626  0.214E-05  0.214E-05
 -20.616  0.220E-05  0.220E-05
 -20.606  0.226E-05  0.226E-05
 -20.596  0.231E-05  0.231E-05
 -20.586  0.236E-05  0.236E-05
 -20.576  0.242E-05  0.242E-05
 -20.566  0.247E-05  0.247E-05
 -20.556  0.252E-05  0.252E-05
 -20.546  0.257E-05  0.257E-05
 -20.536  0.262E-05  0.262E-05
 -20.526  0.267E-05  0.267E-05
 -20.516  0.272E-05  0.272E-05
 -20.506  0.276E-05  0.276E-05
 -20.496  0.281E-05  0.281E-05
 -20.486  0.285E-05  0.285E-05
 -20.476  0.289E-05  0.289E-05
 -20.466  0.293E-05  0.293E-05
 -20.456  0.296E-05  0.296E-05
 -20.446  0.300E-05  0.300E-05
 -20.436  0.303E-05  0.303E-05
 -20.426  0.307E-05  0.307E-05
 -20.416  0.309E-05  0.309E-05
 -20.406  0.312E-05  0.312E-05
 -20.396  0.315E-05  0.315E-05
 -20.386  0.317E-05  0.317E-05
 -20.376  0.319E-05  0.319E-05
 -20.366  0.321E-05  0.321E-05
 -20.356  0.323E-05  0.323E-05
 -20.346  0.324E-05  0.324E-05
 -20.336  0.326E-05  0.326E-05
 -20.326  0.327E-05  0.327E-05
 -20.316  0.327E-05  0.327E-05
 -20.306  0.328E-05  0.328E-05
 -20.296  0.328E-05  0.328E-05
 -20.286  0.328E-05  0.328E-05
 -20.276  0.328E-05  0.328E-05
 -20.266  0.328E-05  0.328E-05
 -20.256  0.327E-05  0.327E-05
 -20.246  0.326E-05  0.326E-05
 -20.236  0.325E-05  0.325E-05
 -20.226  0.324E-05  0.324E-05
 -20.216  0.322E-05  0.322E-05
 -20.206  0.320E-05  0.320E-05
 -20.196  0.318E-05  0.318E-05
 -20.186  0.316E-05  0.316E-05
 -20.176  0.313E-05  0.313E-05
 -20.166  0.311E-05  0.311E-05
 -20.156  0.308E-05  0.308E-05
 -20.146  0.305E-05  0.305E-05
 -20.136  0.302E-05  0.302E-05
 -20.126  0.298E-05  0.298E-05
 -20.116  0.294E-05  0.294E-05
 -20.106  0.291E-05  0.291E-05
 -20.096  0.287E-05  0.287E-05
 -20.086  0.283E-05  0.283E-05
 -20.076  0.278E-05  0.278E-05
 -20.066  0.274E-05  0.274E-05
 -20.056  0.269E-05  0.269E-05
 -20.046  0.264E-05  0.264E-05
 -20.036  0.260E-05  0.260E-05
 -20.026  0.255E-05  0.255E-05
 -20.016  0.250E-05  0.250E-05
 -20.006  0.244E-05  0.244E-05
 -19.996  0.239E-05  0.239E-05
 -19.986  0.234E-05  0.234E-05
 -19.976  0.228E-05  0.228E-05
 -19.966  0.223E-05  0.223E-05
 -19.956  0.217E-05  0.217E-05
 -19.946  0.212E-05  0.212E-05
 -19.936  0.206E-05  0.206E-05
 -19.926  0.200E-05  0.200E-05
 -19.916  0.195E-05  0.195E-05
 -19.906  0.189E-05  0.189E-05
 -19.896  0.183E-05  0.183E-05
 -19.886  0.178E-05  0.178E-05
 -19.876  0.172E-05  0.172E-05
 -19.866  0.166E-05  0.166E-05
 -19.856  0.161E-05  0.161E-05
 -19.846  0.155E-05  0.155E-05
 -19.836  0.149E-05  0.149E-05
 -19.826  0.144E-05  0.144E-05
 -19.816  0.138E-05  0.138E-05
 -19.806  0.133E-05  0.133E-05
 -19.796  0.127E-05  0.127E-05
 -19.786  0.122E-05  0.122E-05
 -19.776  0.117E-05  0.117E-05
 -19.766  0.112E-05  0.112E-05
 -19.756  0.107E-05  0.107E-05
 -19.746  0.102E-05  0.102E-05
 -19.736  0.967E-06  0.967E-06
 -19.726  0.919E-06  0.919E-06
 -19.716  0.872E-06  0.872E-06
 -19.706  0.826E-06  0.826E-06
 -19.696  0.781E-06  0.781E-06
 -19.686  0.738E-06  0.738E-06
 -19.676  0.695E-06  0.695E-06
 -19.666  0.654E-06  0.654E-06
 -19.656  0.614E-06  0.614E-06
 -19.646  0.575E-06  0.575E-06
 -19.636  0.537E-06  0.537E-06
 -19.626  0.501E-06  0.501E-06
 -19.616  0.466E-06  0.466E-06
 -19.606  0.432E-06  0.432E-06
 -19.596  0.399E-06  0.399E-06
 -19.586  0.368E-06  0.368E-06
 -19.576  0.338E-06  0.338E-06
 -19.566  0.309E-06  0.309E-06
 -19.556  0.282E-06  0.282E-06
 -19.546  0.255E-06  0.255E-06
 -19.536  0.230E-06  0.230E-06
 -19.526  0.207E-06  0.207E-06
 -19.516  0.184E-06  0.184E-06
 -19.506  0.163E-06  0.163E-06
 -19.496  0.143E-06  0.143E-06
 -19.486  0.124E-06  0.124E-06
 -19.476  0.106E-06  0.106E-06
 -19.466  0.894E-07  0.894E-07
 -19.456  0.738E-07  0.738E-07
 -19.446  0.593E-07  0.593E-07
 -19.436  0.459E-07  0.459E-07
 -19.426  0.335E-07  0.335E-07
 -19.416  0.221E-07  0.221E-07
 -19.406  0.116E-07  0.116E-07
 -19.396  0.211E-08  0.211E-08
 -19.386 -0.650E-08 -0.650E-08
 -19.376 -0.142E-07 -0.142E-07
 -19.366 -0.211E-07 -0.211E-07
 -19.356 -0.272E-07 -0.272E-07
 -19.346 -0.325E-07 -0.325E-07
 -19.336 -0.371E-07 -0.371E-07
 -19.326 -0.410E-07 -0.410E-07
 -19.316 -0.441E-07 -0.441E-07
 -19.306 -0.467E-07 -0.467E-07
 -19.296 -0.486E-07 -0.486E-07
 -19.286 -0.500E-07 -0.500E-07
 -19.276 -0.508E-07 -0.508E-07
 -19.266 -0.511E-07 -0.511E-07
 -19.256 -0.509E-07 -0.509E-07
 -19.246 -0.503E-07 -0.503E-07
 -19.236 -0.492E-07 -0.492E-07
 -19.226 -0.478E-07 -0.478E-07
 -19.216 -0.460E-07 -0.460E-07
 -19.206 -0.439E-07 -0.439E-07
 -19.196 -0.415E-07 -0.415E-07
 -19.186 -0.389E-07 -0.389E-07
 -19.176 -0.360E-07 -0.360E-07
 -19.166 -0.328E-07 -0.328E-07
 -19.156 -0.295E-07 -0.295E-07
 -19.146 -0.260E-07 -0.260E-07
 -19.136 -0.224E-07 -0.224E-07
 -19.126 -0.187E-07 -0.187E-07
 -19.116 -0.149E-07 -0.149E-07
 -19.106 -0.110E-07 -0.110E-07
 -19.096 -0.701E-08 -0.701E-08
 -19.086 -0.302E-08 -0.302E-08
 -19.076  0.981E-09  0.981E-09
 -19.066  0.498E-08  0.498E-08
 -19.056  0.896E-08  0.896E-08
 -19.046  0.129E-07  0.129E-07
 -19.036  0.168E-07  0.168E-07
 -19.026  0.206E-07  0.206E-07
 -19.016  0.244E-07  0.244E-07
 -19.006  0.281E-07  0.281E-07
 -18.996  0.316E-07  0.316E-07
 -18.986  0.351E-07  0.351E-07
 -18.976  0.384E-07  0.384E-07
 -18.966  0.416E-07  0.416E-07
 -18.956  0.447E-07  0.447E-07
 -18.946  0.476E-07  0.476E-07
 -18.936  0.504E-07  0.504E-07
 -18.926  0.530E-07  0.530E-07
 -18.916  0.555E-07  0.555E-07
 -18.906  0.578E-07  0.578E-07
 -18.896  0.599E-07  0.599E-07
 -18.886  0.619E-07  0.619E-07
 -18.876  0.637E-07  0.637E-07
 -18.866  0.653E-07  0.653E-07
 -18.856  0.668E-07  0.668E-07
 -18.846  0.680E-07  0.680E-07
 -18.836  0.691E-07  0.691E-07
 -18.826  0.700E-07  0.700E-07
 -18.816  0.708E-07  0.708E-07
 -18.806  0.713E-07  0.713E-07
 -18.796  0.717E-07  0.717E-07
 -18.786  0.720E-07  0.720E-07
 -18.776  0.720E-07  0.720E-07
 -18.766  0.719E-07  0.719E-07
 -18.756  0.716E-07  0.716E-07
 -18.746  0.712E-07  0.712E-07
 -18.736  0.706E-07  0.706E-07
 -18.726  0.699E-07  0.699E-07
 -18.716  0.690E-07  0.690E-07
 -18.706  0.679E-07  0.679E-07
 -18.696  0.668E-07  0.668E-07
 -18.686  0.655E-07  0.655E-07
 -18.676  0.640E-07  0.640E-07
 -18.666  0.624E-07  0.624E-07
 -18.656  0.607E-07  0.607E-07
 -18.646  0.589E-07  0.589E-07
 -18.636  0.570E-07  0.570E-07
 -18.626  0.549E-07  0.549E-07
 -18.616  0.527E-07  0.527E-07
 -18.606  0.505E-07  0.505E-07
 -18.596  0.481E-07  0.481E-07
 -18.586  0.457E-07  0.457E-07
 -18.576  0.431E-07  0.431E-07
 -18.566  0.405E-07  0.405E-07
 -18.556  0.377E-07  0.377E-07
 -18.546  0.349E-07  0.349E-07
 -18.536  0.320E-07  0.320E-07
 -18.526  0.291E-07  0.291E-07
 -18.516  0.260E-07  0.260E-07
 -18.506  0.229E-07  0.229E-07
 -18.496  0.198E-07  0.198E-07
 -18.486  0.165E-07  0.165E-07
 -18.476  0.132E-07  0.132E-07
 -18.466  0.991E-08  0.991E-08
 -18.456  0.651E-08  0.651E-08
 -18.446  0.306E-08  0.306E-08
 -18.436 -0.435E-09 -0.435E-09
 -18.426 -0.398E-08 -0.398E-08
 -18.416 -0.756E-08 -0.756E-08
 -18.406 -0.112E-07 -0.112E-07
 -18.396 -0.149E-07 -0.149E-07
 -18.386 -0.186E-07 -0.186E-07
 -18.376 -0.223E-07 -0.223E-07
 -18.366 -0.261E-07 -0.261E-07
 -18.356 -0.299E-07 -0.299E-07
 -18.346 -0.337E-07 -0.337E-07
 -18.336 -0.376E-07 -0.376E-07
 -18.326 -0.414E-07 -0.414E-07
 -18.316 -0.453E-07 -0.453E-07
 -18.306 -0.492E-07 -0.492E-07
 -18.296 -0.532E-07 -0.532E-07
 -18.286 -0.571E-07 -0.571E-07
 -18.276 -0.611E-07 -0.611E-07
 -18.266 -0.650E-07 -0.650E-07
 -18.256 -0.690E-07 -0.690E-07
 -18.246 -0.729E-07 -0.729E-07
 -18.236 -0.769E-07 -0.769E-07
 -18.226 -0.808E-07 -0.808E-07
 -18.216 -0.847E-07 -0.847E-07
 -18.206 -0.887E-07 -0.887E-07
 -18.196 -0.925E-07 -0.925E-07
 -18.186 -0.964E-07 -0.964E-07
 -18.176 -0.100E-06 -0.100E-06
 -18.166 -0.104E-06 -0.104E-06
 -18.156 -0.108E-06 -0.108E-06
 -18.146 -0.111E-06 -0.111E-06
 -18.136 -0.115E-06 -0.115E-06
 -18.126 -0.118E-06 -0.118E-06
 -18.116 -0.122E-06 -0.122E-06
 -18.106 -0.125E-06 -0.125E-06
 -18.096 -0.129E-06 -0.129E-06
 -18.086 -0.132E-06 -0.132E-06
 -18.076 -0.135E-06 -0.135E-06
 -18.066 -0.138E-06 -0.138E-06
 -18.056 -0.140E-06 -0.140E-06
 -18.046 -0.143E-06 -0.143E-06
 -18.036 -0.145E-06 -0.145E-06
 -18.026 -0.147E-06 -0.147E-06
 -18.016 -0.149E-06 -0.149E-06
 -18.006 -0.151E-06 -0.151E-06
 -17.996 -0.153E-06 -0.153E-06
 -17.986 -0.154E-06 -0.154E-06
 -17.976 -0.155E-06 -0.155E-06
 -17.966 -0.156E-06 -0.156E-06
 -17.956 -0.156E-06 -0.156E-06
 -17.946 -0.156E-06 -0.156E-06
 -17.936 -0.156E-06 -0.156E-06
 -17.926 -0.155E-06 -0.155E-06
 -17.916 -0.154E-06 -0.154E-06
 -17.906 -0.153E-06 -0.153E-06
 -17.896 -0.151E-06 -0.151E-06
 -17.886 -0.149E-06 -0.149E-06
 -17.876 -0.146E-06 -0.146E-06
 -17.866 -0.143E-06 -0.143E-06
 -17.856 -0.139E-06 -0.139E-06
 -17.846 -0.135E-06 -0.135E-06
 -17.836 -0.130E-06 -0.130E-06
 -17.826 -0.125E-06 -0.125E-06
 -17.816 -0.119E-06 -0.119E-06
 -17.806 -0.112E-06 -0.112E-06
 -17.796 -0.105E-06 -0.105E-06
 -17.786 -0.966E-07 -0.966E-07
 -17.776 -0.879E-07 -0.879E-07
 -17.766 -0.785E-07 -0.785E-07
 -17.756 -0.683E-07 -0.683E-07
 -17.746 -0.574E-07 -0.574E-07
 -17.736 -0.457E-07 -0.457E-07
 -17.726 -0.332E-07 -0.332E-07
 -17.716 -0.198E-07 -0.198E-07
 -17.706 -0.564E-08 -0.564E-08
 -17.696  0.941E-08  0.941E-08
 -17.686  0.253E-07  0.253E-07
 -17.676  0.422E-07  0.422E-07
 -17.666  0.599E-07  0.599E-07
 -17.656  0.786E-07  0.786E-07
 -17.646  0.982E-07  0.982E-07
 -17.636  0.119E-06  0.119E-06
 -17.626  0.140E-06  0.140E-06
 -17.616  0.163E-06  0.163E-06
 -17.606  0.186E-06  0.186E-06
 -17.596  0.211E-06  0.211E-06
 -17.586  0.236E-06  0.236E-06
 -17.576  0.263E-06  0.263E-06
 -17.566  0.290E-06  0.290E-06
 -17.556  0.319E-06  0.319E-06
 -17.546  0.348E-06  0.348E-06
 -17.536  0.379E-06  0.379E-06
 -17.526  0.410E-06  0.410E-06
 -17.516  0.442E-06  0.442E-06
 -17.506  0.476E-06  0.476E-06
 -17.496  0.510E-06  0.510E-06
 -17.486  0.545E-06  0.545E-06
 -17.476  0.581E-06  0.581E-06
 -17.466  0.618E-06  0.618E-06
 -17.456  0.656E-06  0.656E-06
 -17.446  0.695E-06  0.695E-06
 -17.436  0.735E-06  0.735E-06
 -17.426  0.775E-06  0.775E-06
 -17.416  0.816E-06  0.816E-06
 -17.406  0.858E-06  0.858E-06
 -17.396  0.901E-06  0.901E-06
 -17.386  0.944E-06  0.944E-06
 -17.376  0.988E-06  0.988E-06
 -17.366  0.103E-05  0.103E-05
 -17.356  0.108E-05  0.108E-05
 -17.346  0.112E-05  0.112E-05
 -17.336  0.117E-05  0.117E-05
 -17.326  0.121E-05  0.121E-05
 -17.316  0.126E-05  0.126E-05
 -17.306  0.131E-05  0.131E-05
 -17.296  0.135E-05  0.135E-05
 -17.286  0.140E-05  0.140E-05
 -17.276  0.145E-05  0.145E-05
 -17.266  0.150E-05  0.150E-05
 -17.256  0.154E-05  0.154E-05
 -17.246  0.159E-05  0.159E-05
 -17.236  0.164E-05  0.164E-05
 -17.226  0.168E-05  0.168E-05
 -17.216  0.173E-05  0.173E-05
 -17.206  0.178E-05  0.178E-05
 -17.196  0.182E-05  0.182E-05
 -17.186  0.187E-05  0.187E-05
 -17.176  0.191E-05  0.191E-05
 -17.166  0.196E-05  0.196E-05
 -17.156  0.200E-05  0.200E-05
 -17.146  0.204E-05  0.204E-05
 -17.136  0.208E-05  0.208E-05
 -17.126  0.212E-05  0.212E-05
 -17.116  0.216E-05  0.216E-05
 -17.106  0.220E-05  0.220E-05
 -17.096  0.224E-05  0.224E-05
 -17.086  0.228E-05  0.228E-05
 -17.076  0.231E-05  0.231E-05
 -17.066  0.235E-05  0.235E-05
 -17.056  0.238E-05  0.238E-05
 -17.046  0.241E-05  0.241E-05
 -17.036  0.244E-05  0.244E-05
 -17.026  0.247E-05  0.247E-05
 -17.016  0.250E-05  0.250E-05
 -17.006  0.252E-05  0.252E-05
 -16.996  0.255E-05  0.255E-05
 -16.986  0.257E-05  0.257E-05
 -16.976  0.259E-05  0.259E-05
 -16.966  0.261E-05  0.261E-05
 -16.956  0.262E-05  0.262E-05
 -16.946  0.264E-05  0.264E-05
 -16.936  0.265E-05  0.265E-05
 -16.926  0.266E-05  0.266E-05
 -16.916  0.267E-05  0.267E-05
 -16.906  0.268E-05  0.268E-05
 -16.896  0.269E-05  0.269E-05
 -16.886  0.269E-05  0.269E-05
 -16.876  0.269E-05  0.269E-05
 -16.866  0.269E-05  0.269E-05
 -16.856  0.269E-05  0.269E-05
 -16.846  0.269E-05  0.269E-05
 -16.836  0.268E-05  0.268E-05
 -16.826  0.268E-05  0.268E-05
 -16.816  0.267E-05  0.267E-05
 -16.806  0.266E-05  0.266E-05
 -16.796  0.264E-05  0.264E-05
 -16.786  0.263E-05  0.263E-05
 -16.776  0.261E-05  0.261E-05
 -16.766  0.259E-05  0.259E-05
 -16.756  0.257E-05  0.257E-05
 -16.746  0.255E-05  0.255E-05
 -16.736  0.253E-05  0.253E-05
 -16.726  0.250E-05  0.250E-05
 -16.716  0.248E-05  0.248E-05
 -16.706  0.245E-05  0.245E-05
 -16.696  0.242E-05  0.242E-05
 -16.686  0.239E-05  0.239E-05
 -16.676  0.236E-05  0.236E-05
 -16.666  0.232E-05  0.232E-05
 -16.656  0.229E-05  0.229E-05
 -16.646  0.225E-05  0.225E-05
 -16.636  0.222E-05  0.222E-05
 -16.626  0.218E-05  0.218E-05
 -16.616  0.214E-05  0.214E-05
 -16.606  0.210E-05  0.210E-05
 -16.596  0.206E-05  0.206E-05
 -16.586  0.202E-05  0.202E-05
 -16.576  0.197E-05  0.197E-05
 -16.566  0.193E-05  0.193E-05
 -16.556  0.189E-05  0.189E-05
 -16.546  0.184E-05  0.184E-05
 -16.536  0.180E-05  0.180E-05
 -16.526  0.176E-05  0.176E-05
 -16.516  0.171E-05  0.171E-05
 -16.506  0.167E-05  0.167E-05
 -16.496  0.162E-05  0.162E-05
 -16.486  0.157E-05  0.157E-05
 -16.476  0.153E-05  0.153E-05
 -16.466  0.148E-05  0.148E-05
 -16.456  0.144E-05  0.144E-05
 -16.446  0.139E-05  0.139E-05
 -16.436  0.135E-05  0.135E-05
 -16.426  0.130E-05  0.130E-05
 -16.416  0.126E-05  0.126E-05
 -16.406  0.121E-05  0.121E-05
 -16.396  0.117E-05  0.117E-05
 -16.386  0.112E-05  0.112E-05
 -16.376  0.108E-05  0.108E-05
 -16.366  0.104E-05  0.104E-05
 -16.356  0.995E-06  0.995E-06
 -16.346  0.954E-06  0.954E-06
 -16.336  0.913E-06  0.913E-06
 -16.326  0.873E-06  0.873E-06
 -16.316  0.833E-06  0.833E-06
 -16.306  0.794E-06  0.794E-06
 -16.296  0.756E-06  0.756E-06
 -16.286  0.719E-06  0.719E-06
 -16.276  0.683E-06  0.683E-06
 -16.266  0.647E-06  0.647E-06
 -16.256  0.612E-06  0.612E-06
 -16.246  0.578E-06  0.578E-06
 -16.236  0.545E-06  0.545E-06
 -16.226  0.513E-06  0.513E-06
 -16.216  0.482E-06  0.482E-06
 -16.206  0.452E-06  0.452E-06
 -16.196  0.423E-06  0.423E-06
 -16.186  0.394E-06  0.394E-06
 -16.176  0.367E-06  0.367E-06
 -16.166  0.341E-06  0.341E-06
 -16.156  0.315E-06  0.315E-06
 -16.146  0.291E-06  0.291E-06
 -16.136  0.267E-06  0.267E-06
 -16.126  0.244E-06  0.244E-06
 -16.116  0.222E-06  0.222E-06
 -16.106  0.201E-06  0.201E-06
 -16.096  0.181E-06  0.181E-06
 -16.086  0.162E-06  0.162E-06
 -16.076  0.144E-06  0.144E-06
 -16.066  0.127E-06  0.127E-06
 -16.056  0.110E-06  0.110E-06
 -16.046  0.945E-07  0.945E-07
 -16.036  0.796E-07  0.796E-07
 -16.026  0.655E-07  0.655E-07
 -16.016  0.522E-07  0.522E-07
 -16.006  0.396E-07  0.396E-07
 -15.996  0.278E-07  0.278E-07
 -15.986  0.167E-07  0.167E-07
 -15.976  0.622E-08  0.622E-08
 -15.966 -0.356E-08 -0.356E-08
 -15.956 -0.127E-07 -0.127E-07
 -15.946 -0.212E-07 -0.212E-07
 -15.936 -0.291E-07 -0.291E-07
 -15.926 -0.364E-07 -0.364E-07
 -15.916 -0.432E-07 -0.432E-07
 -15.906 -0.494E-07 -0.494E-07
 -15.896 -0.552E-07 -0.552E-07
 -15.886 -0.604E-07 -0.604E-07
 -15.876 -0.652E-07 -0.652E-07
 -15.866 -0.695E-07 -0.695E-07
 -15.856 -0.734E-07 -0.734E-07
 -15.846 -0.769E-07 -0.769E-07
 -15.836 -0.801E-07 -0.801E-07
 -15.826 -0.829E-07 -0.829E-07
 -15.816 -0.853E-07 -0.853E-07
 -15.806 -0.875E-07 -0.875E-07
 -15.796 -0.893E-07 -0.893E-07
 -15.786 -0.909E-07 -0.909E-07
 -15.776 -0.922E-07 -0.922E-07
 -15.766 -0.933E-07 -0.933E-07
 -15.756 -0.942E-07 -0.942E-07
 -15.746 -0.948E-07 -0.948E-07
 -15.736 -0.953E-07 -0.953E-07
 -15.726 -0.957E-07 -0.957E-07
 -15.716 -0.959E-07 -0.959E-07
 -15.706 -0.959E-07 -0.959E-07
 -15.696 -0.959E-07 -0.959E-07
 -15.686 -0.957E-07 -0.957E-07
 -15.676 -0.955E-07 -0.955E-07
 -15.666 -0.952E-07 -0.952E-07
 -15.656 -0.948E-07 -0.948E-07
 -15.646 -0.944E-07 -0.944E-07
 -15.636 -0.940E-07 -0.940E-07
 -15.626 -0.935E-07 -0.935E-07
 -15.616 -0.930E-07 -0.930E-07
 -15.606 -0.926E-07 -0.926E-07
 -15.596 -0.922E-07 -0.922E-07
 -15.586 -0.917E-07 -0.917E-07
 -15.576 -0.914E-07 -0.914E-07
 -15.566 -0.911E-07 -0.911E-07
 -15.556 -0.908E-07 -0.908E-07
 -15.546 -0.906E-07 -0.906E-07
 -15.536 -0.905E-07 -0.905E-07
 -15.526 -0.904E-07 -0.904E-07
 -15.516 -0.905E-07 -0.905E-07
 -15.506 -0.906E-07 -0.906E-07
 -15.496 -0.909E-07 -0.909E-07
 -15.486 -0.913E-07 -0.913E-07
 -15.476 -0.918E-07 -0.918E-07
 -15.466 -0.924E-07 -0.924E-07
 -15.456 -0.931E-07 -0.931E-07
 -15.446 -0.940E-07 -0.940E-07
 -15.436 -0.951E-07 -0.951E-07
 -15.426 -0.963E-07 -0.963E-07
 -15.416 -0.977E-07 -0.977E-07
 -15.406 -0.992E-07 -0.992E-07
 -15.396 -0.101E-06 -0.101E-06
 -15.386 -0.103E-06 -0.103E-06
 -15.376 -0.105E-06 -0.105E-06
 -15.366 -0.107E-06 -0.107E-06
 -15.356 -0.110E-06 -0.110E-06
 -15.346 -0.112E-06 -0.112E-06
 -15.336 -0.115E-06 -0.115E-06
 -15.326 -0.118E-06 -0.118E-06
 -15.316 -0.121E-06 -0.121E-06
 -15.306 -0.125E-06 -0.125E-06
 -15.296 -0.129E-06 -0.129E-06
 -15.286 -0.133E-06 -0.133E-06
 -15.276 -0.137E-06 -0.137E-06
 -15.266 -0.141E-06 -0.141E-06
 -15.256 -0.146E-06 -0.146E-06
 -15.246 -0.151E-06 -0.151E-06
 -15.236 -0.156E-06 -0.156E-06
 -15.226 -0.161E-06 -0.161E-06
 -15.216 -0.166E-06 -0.166E-06
 -15.206 -0.172E-06 -0.172E-06
 -15.196 -0.178E-06 -0.178E-06
 -15.186 -0.184E-06 -0.184E-06
 -15.176 -0.191E-06 -0.191E-06
 -15.166 -0.198E-06 -0.198E-06
 -15.156 -0.205E-06 -0.205E-06
 -15.146 -0.212E-06 -0.212E-06
 -15.136 -0.219E-06 -0.219E-06
 -15.126 -0.227E-06 -0.227E-06
 -15.116 -0.235E-06 -0.235E-06
 -15.106 -0.243E-06 -0.243E-06
 -15.096 -0.251E-06 -0.251E-06
 -15.086 -0.259E-06 -0.259E-06
 -15.076 -0.268E-06 -0.268E-06
 -15.066 -0.277E-06 -0.277E-06
 -15.056 -0.286E-06 -0.286E-06
 -15.046 -0.295E-06 -0.295E-06
 -15.036 -0.304E-06 -0.304E-06
 -15.026 -0.314E-06 -0.314E-06
 -15.016 -0.323E-06 -0.323E-06
 -15.006 -0.333E-06 -0.333E-06
 -14.996 -0.343E-06 -0.343E-06
 -14.986 -0.352E-06 -0.352E-06
 -14.976 -0.362E-06 -0.362E-06
 -14.966 -0.372E-06 -0.372E-06
 -14.956 -0.382E-06 -0.382E-06
 -14.946 -0.392E-06 -0.392E-06
 -14.936 -0.402E-06 -0.402E-06
 -14.926 -0.412E-06 -0.412E-06
 -14.916 -0.421E-06 -0.421E-06
 -14.906 -0.431E-06 -0.431E-06
 -14.896 -0.440E-06 -0.440E-06
 -14.886 -0.449E-06 -0.449E-06
 -14.876 -0.458E-06 -0.458E-06
 -14.866 -0.467E-06 -0.467E-06
 -14.856 -0.475E-06 -0.475E-06
 -14.846 -0.484E-06 -0.484E-06
 -14.836 -0.491E-06 -0.491E-06
 -14.826 -0.499E-06 -0.499E-06
 -14.816 -0.505E-06 -0.505E-06
 -14.806 -0.512E-06 -0.512E-06
 -14.796 -0.517E-06 -0.517E-06
 -14.786 -0.522E-06 -0.522E-06
 -14.776 -0.527E-06 -0.527E-06
 -14.766 -0.531E-06 -0.531E-06
 -14.756 -0.534E-06 -0.534E-06
 -14.746 -0.536E-06 -0.536E-06
 -14.736 -0.537E-06 -0.537E-06
 -14.726 -0.537E-06 -0.537E-06
 -14.716 -0.537E-06 -0.537E-06
 -14.706 -0.535E-06 -0.535E-06
 -14.696 -0.532E-06 -0.532E-06
 -14.686 -0.528E-06 -0.528E-06
 -14.676 -0.522E-06 -0.522E-06
 -14.666 -0.516E-06 -0.516E-06
 -14.656 -0.507E-06 -0.507E-06
 -14.646 -0.498E-06 -0.498E-06
 -14.636 -0.487E-06 -0.487E-06
 -14.626 -0.474E-06 -0.474E-06
 -14.616 -0.459E-06 -0.459E-06
 -14.606 -0.443E-06 -0.443E-06
 -14.596 -0.425E-06 -0.425E-06
 -14.586 -0.405E-06 -0.405E-06
 -14.576 -0.383E-06 -0.383E-06
 -14.566 -0.359E-06 -0.359E-06
 -14.556 -0.333E-06 -0.333E-06
 -14.546 -0.304E-06 -0.304E-06
 -14.536 -0.274E-06 -0.274E-06
 -14.526 -0.240E-06 -0.240E-06
 -14.516 -0.205E-06 -0.205E-06
 -14.506 -0.167E-06 -0.167E-06
 -14.496 -0.126E-06 -0.126E-06
 -14.486 -0.828E-07 -0.828E-07
 -14.476 -0.368E-07 -0.368E-07
 -14.466  0.121E-07  0.121E-07
 -14.456  0.638E-07  0.638E-07
 -14.446  0.119E-06  0.119E-06
 -14.436  0.176E-06  0.176E-06
 -14.426  0.237E-06  0.237E-06
 -14.416  0.301E-06  0.301E-06
 -14.406  0.368E-06  0.368E-06
 -14.396  0.438E-06  0.438E-06
 -14.386  0.512E-06  0.512E-06
 -14.376  0.589E-06  0.589E-06
 -14.366  0.669E-06  0.669E-06
 -14.356  0.753E-06  0.753E-06
 -14.346  0.840E-06  0.840E-06
 -14.336  0.931E-06  0.931E-06
 -14.326  0.103E-05  0.103E-05
 -14.316  0.112E-05  0.112E-05
 -14.306  0.122E-05  0.122E-05
 -14.296  0.133E-05  0.133E-05
 -14.286  0.144E-05  0.144E-05
 -14.276  0.155E-05  0.155E-05
 -14.266  0.167E-05  0.167E-05
 -14.256  0.179E-05  0.179E-05
 -14.246  0.191E-05  0.191E-05
 -14.236  0.204E-05  0.204E-05
 -14.226  0.217E-05  0.217E-05
 -14.216  0.230E-05  0.230E-05
 -14.206  0.244E-05  0.244E-05
 -14.196  0.258E-05  0.258E-05
 -14.186  0.273E-05  0.273E-05
 -14.176  0.288E-05  0.288E-05
 -14.166  0.303E-05  0.303E-05
 -14.156  0.318E-05  0.318E-05
 -14.146  0.334E-05  0.334E-05
 -14.136  0.350E-05  0.350E-05
 -14.126  0.367E-05  0.367E-05
 -14.116  0.384E-05  0.384E-05
 -14.106  0.401E-05  0.401E-05
 -14.096  0.418E-05  0.418E-05
 -14.086  0.436E-05  0.436E-05
 -14.076  0.454E-05  0.454E-05
 -14.066  0.472E-05  0.472E-05
 -14.056  0.491E-05  0.491E-05
 -14.046  0.509E-05  0.509E-05
 -14.036  0.528E-05  0.528E-05
 -14.026  0.548E-05  0.548E-05
 -14.016  0.567E-05  0.567E-05
 -14.006  0.587E-05  0.587E-05
 -13.996  0.606E-05  0.606E-05
 -13.986  0.626E-05  0.626E-05
 -13.976  0.646E-05  0.646E-05
 -13.966  0.667E-05  0.667E-05
 -13.956  0.687E-05  0.687E-05
 -13.946  0.707E-05  0.707E-05
 -13.936  0.728E-05  0.728E-05
 -13.926  0.748E-05  0.748E-05
 -13.916  0.769E-05  0.769E-05
 -13.906  0.789E-05  0.789E-05
 -13.896  0.810E-05  0.810E-05
 -13.886  0.831E-05  0.831E-05
 -13.876  0.851E-05  0.851E-05
 -13.866  0.872E-05  0.872E-05
 -13.856  0.892E-05  0.892E-05
 -13.846  0.912E-05  0.912E-05
 -13.836  0.932E-05  0.932E-05
 -13.826  0.952E-05  0.952E-05
 -13.816  0.972E-05  0.972E-05
 -13.806  0.992E-05  0.992E-05
 -13.796  0.101E-04  0.101E-04
 -13.786  0.103E-04  0.103E-04
 -13.776  0.105E-04  0.105E-04
 -13.766  0.107E-04  0.107E-04
 -13.756  0.109E-04  0.109E-04
 -13.746  0.111E-04  0.111E-04
 -13.736  0.112E-04  0.112E-04
 -13.726  0.114E-04  0.114E-04
 -13.716  0.116E-04  0.116E-04
 -13.706  0.117E-04  0.117E-04
 -13.696  0.119E-04  0.119E-04
 -13.686  0.121E-04  0.121E-04
 -13.676  0.122E-04  0.122E-04
 -13.666  0.124E-04  0.124E-04
 -13.656  0.125E-04  0.125E-04
 -13.646  0.127E-04  0.127E-04
 -13.636  0.128E-04  0.128E-04
 -13.626  0.129E-04  0.129E-04
 -13.616  0.130E-04  0.130E-04
 -13.606  0.132E-04  0.132E-04
 -13.596  0.133E-04  0.133E-04
 -13.586  0.134E-04  0.134E-04
 -13.576  0.135E-04  0.135E-04
 -13.566  0.136E-04  0.136E-04
 -13.556  0.137E-04  0.137E-04
 -13.546  0.138E-04  0.138E-04
 -13.536  0.138E-04  0.138E-04
 -13.526  0.139E-04  0.139E-04
 -13.516  0.140E-04  0.140E-04
 -13.506  0.140E-04  0.140E-04
 -13.496  0.141E-04  0.141E-04
 -13.486  0.141E-04  0.141E-04
 -13.476  0.142E-04  0.142E-04
 -13.466  0.142E-04  0.142E-04
 -13.456  0.142E-04  0.142E-04
 -13.446  0.142E-04  0.142E-04
 -13.436  0.142E-04  0.142E-04
 -13.426  0.142E-04  0.142E-04
 -13.416  0.142E-04  0.142E-04
 -13.406  0.142E-04  0.142E-04
 -13.396  0.142E-04  0.142E-04
 -13.386  0.142E-04  0.142E-04
 -13.376  0.141E-04  0.141E-04
 -13.366  0.141E-04  0.141E-04
 -13.356  0.141E-04  0.141E-04
 -13.346  0.140E-04  0.140E-04
 -13.336  0.140E-04  0.140E-04
 -13.326  0.139E-04  0.139E-04
 -13.316  0.138E-04  0.138E-04
 -13.306  0.137E-04  0.137E-04
 -13.296  0.137E-04  0.137E-04
 -13.286  0.136E-04  0.136E-04
 -13.276  0.135E-04  0.135E-04
 -13.266  0.134E-04  0.134E-04
 -13.256  0.133E-04  0.133E-04
 -13.246  0.131E-04  0.131E-04
 -13.236  0.130E-04  0.130E-04
 -13.226  0.129E-04  0.129E-04
 -13.216  0.128E-04  0.128E-04
 -13.206  0.126E-04  0.126E-04
 -13.196  0.125E-04  0.125E-04
 -13.186  0.124E-04  0.124E-04
 -13.176  0.122E-04  0.122E-04
 -13.166  0.121E-04  0.121E-04
 -13.156  0.119E-04  0.119E-04
 -13.146  0.117E-04  0.117E-04
 -13.136  0.116E-04  0.116E-04
 -13.126  0.114E-04  0.114E-04
 -13.116  0.112E-04  0.112E-04
 -13.106  0.111E-04  0.111E-04
 -13.096  0.109E-04  0.109E-04
 -13.086  0.107E-04  0.107E-04
 -13.076  0.105E-04  0.105E-04
 -13.066  0.104E-04  0.104E-04
 -13.056  0.102E-04  0.102E-04
 -13.046  0.998E-05  0.998E-05
 -13.036  0.979E-05  0.979E-05
 -13.026  0.959E-05  0.959E-05
 -13.016  0.940E-05  0.940E-05
 -13.006  0.920E-05  0.920E-05
 -12.996  0.901E-05  0.901E-05
 -12.986  0.881E-05  0.881E-05
 -12.976  0.861E-05  0.861E-05
 -12.966  0.842E-05  0.842E-05
 -12.956  0.822E-05  0.822E-05
 -12.946  0.802E-05  0.802E-05
 -12.936  0.782E-05  0.782E-05
 -12.926  0.762E-05  0.762E-05
 -12.916  0.742E-05  0.742E-05
 -12.906  0.722E-05  0.722E-05
 -12.896  0.703E-05  0.703E-05
 -12.886  0.683E-05  0.683E-05
 -12.876  0.663E-05  0.663E-05
 -12.866  0.644E-05  0.644E-05
 -12.856  0.624E-05  0.624E-05
 -12.846  0.605E-05  0.605E-05
 -12.836  0.586E-05  0.586E-05
 -12.826  0.567E-05  0.567E-05
 -12.816  0.548E-05  0.548E-05
 -12.806  0.529E-05  0.529E-05
 -12.796  0.511E-05  0.511E-05
 -12.786  0.493E-05  0.493E-05
 -12.776  0.475E-05  0.475E-05
 -12.766  0.457E-05  0.457E-05
 -12.756  0.439E-05  0.439E-05
 -12.746  0.422E-05  0.422E-05
 -12.736  0.404E-05  0.404E-05
 -12.726  0.387E-05  0.387E-05
 -12.716  0.371E-05  0.371E-05
 -12.706  0.354E-05  0.354E-05
 -12.696  0.338E-05  0.338E-05
 -12.686  0.322E-05  0.322E-05
 -12.676  0.306E-05  0.306E-05
 -12.666  0.291E-05  0.291E-05
 -12.656  0.276E-05  0.276E-05
 -12.646  0.261E-05  0.261E-05
 -12.636  0.246E-05  0.246E-05
 -12.626  0.232E-05  0.232E-05
 -12.616  0.218E-05  0.218E-05
 -12.606  0.204E-05  0.204E-05
 -12.596  0.191E-05  0.191E-05
 -12.586  0.178E-05  0.178E-05
 -12.576  0.165E-05  0.165E-05
 -12.566  0.152E-05  0.152E-05
 -12.556  0.140E-05  0.140E-05
 -12.546  0.128E-05  0.128E-05
 -12.536  0.116E-05  0.116E-05
 -12.526  0.105E-05  0.105E-05
 -12.516  0.937E-06  0.937E-06
 -12.506  0.830E-06  0.830E-06
 -12.496  0.725E-06  0.725E-06
 -12.486  0.623E-06  0.623E-06
 -12.476  0.524E-06  0.524E-06
 -12.466  0.428E-06  0.428E-06
 -12.456  0.335E-06  0.335E-06
 -12.446  0.245E-06  0.245E-06
 -12.436  0.158E-06  0.158E-06
 -12.426  0.740E-07  0.740E-07
 -12.416 -0.711E-08 -0.711E-08
 -12.406 -0.852E-07 -0.852E-07
 -12.396 -0.160E-06 -0.160E-06
 -12.386 -0.233E-06 -0.233E-06
 -12.376 -0.302E-06 -0.302E-06
 -12.366 -0.368E-06 -0.368E-06
 -12.356 -0.431E-06 -0.431E-06
 -12.346 -0.491E-06 -0.491E-06
 -12.336 -0.549E-06 -0.549E-06
 -12.326 -0.603E-06 -0.603E-06
 -12.316 -0.654E-06 -0.654E-06
 -12.306 -0.702E-06 -0.702E-06
 -12.296 -0.747E-06 -0.747E-06
 -12.286 -0.789E-06 -0.789E-06
 -12.276 -0.828E-06 -0.828E-06
 -12.266 -0.863E-06 -0.863E-06
 -12.256 -0.896E-06 -0.896E-06
 -12.246 -0.925E-06 -0.925E-06
 -12.236 -0.951E-06 -0.951E-06
 -12.226 -0.974E-06 -0.974E-06
 -12.216 -0.993E-06 -0.993E-06
 -12.206 -0.101E-05 -0.101E-05
 -12.196 -0.102E-05 -0.102E-05
 -12.186 -0.103E-05 -0.103E-05
 -12.176 -0.104E-05 -0.104E-05
 -12.166 -0.104E-05 -0.104E-05
 -12.156 -0.104E-05 -0.104E-05
 -12.146 -0.103E-05 -0.103E-05
 -12.136 -0.102E-05 -0.102E-05
 -12.126 -0.101E-05 -0.101E-05
 -12.116 -0.993E-06 -0.993E-06
 -12.106 -0.973E-06 -0.973E-06
 -12.096 -0.948E-06 -0.948E-06
 -12.086 -0.920E-06 -0.920E-06
 -12.076 -0.887E-06 -0.887E-06
 -12.066 -0.851E-06 -0.851E-06
 -12.056 -0.810E-06 -0.810E-06
 -12.046 -0.765E-06 -0.765E-06
 -12.036 -0.715E-06 -0.715E-06
 -12.026 -0.662E-06 -0.662E-06
 -12.016 -0.604E-06 -0.604E-06
 -12.006 -0.541E-06 -0.541E-06
 -11.996 -0.474E-06 -0.474E-06
 -11.986 -0.402E-06 -0.402E-06
 -11.976 -0.326E-06 -0.326E-06
 -11.966 -0.245E-06 -0.245E-06
 -11.956 -0.160E-06 -0.160E-06
 -11.946 -0.699E-07 -0.699E-07
 -11.936  0.249E-07  0.249E-07
 -11.926  0.124E-06  0.124E-06
 -11.916  0.229E-06  0.229E-06
 -11.906  0.337E-06  0.337E-06
 -11.896  0.451E-06  0.451E-06
 -11.886  0.569E-06  0.569E-06
 -11.876  0.692E-06  0.692E-06
 -11.866  0.820E-06  0.820E-06
 -11.856  0.952E-06  0.952E-06
 -11.846  0.109E-05  0.109E-05
 -11.836  0.123E-05  0.123E-05
 -11.826  0.137E-05  0.137E-05
 -11.816  0.152E-05  0.152E-05
 -11.806  0.168E-05  0.168E-05
 -11.796  0.183E-05  0.183E-05
 -11.786  0.200E-05  0.200E-05
 -11.776  0.216E-05  0.216E-05
 -11.766  0.233E-05  0.233E-05
 -11.756  0.250E-05  0.250E-05
 -11.746  0.268E-05  0.268E-05
 -11.736  0.285E-05  0.285E-05
 -11.726  0.304E-05  0.304E-05
 -11.716  0.322E-05  0.322E-05
 -11.706  0.340E-05  0.340E-05
 -11.696  0.359E-05  0.359E-05
 -11.686  0.378E-05  0.378E-05
 -11.676  0.397E-05  0.397E-05
 -11.666  0.416E-05  0.416E-05
 -11.656  0.435E-05  0.435E-05
 -11.646  0.454E-05  0.454E-05
 -11.636  0.473E-05  0.473E-05
 -11.626  0.491E-05  0.491E-05
 -11.616  0.510E-05  0.510E-05
 -11.606  0.528E-05  0.528E-05
 -11.596  0.546E-05  0.546E-05
 -11.586  0.564E-05  0.564E-05
 -11.576  0.581E-05  0.581E-05
 -11.566  0.598E-05  0.598E-05
 -11.556  0.614E-05  0.614E-05
 -11.546  0.630E-05  0.630E-05
 -11.536  0.645E-05  0.645E-05
 -11.526  0.659E-05  0.659E-05
 -11.516  0.672E-05  0.672E-05
 -11.506  0.683E-05  0.683E-05
 -11.496  0.694E-05  0.694E-05
 -11.486  0.704E-05  0.704E-05
 -11.476  0.712E-05  0.712E-05
 -11.466  0.718E-05  0.718E-05
 -11.456  0.723E-05  0.723E-05
 -11.446  0.726E-05  0.726E-05
 -11.436  0.726E-05  0.726E-05
 -11.426  0.725E-05  0.725E-05
 -11.416  0.721E-05  0.721E-05
 -11.406  0.715E-05  0.715E-05
 -11.396  0.706E-05  0.706E-05
 -11.386  0.694E-05  0.694E-05
 -11.376  0.678E-05  0.678E-05
 -11.366  0.660E-05  0.660E-05
 -11.356  0.637E-05  0.637E-05
 -11.346  0.610E-05  0.610E-05
 -11.336  0.580E-05  0.580E-05
 -11.326  0.544E-05  0.544E-05
 -11.316  0.503E-05  0.503E-05
 -11.306  0.457E-05  0.457E-05
 -11.296  0.406E-05  0.406E-05
 -11.286  0.348E-05  0.348E-05
 -11.276  0.283E-05  0.283E-05
 -11.266  0.212E-05  0.212E-05
 -11.256  0.133E-05  0.133E-05
 -11.246  0.455E-06  0.455E-06
 -11.236 -0.504E-06 -0.504E-06
 -11.226 -0.155E-05 -0.155E-05
 -11.216 -0.270E-05 -0.270E-05
 -11.206 -0.396E-05 -0.396E-05
 -11.196 -0.533E-05 -0.533E-05
 -11.186 -0.681E-05 -0.681E-05
 -11.176 -0.843E-05 -0.843E-05
 -11.166 -0.102E-04 -0.102E-04
 -11.156 -0.121E-04 -0.121E-04
 -11.146 -0.141E-04 -0.141E-04
 -11.136 -0.164E-04 -0.164E-04
 -11.126 -0.187E-04 -0.187E-04
 -11.116 -0.213E-04 -0.213E-04
 -11.106 -0.241E-04 -0.241E-04
 -11.096 -0.271E-04 -0.271E-04
 -11.086 -0.303E-04 -0.303E-04
 -11.076 -0.338E-04 -0.338E-04
 -11.066 -0.375E-04 -0.375E-04
 -11.056 -0.415E-04 -0.415E-04
 -11.046 -0.458E-04 -0.458E-04
 -11.036 -0.504E-04 -0.504E-04
 -11.026 -0.553E-04 -0.553E-04
 -11.016 -0.605E-04 -0.605E-04
 -11.006 -0.662E-04 -0.662E-04
 -10.996 -0.722E-04 -0.722E-04
 -10.986 -0.786E-04 -0.786E-04
 -10.976 -0.854E-04 -0.854E-04
 -10.966 -0.928E-04 -0.928E-04
 -10.956 -0.101E-03 -0.101E-03
 -10.946 -0.109E-03 -0.109E-03
 -10.936 -0.118E-03 -0.118E-03
 -10.926 -0.127E-03 -0.127E-03
 -10.916 -0.137E-03 -0.137E-03
 -10.906 -0.148E-03 -0.148E-03
 -10.896 -0.159E-03 -0.159E-03
 -10.886 -0.171E-03 -0.171E-03
 -10.876 -0.184E-03 -0.184E-03
 -10.866 -0.198E-03 -0.198E-03
 -10.856 -0.212E-03 -0.212E-03
 -10.846 -0.227E-03 -0.227E-03
 -10.836 -0.243E-03 -0.243E-03
 -10.826 -0.261E-03 -0.261E-03
 -10.816 -0.279E-03 -0.279E-03
 -10.806 -0.298E-03 -0.298E-03
 -10.796 -0.318E-03 -0.318E-03
 -10.786 -0.340E-03 -0.340E-03
 -10.776 -0.362E-03 -0.362E-03
 -10.766 -0.386E-03 -0.386E-03
 -10.756 -0.411E-03 -0.411E-03
 -10.746 -0.438E-03 -0.438E-03
 -10.736 -0.466E-03 -0.466E-03
 -10.726 -0.495E-03 -0.495E-03
 -10.716 -0.526E-03 -0.526E-03
 -10.706 -0.559E-03 -0.559E-03
 -10.696 -0.593E-03 -0.593E-03
 -10.686 -0.629E-03 -0.629E-03
 -10.676 -0.667E-03 -0.667E-03
 -10.666 -0.707E-03 -0.707E-03
 -10.656 -0.748E-03 -0.748E-03
 -10.646 -0.792E-03 -0.792E-03
 -10.636 -0.838E-03 -0.838E-03
 -10.626 -0.885E-03 -0.885E-03
 -10.616 -0.935E-03 -0.935E-03
 -10.606 -0.988E-03 -0.988E-03
 -10.596 -0.104E-02 -0.104E-02
 -10.586 -0.110E-02 -0.110E-02
 -10.576 -0.116E-02 -0.116E-02
 -10.566 -0.122E-02 -0.122E-02
 -10.556 -0.129E-02 -0.129E-02
 -10.546 -0.135E-02 -0.135E-02
 -10.536 -0.142E-02 -0.142E-02
 -10.526 -0.149E-02 -0.149E-02
 -10.516 -0.157E-02 -0.157E-02
 -10.506 -0.165E-02 -0.165E-02
 -10.496 -0.173E-02 -0.173E-02
 -10.486 -0.181E-02 -0.181E-02
 -10.476 -0.190E-02 -0.190E-02
 -10.466 -0.199E-02 -0.199E-02
 -10.456 -0.208E-02 -0.208E-02
 -10.446 -0.218E-02 -0.218E-02
 -10.436 -0.228E-02 -0.228E-02
 -10.426 -0.238E-02 -0.238E-02
 -10.416 -0.248E-02 -0.248E-02
 -10.406 -0.259E-02 -0.259E-02
 -10.396 -0.270E-02 -0.270E-02
 -10.386 -0.282E-02 -0.282E-02
 -10.376 -0.293E-02 -0.293E-02
 -10.366 -0.305E-02 -0.305E-02
 -10.356 -0.318E-02 -0.318E-02
 -10.346 -0.330E-02 -0.330E-02
 -10.336 -0.343E-02 -0.343E-02
 -10.326 -0.356E-02 -0.356E-02
 -10.316 -0.369E-02 -0.369E-02
 -10.306 -0.382E-02 -0.382E-02
 -10.296 -0.396E-02 -0.396E-02
 -10.286 -0.410E-02 -0.410E-02
 -10.276 -0.424E-02 -0.424E-02
 -10.266 -0.438E-02 -0.438E-02
 -10.256 -0.452E-02 -0.452E-02
 -10.246 -0.466E-02 -0.466E-02
 -10.236 -0.481E-02 -0.481E-02
 -10.226 -0.495E-02 -0.495E-02
 -10.216 -0.510E-02 -0.510E-02
 -10.206 -0.524E-02 -0.524E-02
 -10.196 -0.538E-02 -0.538E-02
 -10.186 -0.552E-02 -0.552E-02
 -10.176 -0.566E-02 -0.566E-02
 -10.166 -0.580E-02 -0.580E-02
 -10.156 -0.594E-02 -0.594E-02
 -10.146 -0.607E-02 -0.607E-02
 -10.136 -0.620E-02 -0.620E-02
 -10.126 -0.633E-02 -0.633E-02
 -10.116 -0.645E-02 -0.645E-02
 -10.106 -0.656E-02 -0.656E-02
 -10.096 -0.667E-02 -0.667E-02
 -10.086 -0.678E-02 -0.678E-02
 -10.076 -0.688E-02 -0.688E-02
 -10.066 -0.696E-02 -0.696E-02
 -10.056 -0.705E-02 -0.705E-02
 -10.046 -0.712E-02 -0.712E-02
 -10.036 -0.718E-02 -0.718E-02
 -10.026 -0.723E-02 -0.723E-02
 -10.016 -0.727E-02 -0.727E-02
 -10.006 -0.729E-02 -0.729E-02
  -9.996 -0.730E-02 -0.730E-02
  -9.986 -0.730E-02 -0.730E-02
  -9.976 -0.729E-02 -0.729E-02
  -9.966 -0.725E-02 -0.725E-02
  -9.956 -0.720E-02 -0.720E-02
  -9.946 -0.713E-02 -0.713E-02
  -9.936 -0.704E-02 -0.704E-02
  -9.926 -0.694E-02 -0.694E-02
  -9.916 -0.681E-02 -0.681E-02
  -9.906 -0.665E-02 -0.665E-02
  -9.896 -0.648E-02 -0.648E-02
  -9.886 -0.628E-02 -0.628E-02
  -9.876 -0.605E-02 -0.605E-02
  -9.866 -0.580E-02 -0.580E-02
  -9.856 -0.552E-02 -0.552E-02
  -9.846 -0.522E-02 -0.522E-02
  -9.836 -0.488E-02 -0.488E-02
  -9.826 -0.451E-02 -0.451E-02
  -9.816 -0.411E-02 -0.411E-02
  -9.806 -0.368E-02 -0.368E-02
  -9.796 -0.321E-02 -0.321E-02
  -9.786 -0.271E-02 -0.271E-02
  -9.776 -0.217E-02 -0.217E-02
  -9.766 -0.160E-02 -0.160E-02
  -9.756 -0.985E-03 -0.985E-03
  -9.746 -0.334E-03 -0.334E-03
  -9.736  0.356E-03  0.356E-03
  -9.726  0.109E-02  0.109E-02
  -9.716  0.186E-02  0.186E-02
  -9.706  0.267E-02  0.267E-02
  -9.696  0.353E-02  0.353E-02
  -9.686  0.443E-02  0.443E-02
  -9.676  0.537E-02  0.537E-02
  -9.666  0.636E-02  0.636E-02
  -9.656  0.739E-02  0.739E-02
  -9.646  0.847E-02  0.847E-02
  -9.636  0.960E-02  0.960E-02
  -9.626  0.108E-01  0.108E-01
  -9.616  0.120E-01  0.120E-01
  -9.606  0.132E-01  0.132E-01
  -9.596  0.146E-01  0.146E-01
  -9.586  0.159E-01  0.159E-01
  -9.576  0.173E-01  0.173E-01
  -9.566  0.188E-01  0.188E-01
  -9.556  0.203E-01  0.203E-01
  -9.546  0.218E-01  0.218E-01
  -9.536  0.234E-01  0.234E-01
  -9.526  0.250E-01  0.250E-01
  -9.516  0.267E-01  0.267E-01
  -9.506  0.284E-01  0.284E-01
  -9.496  0.302E-01  0.302E-01
  -9.486  0.320E-01  0.320E-01
  -9.476  0.338E-01  0.338E-01
  -9.466  0.357E-01  0.357E-01
  -9.456  0.377E-01  0.377E-01
  -9.446  0.396E-01  0.396E-01
  -9.436  0.416E-01  0.416E-01
  -9.426  0.437E-01  0.437E-01
  -9.416  0.457E-01  0.457E-01
  -9.406  0.478E-01  0.478E-01
  -9.396  0.500E-01  0.500E-01
  -9.386  0.522E-01  0.522E-01
  -9.376  0.543E-01  0.543E-01
  -9.366  0.566E-01  0.566E-01
  -9.356  0.588E-01  0.588E-01
  -9.346  0.611E-01  0.611E-01
  -9.336  0.634E-01  0.634E-01
  -9.326  0.657E-01  0.657E-01
  -9.316  0.680E-01  0.680E-01
  -9.306  0.704E-01  0.704E-01
  -9.296  0.727E-01  0.727E-01
  -9.286  0.751E-01  0.751E-01
  -9.276  0.775E-01  0.775E-01
  -9.266  0.798E-01  0.798E-01
  -9.256  0.822E-01  0.822E-01
  -9.246  0.846E-01  0.846E-01
  -9.236  0.870E-01  0.870E-01
  -9.226  0.894E-01  0.894E-01
  -9.216  0.918E-01  0.918E-01
  -9.206  0.941E-01  0.941E-01
  -9.196  0.965E-01  0.965E-01
  -9.186  0.988E-01  0.988E-01
  -9.176  0.101E+00  0.101E+00
  -9.166  0.104E+00  0.104E+00
  -9.156  0.106E+00  0.106E+00
  -9.146  0.108E+00  0.108E+00
  -9.136  0.110E+00  0.110E+00
  -9.126  0.113E+00  0.113E+00
  -9.116  0.115E+00  0.115E+00
  -9.106  0.117E+00  0.117E+00
  -9.096  0.119E+00  0.119E+00
  -9.086  0.121E+00  0.121E+00
  -9.076  0.123E+00  0.123E+00
  -9.066  0.125E+00  0.125E+00
  -9.056  0.127E+00  0.127E+00
  -9.046  0.129E+00  0.129E+00
  -9.036  0.131E+00  0.131E+00
  -9.026  0.133E+00  0.133E+00
  -9.016  0.135E+00  0.135E+00
  -9.006  0.137E+00  0.137E+00
  -8.996  0.138E+00  0.138E+00
  -8.986  0.140E+00  0.140E+00
  -8.976  0.142E+00  0.142E+00
  -8.966  0.143E+00  0.143E+00
  -8.956  0.145E+00  0.145E+00
  -8.946  0.146E+00  0.146E+00
  -8.936  0.148E+00  0.148E+00
  -8.926  0.149E+00  0.149E+00
  -8.916  0.151E+00  0.151E+00
  -8.906  0.152E+00  0.152E+00
  -8.896  0.153E+00  0.153E+00
  -8.886  0.154E+00  0.154E+00
  -8.876  0.155E+00  0.155E+00
  -8.866  0.157E+00  0.157E+00
  -8.856  0.158E+00  0.158E+00
  -8.846  0.159E+00  0.159E+00
  -8.836  0.159E+00  0.159E+00
  -8.826  0.160E+00  0.160E+00
  -8.816  0.161E+00  0.161E+00
  -8.806  0.162E+00  0.162E+00
  -8.796  0.163E+00  0.163E+00
  -8.786  0.163E+00  0.163E+00
  -8.776  0.164E+00  0.164E+00
  -8.766  0.164E+00  0.164E+00
  -8.756  0.165E+00  0.165E+00
  -8.746  0.165E+00  0.165E+00
  -8.736  0.166E+00  0.166E+00
  -8.726  0.166E+00  0.166E+00
  -8.716  0.166E+00  0.166E+00
  -8.706  0.167E+00  0.167E+00
  -8.696  0.167E+00  0.167E+00
  -8.686  0.167E+00  0.167E+00
  -8.676  0.167E+00  0.167E+00
  -8.666  0.167E+00  0.167E+00
  -8.656  0.167E+00  0.167E+00
  -8.646  0.167E+00  0.167E+00
  -8.636  0.167E+00  0.167E+00
  -8.626  0.167E+00  0.167E+00
  -8.616  0.167E+00  0.167E+00
  -8.606  0.166E+00  0.166E+00
  -8.596  0.166E+00  0.166E+00
  -8.586  0.166E+00  0.166E+00
  -8.576  0.166E+00  0.166E+00
  -8.566  0.165E+00  0.165E+00
  -8.556  0.165E+00  0.165E+00
  -8.546  0.164E+00  0.164E+00
  -8.536  0.164E+00  0.164E+00
  -8.526  0.163E+00  0.163E+00
  -8.516  0.163E+00  0.163E+00
  -8.506  0.162E+00  0.162E+00
  -8.496  0.162E+00  0.162E+00
  -8.486  0.161E+00  0.161E+00
  -8.476  0.160E+00  0.160E+00
  -8.466  0.160E+00  0.160E+00
  -8.456  0.159E+00  0.159E+00
  -8.446  0.158E+00  0.158E+00
  -8.436  0.157E+00  0.157E+00
  -8.426  0.156E+00  0.156E+00
  -8.416  0.156E+00  0.156E+00
  -8.406  0.155E+00  0.155E+00
  -8.396  0.154E+00  0.154E+00
  -8.386  0.153E+00  0.153E+00
  -8.376  0.152E+00  0.152E+00
  -8.366  0.151E+00  0.151E+00
  -8.356  0.150E+00  0.150E+00
  -8.346  0.149E+00  0.149E+00
  -8.336  0.148E+00  0.148E+00
  -8.326  0.146E+00  0.146E+00
  -8.316  0.145E+00  0.145E+00
  -8.306  0.144E+00  0.144E+00
  -8.296  0.143E+00  0.143E+00
  -8.286  0.142E+00  0.142E+00
  -8.276  0.140E+00  0.140E+00
  -8.266  0.139E+00  0.139E+00
  -8.256  0.138E+00  0.138E+00
  -8.246  0.137E+00  0.137E+00
  -8.236  0.135E+00  0.135E+00
  -8.226  0.134E+00  0.134E+00
  -8.216  0.133E+00  0.133E+00
  -8.206  0.131E+00  0.131E+00
  -8.196  0.130E+00  0.130E+00
  -8.186  0.128E+00  0.128E+00
  -8.176  0.127E+00  0.127E+00
  -8.166  0.125E+00  0.125E+00
  -8.156  0.124E+00  0.124E+00
  -8.146  0.123E+00  0.123E+00
  -8.136  0.121E+00  0.121E+00
  -8.126  0.120E+00  0.120E+00
  -8.116  0.118E+00  0.118E+00
  -8.106  0.117E+00  0.117E+00
  -8.096  0.115E+00  0.115E+00
  -8.086  0.113E+00  0.113E+00
  -8.076  0.112E+00  0.112E+00
  -8.066  0.110E+00  0.110E+00
  -8.056  0.109E+00  0.109E+00
  -8.046  0.107E+00  0.107E+00
  -8.036  0.106E+00  0.106E+00
  -8.026  0.104E+00  0.104E+00
  -8.016  0.103E+00  0.103E+00
  -8.006  0.101E+00  0.101E+00
  -7.996  0.996E-01  0.996E-01
  -7.986  0.981E-01  0.981E-01
  -7.976  0.966E-01  0.966E-01
  -7.966  0.951E-01  0.951E-01
  -7.956  0.936E-01  0.936E-01
  -7.946  0.921E-01  0.921E-01
  -7.936  0.907E-01  0.907E-01
  -7.926  0.892E-01  0.892E-01
  -7.916  0.878E-01  0.878E-01
  -7.906  0.864E-01  0.864E-01
  -7.896  0.850E-01  0.850E-01
  -7.886  0.836E-01  0.836E-01
  -7.876  0.823E-01  0.823E-01
  -7.866  0.810E-01  0.810E-01
  -7.856  0.797E-01  0.797E-01
  -7.846  0.784E-01  0.784E-01
  -7.836  0.772E-01  0.772E-01
  -7.826  0.760E-01  0.760E-01
  -7.816  0.748E-01  0.748E-01
  -7.806  0.737E-01  0.737E-01
  -7.796  0.726E-01  0.726E-01
  -7.786  0.715E-01  0.715E-01
  -7.776  0.705E-01  0.705E-01
  -7.766  0.695E-01  0.695E-01
  -7.756  0.685E-01  0.685E-01
  -7.746  0.676E-01  0.676E-01
  -7.736  0.667E-01  0.667E-01
  -7.726  0.658E-01  0.658E-01
  -7.716  0.650E-01  0.650E-01
  -7.706  0.642E-01  0.642E-01
  -7.696  0.635E-01  0.635E-01
  -7.686  0.628E-01  0.628E-01
  -7.676  0.621E-01  0.621E-01
  -7.666  0.615E-01  0.615E-01
  -7.656  0.609E-01  0.609E-01
  -7.646  0.603E-01  0.603E-01
  -7.636  0.598E-01  0.598E-01
  -7.626  0.593E-01  0.593E-01
  -7.616  0.589E-01  0.589E-01
  -7.606  0.585E-01  0.585E-01
  -7.596  0.581E-01  0.581E-01
  -7.586  0.578E-01  0.578E-01
  -7.576  0.575E-01  0.575E-01
  -7.566  0.572E-01  0.572E-01
  -7.556  0.570E-01  0.570E-01
  -7.546  0.568E-01  0.568E-01
  -7.536  0.566E-01  0.566E-01
  -7.526  0.565E-01  0.565E-01
  -7.516  0.564E-01  0.564E-01
  -7.506  0.563E-01  0.563E-01
  -7.496  0.562E-01  0.562E-01
  -7.486  0.562E-01  0.562E-01
  -7.476  0.562E-01  0.562E-01
  -7.466  0.562E-01  0.562E-01
  -7.456  0.563E-01  0.563E-01
  -7.446  0.563E-01  0.563E-01
  -7.436  0.564E-01  0.564E-01
  -7.426  0.565E-01  0.565E-01
  -7.416  0.566E-01  0.566E-01
  -7.406  0.567E-01  0.567E-01
  -7.396  0.568E-01  0.568E-01
  -7.386  0.569E-01  0.569E-01
  -7.376  0.571E-01  0.571E-01
  -7.366  0.572E-01  0.572E-01
  -7.356  0.574E-01  0.574E-01
  -7.346  0.575E-01  0.575E-01
  -7.336  0.577E-01  0.577E-01
  -7.326  0.578E-01  0.578E-01
  -7.316  0.580E-01  0.580E-01
  -7.306  0.581E-01  0.581E-01
  -7.296  0.583E-01  0.583E-01
  -7.286  0.584E-01  0.584E-01
  -7.276  0.585E-01  0.585E-01
  -7.266  0.586E-01  0.586E-01
  -7.256  0.587E-01  0.587E-01
  -7.246  0.588E-01  0.588E-01
  -7.236  0.589E-01  0.589E-01
  -7.226  0.589E-01  0.589E-01
  -7.216  0.590E-01  0.590E-01
  -7.206  0.590E-01  0.590E-01
  -7.196  0.590E-01  0.590E-01
  -7.186  0.590E-01  0.590E-01
  -7.176  0.589E-01  0.589E-01
  -7.166  0.588E-01  0.588E-01
  -7.156  0.587E-01  0.587E-01
  -7.146  0.586E-01  0.586E-01
  -7.136  0.585E-01  0.585E-01
  -7.126  0.583E-01  0.583E-01
  -7.116  0.581E-01  0.581E-01
  -7.106  0.579E-01  0.579E-01
  -7.096  0.576E-01  0.576E-01
  -7.086  0.573E-01  0.573E-01
  -7.076  0.570E-01  0.570E-01
  -7.066  0.567E-01  0.567E-01
  -7.056  0.563E-01  0.563E-01
  -7.046  0.559E-01  0.559E-01
  -7.036  0.554E-01  0.554E-01
  -7.026  0.550E-01  0.550E-01
  -7.016  0.545E-01  0.545E-01
  -7.006  0.540E-01  0.540E-01
  -6.996  0.534E-01  0.534E-01
  -6.986  0.528E-01  0.528E-01
  -6.976  0.522E-01  0.522E-01
  -6.966  0.516E-01  0.516E-01
  -6.956  0.509E-01  0.509E-01
  -6.946  0.502E-01  0.502E-01
  -6.936  0.495E-01  0.495E-01
  -6.926  0.488E-01  0.488E-01
  -6.916  0.480E-01  0.480E-01
  -6.906  0.473E-01  0.473E-01
  -6.896  0.465E-01  0.465E-01
  -6.886  0.456E-01  0.456E-01
  -6.876  0.448E-01  0.448E-01
  -6.866  0.440E-01  0.440E-01
  -6.856  0.431E-01  0.431E-01
  -6.846  0.422E-01  0.422E-01
  -6.836  0.413E-01  0.413E-01
  -6.826  0.404E-01  0.404E-01
  -6.816  0.395E-01  0.395E-01
  -6.806  0.386E-01  0.386E-01
  -6.796  0.377E-01  0.377E-01
  -6.786  0.368E-01  0.368E-01
  -6.776  0.358E-01  0.358E-01
  -6.766  0.349E-01  0.349E-01
  -6.756  0.340E-01  0.340E-01
  -6.746  0.331E-01  0.331E-01
  -6.736  0.322E-01  0.322E-01
  -6.726  0.313E-01  0.313E-01
  -6.716  0.304E-01  0.304E-01
  -6.706  0.295E-01  0.295E-01
  -6.696  0.286E-01  0.286E-01
  -6.686  0.278E-01  0.278E-01
  -6.676  0.269E-01  0.269E-01
  -6.666  0.261E-01  0.261E-01
  -6.656  0.253E-01  0.253E-01
  -6.646  0.246E-01  0.246E-01
  -6.636  0.238E-01  0.238E-01
  -6.626  0.231E-01  0.231E-01
  -6.616  0.225E-01  0.225E-01
  -6.606  0.218E-01  0.218E-01
  -6.596  0.212E-01  0.212E-01
  -6.586  0.206E-01  0.206E-01
  -6.576  0.201E-01  0.201E-01
  -6.566  0.196E-01  0.196E-01
  -6.556  0.191E-01  0.191E-01
  -6.546  0.187E-01  0.187E-01
  -6.536  0.184E-01  0.184E-01
  -6.526  0.180E-01  0.180E-01
  -6.516  0.178E-01  0.178E-01
  -6.506  0.175E-01  0.175E-01
  -6.496  0.173E-01  0.173E-01
  -6.486  0.172E-01  0.172E-01
  -6.476  0.171E-01  0.171E-01
  -6.466  0.171E-01  0.171E-01
  -6.456  0.172E-01  0.172E-01
  -6.446  0.172E-01  0.172E-01
  -6.436  0.174E-01  0.174E-01
  -6.426  0.176E-01  0.176E-01
  -6.416  0.178E-01  0.178E-01
  -6.406  0.181E-01  0.181E-01
  -6.396  0.185E-01  0.185E-01
  -6.386  0.189E-01  0.189E-01
  -6.376  0.194E-01  0.194E-01
  -6.366  0.200E-01  0.200E-01
  -6.356  0.206E-01  0.206E-01
  -6.346  0.213E-01  0.213E-01
  -6.336  0.220E-01  0.220E-01
  -6.326  0.228E-01  0.228E-01
  -6.316  0.236E-01  0.236E-01
  -6.306  0.245E-01  0.245E-01
  -6.296  0.254E-01  0.254E-01
  -6.286  0.265E-01  0.265E-01
  -6.276  0.275E-01  0.275E-01
  -6.266  0.286E-01  0.286E-01
  -6.256  0.298E-01  0.298E-01
  -6.246  0.310E-01  0.310E-01
  -6.236  0.323E-01  0.323E-01
  -6.226  0.336E-01  0.336E-01
  -6.216  0.350E-01  0.350E-01
  -6.206  0.364E-01  0.364E-01
  -6.196  0.379E-01  0.379E-01
  -6.186  0.394E-01  0.394E-01
  -6.176  0.410E-01  0.410E-01
  -6.166  0.425E-01  0.425E-01
  -6.156  0.442E-01  0.442E-01
  -6.146  0.458E-01  0.458E-01
  -6.136  0.476E-01  0.476E-01
  -6.126  0.493E-01  0.493E-01
  -6.116  0.511E-01  0.511E-01
  -6.106  0.528E-01  0.528E-01
  -6.096  0.547E-01  0.547E-01
  -6.086  0.565E-01  0.565E-01
  -6.076  0.584E-01  0.584E-01
  -6.066  0.603E-01  0.603E-01
  -6.056  0.622E-01  0.622E-01
  -6.046  0.641E-01  0.641E-01
  -6.036  0.660E-01  0.660E-01
  -6.026  0.680E-01  0.680E-01
  -6.016  0.699E-01  0.699E-01
  -6.006  0.719E-01  0.719E-01
  -5.996  0.738E-01  0.738E-01
  -5.986  0.758E-01  0.758E-01
  -5.976  0.777E-01  0.777E-01
  -5.966  0.797E-01  0.797E-01
  -5.956  0.816E-01  0.816E-01
  -5.946  0.836E-01  0.836E-01
  -5.936  0.855E-01  0.855E-01
  -5.926  0.874E-01  0.874E-01
  -5.916  0.893E-01  0.893E-01
  -5.906  0.912E-01  0.912E-01
  -5.896  0.930E-01  0.930E-01
  -5.886  0.949E-01  0.949E-01
  -5.876  0.967E-01  0.967E-01
  -5.866  0.985E-01  0.985E-01
  -5.856  0.100E+00  0.100E+00
  -5.846  0.102E+00  0.102E+00
  -5.836  0.104E+00  0.104E+00
  -5.826  0.105E+00  0.105E+00
  -5.816  0.107E+00  0.107E+00
  -5.806  0.109E+00  0.109E+00
  -5.796  0.110E+00  0.110E+00
  -5.786  0.112E+00  0.112E+00
  -5.776  0.113E+00  0.113E+00
  -5.766  0.115E+00  0.115E+00
  -5.756  0.116E+00  0.116E+00
  -5.746  0.118E+00  0.118E+00
  -5.736  0.119E+00  0.119E+00
  -5.726  0.120E+00  0.120E+00
  -5.716  0.121E+00  0.121E+00
  -5.706  0.123E+00  0.123E+00
  -5.696  0.124E+00  0.124E+00
  -5.686  0.125E+00  0.125E+00
  -5.676  0.126E+00  0.126E+00
  -5.666  0.127E+00  0.127E+00
  -5.656  0.128E+00  0.128E+00
  -5.646  0.129E+00  0.129E+00
  -5.636  0.130E+00  0.130E+00
  -5.626  0.131E+00  0.131E+00
  -5.616  0.132E+00  0.132E+00
  -5.606  0.133E+00  0.133E+00
  -5.596  0.133E+00  0.133E+00
  -5.586  0.134E+00  0.134E+00
  -5.576  0.135E+00  0.135E+00
  -5.566  0.136E+00  0.136E+00
  -5.556  0.136E+00  0.136E+00
  -5.546  0.137E+00  0.137E+00
  -5.536  0.137E+00  0.137E+00
  -5.526  0.138E+00  0.138E+00
  -5.516  0.139E+00  0.139E+00
  -5.506  0.139E+00  0.139E+00
  -5.496  0.139E+00  0.139E+00
  -5.486  0.140E+00  0.140E+00
  -5.476  0.140E+00  0.140E+00
  -5.466  0.141E+00  0.141E+00
  -5.456  0.141E+00  0.141E+00
  -5.446  0.141E+00  0.141E+00
  -5.436  0.142E+00  0.142E+00
  -5.426  0.142E+00  0.142E+00
  -5.416  0.142E+00  0.142E+00
  -5.406  0.143E+00  0.143E+00
  -5.396  0.143E+00  0.143E+00
  -5.386  0.143E+00  0.143E+00
  -5.376  0.143E+00  0.143E+00
  -5.366  0.144E+00  0.144E+00
  -5.356  0.144E+00  0.144E+00
  -5.346  0.144E+00  0.144E+00
  -5.336  0.144E+00  0.144E+00
  -5.326  0.144E+00  0.144E+00
  -5.316  0.145E+00  0.145E+00
  -5.306  0.145E+00  0.145E+00
  -5.296  0.145E+00  0.145E+00
  -5.286  0.145E+00  0.145E+00
  -5.276  0.145E+00  0.145E+00
  -5.266  0.146E+00  0.146E+00
  -5.256  0.146E+00  0.146E+00
  -5.246  0.146E+00  0.146E+00
  -5.236  0.146E+00  0.146E+00
  -5.226  0.146E+00  0.146E+00
  -5.216  0.146E+00  0.146E+00
  -5.206  0.147E+00  0.147E+00
  -5.196  0.147E+00  0.147E+00
  -5.186  0.147E+00  0.147E+00
  -5.176  0.147E+00  0.147E+00
  -5.166  0.147E+00  0.147E+00
  -5.156  0.147E+00  0.147E+00
  -5.146  0.147E+00  0.147E+00
  -5.136  0.148E+00  0.148E+00
  -5.126  0.148E+00  0.148E+00
  -5.116  0.148E+00  0.148E+00
  -5.106  0.148E+00  0.148E+00
  -5.096  0.148E+00  0.148E+00
  -5.086  0.148E+00  0.148E+00
  -5.076  0.148E+00  0.148E+00
  -5.066  0.148E+00  0.148E+00
  -5.056  0.148E+00  0.148E+00
  -5.046  0.149E+00  0.149E+00
  -5.036  0.149E+00  0.149E+00
  -5.026  0.149E+00  0.149E+00
  -5.016  0.149E+00  0.149E+00
  -5.006  0.149E+00  0.149E+00
  -4.996  0.149E+00  0.149E+00
  -4.986  0.149E+00  0.149E+00
  -4.976  0.149E+00  0.149E+00
  -4.966  0.149E+00  0.149E+00
  -4.956  0.149E+00  0.149E+00
  -4.946  0.148E+00  0.148E+00
  -4.936  0.148E+00  0.148E+00
  -4.926  0.148E+00  0.148E+00
  -4.916  0.148E+00  0.148E+00
  -4.906  0.148E+00  0.148E+00
  -4.896  0.148E+00  0.148E+00
  -4.886  0.147E+00  0.147E+00
  -4.876  0.147E+00  0.147E+00
  -4.866  0.147E+00  0.147E+00
  -4.856  0.146E+00  0.146E+00
  -4.846  0.146E+00  0.146E+00
  -4.836  0.146E+00  0.146E+00
  -4.826  0.145E+00  0.145E+00
  -4.816  0.145E+00  0.145E+00
  -4.806  0.144E+00  0.144E+00
  -4.796  0.144E+00  0.144E+00
  -4.786  0.143E+00  0.143E+00
  -4.776  0.142E+00  0.142E+00
  -4.766  0.142E+00  0.142E+00
  -4.756  0.141E+00  0.141E+00
  -4.746  0.140E+00  0.140E+00
  -4.736  0.140E+00  0.140E+00
  -4.726  0.139E+00  0.139E+00
  -4.716  0.138E+00  0.138E+00
  -4.706  0.137E+00  0.137E+00
  -4.696  0.136E+00  0.136E+00
  -4.686  0.135E+00  0.135E+00
  -4.676  0.134E+00  0.134E+00
  -4.666  0.133E+00  0.133E+00
  -4.656  0.132E+00  0.132E+00
  -4.646  0.131E+00  0.131E+00
  -4.636  0.130E+00  0.130E+00
  -4.626  0.129E+00  0.129E+00
  -4.616  0.128E+00  0.128E+00
  -4.606  0.127E+00  0.127E+00
  -4.596  0.125E+00  0.125E+00
  -4.586  0.124E+00  0.124E+00
  -4.576  0.123E+00  0.123E+00
  -4.566  0.122E+00  0.122E+00
  -4.556  0.120E+00  0.120E+00
  -4.546  0.119E+00  0.119E+00
  -4.536  0.118E+00  0.118E+00
  -4.526  0.116E+00  0.116E+00
  -4.516  0.115E+00  0.115E+00
  -4.506  0.113E+00  0.113E+00
  -4.496  0.112E+00  0.112E+00
  -4.486  0.110E+00  0.110E+00
  -4.476  0.109E+00  0.109E+00
  -4.466  0.107E+00  0.107E+00
  -4.456  0.106E+00  0.106E+00
  -4.446  0.104E+00  0.104E+00
  -4.436  0.103E+00  0.103E+00
  -4.426  0.101E+00  0.101E+00
  -4.416  0.100E+00  0.100E+00
  -4.406  0.985E-01  0.985E-01
  -4.396  0.970E-01  0.970E-01
  -4.386  0.955E-01  0.955E-01
  -4.376  0.940E-01  0.940E-01
  -4.366  0.925E-01  0.925E-01
  -4.356  0.910E-01  0.910E-01
  -4.346  0.895E-01  0.895E-01
  -4.336  0.880E-01  0.880E-01
  -4.326  0.865E-01  0.865E-01
  -4.316  0.851E-01  0.851E-01
  -4.306  0.836E-01  0.836E-01
  -4.296  0.822E-01  0.822E-01
  -4.286  0.807E-01  0.807E-01
  -4.276  0.793E-01  0.793E-01
  -4.266  0.780E-01  0.780E-01
  -4.256  0.766E-01  0.766E-01
  -4.246  0.752E-01  0.752E-01
  -4.236  0.739E-01  0.739E-01
  -4.226  0.726E-01  0.726E-01
  -4.216  0.713E-01  0.713E-01
  -4.206  0.701E-01  0.701E-01
  -4.196  0.688E-01  0.688E-01
  -4.186  0.676E-01  0.676E-01
  -4.176  0.664E-01  0.664E-01
  -4.166  0.653E-01  0.653E-01
  -4.156  0.641E-01  0.641E-01
  -4.146  0.630E-01  0.630E-01
  -4.136  0.620E-01  0.620E-01
  -4.126  0.609E-01  0.609E-01
  -4.116  0.599E-01  0.599E-01
  -4.106  0.589E-01  0.589E-01
  -4.096  0.580E-01  0.580E-01
  -4.086  0.570E-01  0.570E-01
  -4.076  0.561E-01  0.561E-01
  -4.066  0.553E-01  0.553E-01
  -4.056  0.544E-01  0.544E-01
  -4.046  0.536E-01  0.536E-01
  -4.036  0.529E-01  0.529E-01
  -4.026  0.521E-01  0.521E-01
  -4.016  0.514E-01  0.514E-01
  -4.006  0.508E-01  0.508E-01
  -3.996  0.501E-01  0.501E-01
  -3.986  0.495E-01  0.495E-01
  -3.976  0.489E-01  0.489E-01
  -3.966  0.484E-01  0.484E-01
  -3.956  0.479E-01  0.479E-01
  -3.946  0.474E-01  0.474E-01
  -3.936  0.470E-01  0.470E-01
  -3.926  0.465E-01  0.465E-01
  -3.916  0.462E-01  0.462E-01
  -3.906  0.458E-01  0.458E-01
  -3.896  0.455E-01  0.455E-01
  -3.886  0.452E-01  0.452E-01
  -3.876  0.449E-01  0.449E-01
  -3.866  0.447E-01  0.447E-01
  -3.856  0.445E-01  0.445E-01
  -3.846  0.443E-01  0.443E-01
  -3.836  0.442E-01  0.442E-01
  -3.826  0.441E-01  0.441E-01
  -3.816  0.440E-01  0.440E-01
  -3.806  0.440E-01  0.440E-01
  -3.796  0.439E-01  0.439E-01
  -3.786  0.439E-01  0.439E-01
  -3.776  0.440E-01  0.440E-01
  -3.766  0.440E-01  0.440E-01
  -3.756  0.441E-01  0.441E-01
  -3.746  0.442E-01  0.442E-01
  -3.736  0.444E-01  0.444E-01
  -3.726  0.445E-01  0.445E-01
  -3.716  0.447E-01  0.447E-01
  -3.706  0.449E-01  0.449E-01
  -3.696  0.452E-01  0.452E-01
  -3.686  0.454E-01  0.454E-01
  -3.676  0.457E-01  0.457E-01
  -3.666  0.460E-01  0.460E-01
  -3.656  0.464E-01  0.464E-01
  -3.646  0.467E-01  0.467E-01
  -3.636  0.471E-01  0.471E-01
  -3.626  0.475E-01  0.475E-01
  -3.616  0.479E-01  0.479E-01
  -3.606  0.484E-01  0.484E-01
  -3.596  0.488E-01  0.488E-01
  -3.586  0.493E-01  0.493E-01
  -3.576  0.498E-01  0.498E-01
  -3.566  0.503E-01  0.503E-01
  -3.556  0.509E-01  0.509E-01
  -3.546  0.514E-01  0.514E-01
  -3.536  0.520E-01  0.520E-01
  -3.526  0.526E-01  0.526E-01
  -3.516  0.532E-01  0.532E-01
  -3.506  0.538E-01  0.538E-01
  -3.496  0.545E-01  0.545E-01
  -3.486  0.551E-01  0.551E-01
  -3.476  0.558E-01  0.558E-01
  -3.466  0.565E-01  0.565E-01
  -3.456  0.572E-01  0.572E-01
  -3.446  0.579E-01  0.579E-01
  -3.436  0.586E-01  0.586E-01
  -3.426  0.593E-01  0.593E-01
  -3.416  0.601E-01  0.601E-01
  -3.406  0.608E-01  0.608E-01
  -3.396  0.616E-01  0.616E-01
  -3.386  0.624E-01  0.624E-01
  -3.376  0.631E-01  0.631E-01
  -3.366  0.639E-01  0.639E-01
  -3.356  0.647E-01  0.647E-01
  -3.346  0.655E-01  0.655E-01
  -3.336  0.663E-01  0.663E-01
  -3.326  0.671E-01  0.671E-01
  -3.316  0.679E-01  0.679E-01
  -3.306  0.687E-01  0.687E-01
  -3.296  0.696E-01  0.696E-01
  -3.286  0.704E-01  0.704E-01
  -3.276  0.712E-01  0.712E-01
  -3.266  0.720E-01  0.720E-01
  -3.256  0.728E-01  0.728E-01
  -3.246  0.736E-01  0.736E-01
  -3.236  0.744E-01  0.744E-01
  -3.226  0.752E-01  0.752E-01
  -3.216  0.760E-01  0.760E-01
  -3.206  0.768E-01  0.768E-01
  -3.196  0.775E-01  0.775E-01
  -3.186  0.783E-01  0.783E-01
  -3.176  0.791E-01  0.791E-01
  -3.166  0.798E-01  0.798E-01
  -3.156  0.806E-01  0.806E-01
  -3.146  0.813E-01  0.813E-01
  -3.136  0.820E-01  0.820E-01
  -3.126  0.827E-01  0.827E-01
  -3.116  0.834E-01  0.834E-01
  -3.106  0.840E-01  0.840E-01
  -3.096  0.847E-01  0.847E-01
  -3.086  0.853E-01  0.853E-01
  -3.076  0.859E-01  0.859E-01
  -3.066  0.865E-01  0.865E-01
  -3.056  0.871E-01  0.871E-01
  -3.046  0.876E-01  0.876E-01
  -3.036  0.882E-01  0.882E-01
  -3.026  0.887E-01  0.887E-01
  -3.016  0.892E-01  0.892E-01
  -3.006  0.896E-01  0.896E-01
  -2.996  0.901E-01  0.901E-01
  -2.986  0.905E-01  0.905E-01
  -2.976  0.909E-01  0.909E-01
  -2.966  0.912E-01  0.912E-01
  -2.956  0.915E-01  0.915E-01
  -2.946  0.919E-01  0.919E-01
  -2.936  0.921E-01  0.921E-01
  -2.926  0.924E-01  0.924E-01
  -2.916  0.926E-01  0.926E-01
  -2.906  0.928E-01  0.928E-01
  -2.896  0.930E-01  0.930E-01
  -2.886  0.931E-01  0.931E-01
  -2.876  0.933E-01  0.933E-01
  -2.866  0.934E-01  0.934E-01
  -2.856  0.934E-01  0.934E-01
  -2.846  0.935E-01  0.935E-01
  -2.836  0.935E-01  0.935E-01
  -2.826  0.934E-01  0.934E-01
  -2.816  0.934E-01  0.934E-01
  -2.806  0.933E-01  0.933E-01
  -2.796  0.932E-01  0.932E-01
  -2.786  0.931E-01  0.931E-01
  -2.776  0.930E-01  0.930E-01
  -2.766  0.928E-01  0.928E-01
  -2.756  0.926E-01  0.926E-01
  -2.746  0.924E-01  0.924E-01
  -2.736  0.922E-01  0.922E-01
  -2.726  0.919E-01  0.919E-01
  -2.716  0.916E-01  0.916E-01
  -2.706  0.913E-01  0.913E-01
  -2.696  0.910E-01  0.910E-01
  -2.686  0.907E-01  0.907E-01
  -2.676  0.904E-01  0.904E-01
  -2.666  0.900E-01  0.900E-01
  -2.656  0.896E-01  0.896E-01
  -2.646  0.892E-01  0.892E-01
  -2.636  0.888E-01  0.888E-01
  -2.626  0.884E-01  0.884E-01
  -2.616  0.880E-01  0.880E-01
  -2.606  0.876E-01  0.876E-01
  -2.596  0.871E-01  0.871E-01
  -2.586  0.867E-01  0.867E-01
  -2.576  0.862E-01  0.862E-01
  -2.566  0.858E-01  0.858E-01
  -2.556  0.853E-01  0.853E-01
  -2.546  0.849E-01  0.849E-01
  -2.536  0.844E-01  0.844E-01
  -2.526  0.839E-01  0.839E-01
  -2.516  0.835E-01  0.835E-01
  -2.506  0.830E-01  0.830E-01
  -2.496  0.826E-01  0.826E-01
  -2.486  0.821E-01  0.821E-01
  -2.476  0.817E-01  0.817E-01
  -2.466  0.812E-01  0.812E-01
  -2.456  0.808E-01  0.808E-01
  -2.446  0.803E-01  0.803E-01
  -2.436  0.799E-01  0.799E-01
  -2.426  0.795E-01  0.795E-01
  -2.416  0.791E-01  0.791E-01
  -2.406  0.787E-01  0.787E-01
  -2.396  0.783E-01  0.783E-01
  -2.386  0.780E-01  0.780E-01
  -2.376  0.776E-01  0.776E-01
  -2.366  0.773E-01  0.773E-01
  -2.356  0.769E-01  0.769E-01
  -2.346  0.766E-01  0.766E-01
  -2.336  0.763E-01  0.763E-01
  -2.326  0.760E-01  0.760E-01
  -2.316  0.757E-01  0.757E-01
  -2.306  0.754E-01  0.754E-01
  -2.296  0.751E-01  0.751E-01
  -2.286  0.749E-01  0.749E-01
  -2.276  0.746E-01  0.746E-01
  -2.266  0.744E-01  0.744E-01
  -2.256  0.742E-01  0.742E-01
  -2.246  0.740E-01  0.740E-01
  -2.236  0.738E-01  0.738E-01
  -2.226  0.736E-01  0.736E-01
  -2.216  0.734E-01  0.734E-01
  -2.206  0.732E-01  0.732E-01
  -2.196  0.731E-01  0.731E-01
  -2.186  0.729E-01  0.729E-01
  -2.176  0.728E-01  0.728E-01
  -2.166  0.726E-01  0.726E-01
  -2.156  0.725E-01  0.725E-01
  -2.146  0.724E-01  0.724E-01
  -2.136  0.722E-01  0.722E-01
  -2.126  0.721E-01  0.721E-01
  -2.116  0.720E-01  0.720E-01
  -2.106  0.718E-01  0.718E-01
  -2.096  0.717E-01  0.717E-01
  -2.086  0.716E-01  0.716E-01
  -2.076  0.714E-01  0.714E-01
  -2.066  0.713E-01  0.713E-01
  -2.056  0.711E-01  0.711E-01
  -2.046  0.710E-01  0.710E-01
  -2.036  0.708E-01  0.708E-01
  -2.026  0.707E-01  0.707E-01
  -2.016  0.705E-01  0.705E-01
  -2.006  0.703E-01  0.703E-01
  -1.996  0.701E-01  0.701E-01
  -1.986  0.699E-01  0.699E-01
  -1.976  0.697E-01  0.697E-01
  -1.966  0.695E-01  0.695E-01
  -1.956  0.693E-01  0.693E-01
  -1.946  0.690E-01  0.690E-01
  -1.936  0.688E-01  0.688E-01
  -1.926  0.685E-01  0.685E-01
  -1.916  0.682E-01  0.682E-01
  -1.906  0.679E-01  0.679E-01
  -1.896  0.676E-01  0.676E-01
  -1.886  0.673E-01  0.673E-01
  -1.876  0.669E-01  0.669E-01
  -1.866  0.665E-01  0.665E-01
  -1.856  0.662E-01  0.662E-01
  -1.846  0.658E-01  0.658E-01
  -1.836  0.654E-01  0.654E-01
  -1.826  0.649E-01  0.649E-01
  -1.816  0.645E-01  0.645E-01
  -1.806  0.640E-01  0.640E-01
  -1.796  0.636E-01  0.636E-01
  -1.786  0.631E-01  0.631E-01
  -1.776  0.626E-01  0.626E-01
  -1.766  0.621E-01  0.621E-01
  -1.756  0.616E-01  0.616E-01
  -1.746  0.611E-01  0.611E-01
  -1.736  0.605E-01  0.605E-01
  -1.726  0.600E-01  0.600E-01
  -1.716  0.594E-01  0.594E-01
  -1.706  0.589E-01  0.589E-01
  -1.696  0.583E-01  0.583E-01
  -1.686  0.578E-01  0.578E-01
  -1.676  0.572E-01  0.572E-01
  -1.666  0.566E-01  0.566E-01
  -1.656  0.560E-01  0.560E-01
  -1.646  0.555E-01  0.555E-01
  -1.636  0.549E-01  0.549E-01
  -1.626  0.543E-01  0.543E-01
  -1.616  0.538E-01  0.538E-01
  -1.606  0.532E-01  0.532E-01
  -1.596  0.527E-01  0.527E-01
  -1.586  0.521E-01  0.521E-01
  -1.576  0.516E-01  0.516E-01
  -1.566  0.511E-01  0.511E-01
  -1.556  0.506E-01  0.506E-01
  -1.546  0.502E-01  0.502E-01
  -1.536  0.497E-01  0.497E-01
  -1.526  0.493E-01  0.493E-01
  -1.516  0.488E-01  0.488E-01
  -1.506  0.484E-01  0.484E-01
  -1.496  0.481E-01  0.481E-01
  -1.486  0.477E-01  0.477E-01
  -1.476  0.474E-01  0.474E-01
  -1.466  0.471E-01  0.471E-01
  -1.456  0.469E-01  0.469E-01
  -1.446  0.466E-01  0.466E-01
  -1.436  0.464E-01  0.464E-01
  -1.426  0.463E-01  0.463E-01
  -1.416  0.462E-01  0.462E-01
  -1.406  0.461E-01  0.461E-01
  -1.396  0.460E-01  0.460E-01
  -1.386  0.460E-01  0.460E-01
  -1.376  0.460E-01  0.460E-01
  -1.366  0.461E-01  0.461E-01
  -1.356  0.462E-01  0.462E-01
  -1.346  0.463E-01  0.463E-01
  -1.336  0.465E-01  0.465E-01
  -1.326  0.467E-01  0.467E-01
  -1.316  0.470E-01  0.470E-01
  -1.306  0.473E-01  0.473E-01
  -1.296  0.477E-01  0.477E-01
  -1.286  0.480E-01  0.480E-01
  -1.276  0.485E-01  0.485E-01
  -1.266  0.489E-01  0.489E-01
  -1.256  0.495E-01  0.495E-01
  -1.246  0.500E-01  0.500E-01
  -1.236  0.506E-01  0.506E-01
  -1.226  0.512E-01  0.512E-01
  -1.216  0.519E-01  0.519E-01
  -1.206  0.526E-01  0.526E-01
  -1.196  0.534E-01  0.534E-01
  -1.186  0.541E-01  0.541E-01
  -1.176  0.549E-01  0.549E-01
  -1.166  0.558E-01  0.558E-01
  -1.156  0.567E-01  0.567E-01
  -1.146  0.576E-01  0.576E-01
  -1.136  0.585E-01  0.585E-01
  -1.126  0.595E-01  0.595E-01
  -1.116  0.604E-01  0.604E-01
  -1.106  0.614E-01  0.614E-01
  -1.096  0.625E-01  0.625E-01
  -1.086  0.635E-01  0.635E-01
  -1.076  0.646E-01  0.646E-01
  -1.066  0.657E-01  0.657E-01
  -1.056  0.667E-01  0.667E-01
  -1.046  0.678E-01  0.678E-01
  -1.036  0.689E-01  0.689E-01
  -1.026  0.700E-01  0.700E-01
  -1.016  0.712E-01  0.712E-01
  -1.006  0.723E-01  0.723E-01
  -0.996  0.734E-01  0.734E-01
  -0.986  0.745E-01  0.745E-01
  -0.976  0.756E-01  0.756E-01
  -0.966  0.767E-01  0.767E-01
  -0.956  0.778E-01  0.778E-01
  -0.946  0.788E-01  0.788E-01
  -0.936  0.799E-01  0.799E-01
  -0.926  0.809E-01  0.809E-01
  -0.916  0.819E-01  0.819E-01
  -0.906  0.829E-01  0.829E-01
  -0.896  0.839E-01  0.839E-01
  -0.886  0.848E-01  0.848E-01
  -0.876  0.857E-01  0.857E-01
  -0.866  0.866E-01  0.866E-01
  -0.856  0.874E-01  0.874E-01
  -0.846  0.882E-01  0.882E-01
  -0.836  0.890E-01  0.890E-01
  -0.826  0.897E-01  0.897E-01
  -0.816  0.904E-01  0.904E-01
  -0.806  0.911E-01  0.911E-01
  -0.796  0.917E-01  0.917E-01
  -0.786  0.922E-01  0.922E-01
  -0.776  0.927E-01  0.927E-01
  -0.766  0.932E-01  0.932E-01
  -0.756  0.936E-01  0.936E-01
  -0.746  0.940E-01  0.940E-01
  -0.736  0.943E-01  0.943E-01
  -0.726  0.946E-01  0.946E-01
  -0.716  0.948E-01  0.948E-01
  -0.706  0.950E-01  0.950E-01
  -0.696  0.951E-01  0.951E-01
  -0.686  0.952E-01  0.952E-01
  -0.676  0.952E-01  0.952E-01
  -0.666  0.951E-01  0.951E-01
  -0.656  0.950E-01  0.950E-01
  -0.646  0.949E-01  0.949E-01
  -0.636  0.947E-01  0.947E-01
  -0.626  0.945E-01  0.945E-01
  -0.616  0.942E-01  0.942E-01
  -0.606  0.938E-01  0.938E-01
  -0.596  0.934E-01  0.934E-01
  -0.586  0.930E-01  0.930E-01
  -0.576  0.925E-01  0.925E-01
  -0.566  0.920E-01  0.920E-01
  -0.556  0.914E-01  0.914E-01
  -0.546  0.908E-01  0.908E-01
  -0.536  0.901E-01  0.901E-01
  -0.526  0.894E-01  0.894E-01
  -0.516  0.887E-01  0.887E-01
  -0.506  0.879E-01  0.879E-01
  -0.496  0.871E-01  0.871E-01
  -0.486  0.863E-01  0.863E-01
  -0.476  0.854E-01  0.854E-01
  -0.466  0.846E-01  0.846E-01
  -0.456  0.836E-01  0.836E-01
  -0.446  0.827E-01  0.827E-01
  -0.436  0.817E-01  0.817E-01
  -0.426  0.807E-01  0.807E-01
  -0.416  0.797E-01  0.797E-01
  -0.406  0.787E-01  0.787E-01
  -0.396  0.777E-01  0.777E-01
  -0.386  0.766E-01  0.766E-01
  -0.376  0.756E-01  0.756E-01
  -0.366  0.745E-01  0.745E-01
  -0.356  0.734E-01  0.734E-01
  -0.346  0.724E-01  0.724E-01
  -0.336  0.713E-01  0.713E-01
  -0.326  0.702E-01  0.702E-01
  -0.316  0.691E-01  0.691E-01
  -0.306  0.681E-01  0.681E-01
  -0.296  0.670E-01  0.670E-01
  -0.286  0.659E-01  0.659E-01
  -0.276  0.649E-01  0.649E-01
  -0.266  0.638E-01  0.638E-01
  -0.256  0.628E-01  0.628E-01
  -0.246  0.618E-01  0.618E-01
  -0.236  0.608E-01  0.608E-01
  -0.226  0.598E-01  0.598E-01
  -0.216  0.589E-01  0.589E-01
  -0.206  0.579E-01  0.579E-01
  -0.196  0.570E-01  0.570E-01
  -0.186  0.561E-01  0.561E-01
  -0.176  0.552E-01  0.552E-01
  -0.166  0.543E-01  0.543E-01
  -0.156  0.535E-01  0.535E-01
  -0.146  0.527E-01  0.527E-01
  -0.136  0.519E-01  0.519E-01
  -0.126  0.512E-01  0.512E-01
  -0.116  0.504E-01  0.504E-01
  -0.106  0.497E-01  0.497E-01
  -0.096  0.491E-01  0.491E-01
  -0.086  0.484E-01  0.484E-01
  -0.076  0.478E-01  0.478E-01
  -0.066  0.472E-01  0.472E-01
  -0.056  0.467E-01  0.467E-01
  -0.046  0.461E-01  0.461E-01
  -0.036  0.456E-01  0.456E-01
  -0.026  0.452E-01  0.452E-01
  -0.016  0.447E-01  0.447E-01
  -0.006  0.443E-01  0.443E-01
   0.004  0.439E-01  0.439E-01
   0.014  0.435E-01  0.435E-01
   0.024  0.432E-01  0.432E-01
   0.034  0.429E-01  0.429E-01
   0.044  0.426E-01  0.426E-01
   0.054  0.423E-01  0.423E-01
   0.064  0.421E-01  0.421E-01
   0.074  0.419E-01  0.419E-01
   0.084  0.417E-01  0.417E-01
   0.094  0.415E-01  0.415E-01
   0.104  0.414E-01  0.414E-01
   0.114  0.413E-01  0.413E-01
   0.124  0.412E-01  0.412E-01
   0.134  0.411E-01  0.411E-01
   0.144  0.410E-01  0.410E-01
   0.154  0.410E-01  0.410E-01
   0.164  0.410E-01  0.410E-01
   0.174  0.409E-01  0.409E-01
   0.184  0.410E-01  0.410E-01
   0.194  0.410E-01  0.410E-01
   0.204  0.410E-01  0.410E-01
   0.214  0.411E-01  0.411E-01
   0.224  0.411E-01  0.411E-01
   0.234  0.412E-01  0.412E-01
   0.244  0.413E-01  0.413E-01
   0.254  0.414E-01  0.414E-01
   0.264  0.415E-01  0.415E-01
   0.274  0.416E-01  0.416E-01
   0.284  0.418E-01  0.418E-01
   0.294  0.419E-01  0.419E-01
   0.304  0.421E-01  0.421E-01
   0.314  0.422E-01  0.422E-01
   0.324  0.424E-01  0.424E-01
   0.334  0.426E-01  0.426E-01
   0.344  0.428E-01  0.428E-01
   0.354  0.429E-01  0.429E-01
   0.364  0.431E-01  0.431E-01
   0.374  0.433E-01  0.433E-01
   0.384  0.435E-01  0.435E-01
   0.394  0.438E-01  0.438E-01
   0.404  0.440E-01  0.440E-01
   0.414  0.442E-01  0.442E-01
   0.424  0.444E-01  0.444E-01
   0.434  0.447E-01  0.447E-01
   0.444  0.449E-01  0.449E-01
   0.454  0.452E-01  0.452E-01
   0.464  0.454E-01  0.454E-01
   0.474  0.457E-01  0.457E-01
   0.484  0.460E-01  0.460E-01
   0.494  0.462E-01  0.462E-01
   0.504  0.465E-01  0.465E-01
   0.514  0.468E-01  0.468E-01
   0.524  0.471E-01  0.471E-01
   0.534  0.474E-01  0.474E-01
   0.544  0.477E-01  0.477E-01
   0.554  0.480E-01  0.480E-01
   0.564  0.484E-01  0.484E-01
   0.574  0.487E-01  0.487E-01
   0.584  0.491E-01  0.491E-01
   0.594  0.494E-01  0.494E-01
   0.604  0.498E-01  0.498E-01
   0.614  0.502E-01  0.502E-01
   0.624  0.506E-01  0.506E-01
   0.634  0.510E-01  0.510E-01
   0.644  0.514E-01  0.514E-01
   0.654  0.518E-01  0.518E-01
   0.664  0.523E-01  0.523E-01
   0.674  0.528E-01  0.528E-01
   0.684  0.532E-01  0.532E-01
   0.694  0.537E-01  0.537E-01
   0.704  0.543E-01  0.543E-01
   0.714  0.548E-01  0.548E-01
   0.724  0.554E-01  0.554E-01
   0.734  0.559E-01  0.559E-01
   0.744  0.565E-01  0.565E-01
   0.754  0.572E-01  0.572E-01
   0.764  0.578E-01  0.578E-01
   0.774  0.585E-01  0.585E-01
   0.784  0.592E-01  0.592E-01
   0.794  0.599E-01  0.599E-01
   0.804  0.606E-01  0.606E-01
   0.814  0.614E-01  0.614E-01
   0.824  0.622E-01  0.622E-01
   0.834  0.630E-01  0.630E-01
   0.844  0.639E-01  0.639E-01
   0.854  0.648E-01  0.648E-01
   0.864  0.657E-01  0.657E-01
   0.874  0.667E-01  0.667E-01
   0.884  0.677E-01  0.677E-01
   0.894  0.687E-01  0.687E-01
   0.904  0.698E-01  0.698E-01
   0.914  0.709E-01  0.709E-01
   0.924  0.720E-01  0.720E-01
   0.934  0.732E-01  0.732E-01
   0.944  0.744E-01  0.744E-01
   0.954  0.756E-01  0.756E-01
   0.964  0.769E-01  0.769E-01
   0.974  0.783E-01  0.783E-01
   0.984  0.796E-01  0.796E-01
   0.994  0.811E-01  0.811E-01
   1.004  0.825E-01  0.825E-01
   1.014  0.840E-01  0.840E-01
   1.024  0.856E-01  0.856E-01
   1.034  0.872E-01  0.872E-01
   1.044  0.888E-01  0.888E-01
   1.054  0.905E-01  0.905E-01
   1.064  0.922E-01  0.922E-01
   1.074  0.940E-01  0.940E-01
   1.084  0.958E-01  0.958E-01
   1.094  0.976E-01  0.976E-01
   1.104  0.995E-01  0.995E-01
   1.114  0.101E+00  0.101E+00
   1.124  0.103E+00  0.103E+00
   1.134  0.106E+00  0.106E+00
   1.144  0.108E+00  0.108E+00
   1.154  0.110E+00  0.110E+00
   1.164  0.112E+00  0.112E+00
   1.174  0.114E+00  0.114E+00
   1.184  0.116E+00  0.116E+00
   1.194  0.119E+00  0.119E+00
   1.204  0.121E+00  0.121E+00
   1.214  0.123E+00  0.123E+00
   1.224  0.126E+00  0.126E+00
   1.234  0.128E+00  0.128E+00
   1.244  0.131E+00  0.131E+00
   1.254  0.133E+00  0.133E+00
   1.264  0.136E+00  0.136E+00
   1.274  0.138E+00  0.138E+00
   1.284  0.141E+00  0.141E+00
   1.294  0.143E+00  0.143E+00
   1.304  0.146E+00  0.146E+00
   1.314  0.149E+00  0.149E+00
   1.324  0.151E+00  0.151E+00
   1.334  0.154E+00  0.154E+00
   1.344  0.157E+00  0.157E+00
   1.354  0.159E+00  0.159E+00
   1.364  0.162E+00  0.162E+00
   1.374  0.165E+00  0.165E+00
   1.384  0.167E+00  0.167E+00
   1.394  0.170E+00  0.170E+00
   1.404  0.173E+00  0.173E+00
   1.414  0.175E+00  0.175E+00
   1.424  0.178E+00  0.178E+00
   1.434  0.181E+00  0.181E+00
   1.444  0.183E+00  0.183E+00
   1.454  0.186E+00  0.186E+00
   1.464  0.189E+00  0.189E+00
   1.474  0.191E+00  0.191E+00
   1.484  0.194E+00  0.194E+00
   1.494  0.196E+00  0.196E+00
   1.504  0.199E+00  0.199E+00
   1.514  0.201E+00  0.201E+00
   1.524  0.203E+00  0.203E+00
   1.534  0.206E+00  0.206E+00
   1.544  0.208E+00  0.208E+00
   1.554  0.210E+00  0.210E+00
   1.564  0.212E+00  0.212E+00
   1.574  0.214E+00  0.214E+00
   1.584  0.216E+00  0.216E+00
   1.594  0.218E+00  0.218E+00
   1.604  0.220E+00  0.220E+00
   1.614  0.221E+00  0.221E+00
   1.624  0.223E+00  0.223E+00
   1.634  0.225E+00  0.225E+00
   1.644  0.226E+00  0.226E+00
   1.654  0.227E+00  0.227E+00
   1.664  0.229E+00  0.229E+00
   1.674  0.230E+00  0.230E+00
   1.684  0.231E+00  0.231E+00
   1.694  0.232E+00  0.232E+00
   1.704  0.233E+00  0.233E+00
   1.714  0.234E+00  0.234E+00
   1.724  0.234E+00  0.234E+00
   1.734  0.235E+00  0.235E+00
   1.744  0.235E+00  0.235E+00
   1.754  0.235E+00  0.235E+00
   1.764  0.236E+00  0.236E+00
   1.774  0.236E+00  0.236E+00
   1.784  0.236E+00  0.236E+00
   1.794  0.235E+00  0.235E+00
   1.804  0.235E+00  0.235E+00
   1.814  0.235E+00  0.235E+00
   1.824  0.234E+00  0.234E+00
   1.834  0.234E+00  0.234E+00
   1.844  0.233E+00  0.233E+00
   1.854  0.232E+00  0.232E+00
   1.864  0.231E+00  0.231E+00
   1.874  0.230E+00  0.230E+00
   1.884  0.229E+00  0.229E+00
   1.894  0.228E+00  0.228E+00
   1.904  0.226E+00  0.226E+00
   1.914  0.225E+00  0.225E+00
   1.924  0.223E+00  0.223E+00
   1.934  0.222E+00  0.222E+00
   1.944  0.220E+00  0.220E+00
   1.954  0.218E+00  0.218E+00
   1.964  0.216E+00  0.216E+00
   1.974  0.214E+00  0.214E+00
   1.984  0.212E+00  0.212E+00
   1.994  0.210E+00  0.210E+00
   2.004  0.207E+00  0.207E+00
   2.014  0.205E+00  0.205E+00
   2.024  0.203E+00  0.203E+00
   2.034  0.200E+00  0.200E+00
   2.044  0.198E+00  0.198E+00
   2.054  0.195E+00  0.195E+00
   2.064  0.192E+00  0.192E+00
   2.074  0.190E+00  0.190E+00
   2.084  0.187E+00  0.187E+00
   2.094  0.184E+00  0.184E+00
   2.104  0.182E+00  0.182E+00
   2.114  0.179E+00  0.179E+00
   2.124  0.176E+00  0.176E+00
   2.134  0.173E+00  0.173E+00
   2.144  0.170E+00  0.170E+00
   2.154  0.168E+00  0.168E+00
   2.164  0.165E+00  0.165E+00
   2.174  0.162E+00  0.162E+00
   2.184  0.159E+00  0.159E+00
   2.194  0.156E+00  0.156E+00
   2.204  0.154E+00  0.154E+00
   2.214  0.151E+00  0.151E+00
   2.224  0.148E+00  0.148E+00
   2.234  0.145E+00  0.145E+00
   2.244  0.143E+00  0.143E+00
   2.254  0.140E+00  0.140E+00
   2.264  0.138E+00  0.138E+00
   2.274  0.135E+00  0.135E+00
   2.284  0.133E+00  0.133E+00
   2.294  0.130E+00  0.130E+00
   2.304  0.128E+00  0.128E+00
   2.314  0.125E+00  0.125E+00
   2.324  0.123E+00  0.123E+00
   2.334  0.121E+00  0.121E+00
   2.344  0.119E+00  0.119E+00
   2.354  0.117E+00  0.117E+00
   2.364  0.115E+00  0.115E+00
   2.374  0.113E+00  0.113E+00
   2.384  0.111E+00  0.111E+00
   2.394  0.109E+00  0.109E+00
   2.404  0.107E+00  0.107E+00
   2.414  0.106E+00  0.106E+00
   2.424  0.104E+00  0.104E+00
   2.434  0.103E+00  0.103E+00
   2.444  0.101E+00  0.101E+00
   2.454  0.998E-01  0.998E-01
   2.464  0.986E-01  0.986E-01
   2.474  0.974E-01  0.974E-01
   2.484  0.963E-01  0.963E-01
   2.494  0.952E-01  0.952E-01
   2.504  0.942E-01  0.942E-01
   2.514  0.933E-01  0.933E-01
   2.524  0.925E-01  0.925E-01
   2.534  0.917E-01  0.917E-01
   2.544  0.910E-01  0.910E-01
   2.554  0.904E-01  0.904E-01
   2.564  0.898E-01  0.898E-01
   2.574  0.893E-01  0.893E-01
   2.584  0.889E-01  0.889E-01
   2.594  0.885E-01  0.885E-01
   2.604  0.881E-01  0.881E-01
   2.614  0.878E-01  0.878E-01
   2.624  0.876E-01  0.876E-01
   2.634  0.874E-01  0.874E-01
   2.644  0.873E-01  0.873E-01
   2.654  0.871E-01  0.871E-01
   2.664  0.871E-01  0.871E-01
   2.674  0.870E-01  0.870E-01
   2.684  0.870E-01  0.870E-01
   2.694  0.871E-01  0.871E-01
   2.704  0.871E-01  0.871E-01
   2.714  0.872E-01  0.872E-01
   2.724  0.873E-01  0.873E-01
   2.734  0.874E-01  0.874E-01
   2.744  0.875E-01  0.875E-01
   2.754  0.876E-01  0.876E-01
   2.764  0.878E-01  0.878E-01
   2.774  0.879E-01  0.879E-01
   2.784  0.881E-01  0.881E-01
   2.794  0.882E-01  0.882E-01
   2.804  0.884E-01  0.884E-01
   2.814  0.885E-01  0.885E-01
   2.824  0.886E-01  0.886E-01
   2.834  0.888E-01  0.888E-01
   2.844  0.889E-01  0.889E-01
   2.854  0.890E-01  0.890E-01
   2.864  0.890E-01  0.890E-01
   2.874  0.891E-01  0.891E-01
   2.884  0.891E-01  0.891E-01
   2.894  0.891E-01  0.891E-01
   2.904  0.891E-01  0.891E-01
   2.914  0.890E-01  0.890E-01
   2.924  0.889E-01  0.889E-01
   2.934  0.888E-01  0.888E-01
   2.944  0.887E-01  0.887E-01
   2.954  0.885E-01  0.885E-01
   2.964  0.883E-01  0.883E-01
   2.974  0.880E-01  0.880E-01
   2.984  0.877E-01  0.877E-01
   2.994  0.874E-01  0.874E-01
   3.004  0.870E-01  0.870E-01
   3.014  0.866E-01  0.866E-01
   3.024  0.862E-01  0.862E-01
   3.034  0.857E-01  0.857E-01
   3.044  0.852E-01  0.852E-01
   3.054  0.846E-01  0.846E-01
   3.064  0.840E-01  0.840E-01
   3.074  0.833E-01  0.833E-01
   3.084  0.827E-01  0.827E-01
   3.094  0.819E-01  0.819E-01
   3.104  0.812E-01  0.812E-01
   3.114  0.804E-01  0.804E-01
   3.124  0.795E-01  0.795E-01
   3.134  0.786E-01  0.786E-01
   3.144  0.777E-01  0.777E-01
   3.154  0.768E-01  0.768E-01
   3.164  0.758E-01  0.758E-01
   3.174  0.748E-01  0.748E-01
   3.184  0.737E-01  0.737E-01
   3.194  0.726E-01  0.726E-01
   3.204  0.715E-01  0.715E-01
   3.214  0.704E-01  0.704E-01
   3.224  0.692E-01  0.692E-01
   3.234  0.680E-01  0.680E-01
   3.244  0.668E-01  0.668E-01
   3.254  0.656E-01  0.656E-01
   3.264  0.643E-01  0.643E-01
   3.274  0.630E-01  0.630E-01
   3.284  0.617E-01  0.617E-01
   3.294  0.604E-01  0.604E-01
   3.304  0.591E-01  0.591E-01
   3.314  0.577E-01  0.577E-01
   3.324  0.564E-01  0.564E-01
   3.334  0.550E-01  0.550E-01
   3.344  0.536E-01  0.536E-01
   3.354  0.522E-01  0.522E-01
   3.364  0.509E-01  0.509E-01
   3.374  0.495E-01  0.495E-01
   3.384  0.481E-01  0.481E-01
   3.394  0.467E-01  0.467E-01
   3.404  0.453E-01  0.453E-01
   3.414  0.439E-01  0.439E-01
   3.424  0.425E-01  0.425E-01
   3.434  0.412E-01  0.412E-01
   3.444  0.398E-01  0.398E-01
   3.454  0.384E-01  0.384E-01
   3.464  0.371E-01  0.371E-01
   3.474  0.357E-01  0.357E-01
   3.484  0.344E-01  0.344E-01
   3.494  0.331E-01  0.331E-01
   3.504  0.318E-01  0.318E-01
   3.514  0.305E-01  0.305E-01
   3.524  0.292E-01  0.292E-01
   3.534  0.280E-01  0.280E-01
   3.544  0.268E-01  0.268E-01
   3.554  0.256E-01  0.256E-01
   3.564  0.244E-01  0.244E-01
   3.574  0.232E-01  0.232E-01
   3.584  0.220E-01  0.220E-01
   3.594  0.209E-01  0.209E-01
   3.604  0.198E-01  0.198E-01
   3.614  0.187E-01  0.187E-01
   3.624  0.177E-01  0.177E-01
   3.634  0.167E-01  0.167E-01
   3.644  0.157E-01  0.157E-01
   3.654  0.147E-01  0.147E-01
   3.664  0.138E-01  0.138E-01
   3.674  0.128E-01  0.128E-01
   3.684  0.119E-01  0.119E-01
   3.694  0.111E-01  0.111E-01
   3.704  0.102E-01  0.102E-01
   3.714  0.942E-02  0.942E-02
   3.724  0.863E-02  0.863E-02
   3.734  0.787E-02  0.787E-02
   3.744  0.714E-02  0.714E-02
   3.754  0.644E-02  0.644E-02
   3.764  0.576E-02  0.576E-02
   3.774  0.511E-02  0.511E-02
   3.784  0.448E-02  0.448E-02
   3.794  0.388E-02  0.388E-02
   3.804  0.331E-02  0.331E-02
   3.814  0.276E-02  0.276E-02
   3.824  0.224E-02  0.224E-02
   3.834  0.174E-02  0.174E-02
   3.844  0.127E-02  0.127E-02
   3.854  0.817E-03  0.817E-03
   3.864  0.392E-03  0.392E-03
   3.874 -0.111E-04 -0.111E-04
   3.884 -0.391E-03 -0.391E-03
   3.894 -0.749E-03 -0.749E-03
   3.904 -0.109E-02 -0.109E-02
   3.914 -0.140E-02 -0.140E-02
   3.924 -0.170E-02 -0.170E-02
   3.934 -0.197E-02 -0.197E-02
   3.944 -0.223E-02 -0.223E-02
   3.954 -0.247E-02 -0.247E-02
   3.964 -0.268E-02 -0.268E-02
   3.974 -0.289E-02 -0.289E-02
   3.984 -0.307E-02 -0.307E-02
   3.994 -0.324E-02 -0.324E-02
   4.004 -0.339E-02 -0.339E-02
   4.014 -0.353E-02 -0.353E-02
   4.024 -0.365E-02 -0.365E-02
   4.034 -0.376E-02 -0.376E-02
   4.044 -0.385E-02 -0.385E-02
   4.054 -0.394E-02 -0.394E-02
   4.064 -0.401E-02 -0.401E-02
   4.074 -0.407E-02 -0.407E-02
   4.084 -0.411E-02 -0.411E-02
   4.094 -0.415E-02 -0.415E-02
   4.104 -0.418E-02 -0.418E-02
   4.114 -0.419E-02 -0.419E-02
   4.124 -0.420E-02 -0.420E-02
   4.134 -0.420E-02 -0.420E-02
   4.144 -0.419E-02 -0.419E-02
   4.154 -0.418E-02 -0.418E-02
   4.164 -0.416E-02 -0.416E-02
   4.174 -0.413E-02 -0.413E-02
   4.184 -0.409E-02 -0.409E-02
   4.194 -0.405E-02 -0.405E-02
   4.204 -0.401E-02 -0.401E-02
   4.214 -0.396E-02 -0.396E-02
   4.224 -0.390E-02 -0.390E-02
   4.234 -0.385E-02 -0.385E-02
   4.244 -0.378E-02 -0.378E-02
   4.254 -0.372E-02 -0.372E-02
   4.264 -0.365E-02 -0.365E-02
   4.274 -0.358E-02 -0.358E-02
   4.284 -0.351E-02 -0.351E-02
   4.294 -0.343E-02 -0.343E-02
   4.304 -0.336E-02 -0.336E-02
   4.314 -0.328E-02 -0.328E-02
   4.324 -0.320E-02 -0.320E-02
   4.334 -0.312E-02 -0.312E-02
   4.344 -0.304E-02 -0.304E-02
   4.354 -0.296E-02 -0.296E-02
   4.364 -0.288E-02 -0.288E-02
   4.374 -0.279E-02 -0.279E-02
   4.384 -0.271E-02 -0.271E-02
   4.394 -0.263E-02 -0.263E-02
   4.404 -0.255E-02 -0.255E-02
   4.414 -0.247E-02 -0.247E-02
   4.424 -0.239E-02 -0.239E-02
   4.434 -0.231E-02 -0.231E-02
   4.444 -0.224E-02 -0.224E-02
   4.454 -0.216E-02 -0.216E-02
   4.464 -0.208E-02 -0.208E-02
   4.474 -0.201E-02 -0.201E-02
   4.484 -0.194E-02 -0.194E-02
   4.494 -0.186E-02 -0.186E-02
   4.504 -0.179E-02 -0.179E-02
   4.514 -0.173E-02 -0.173E-02
   4.524 -0.166E-02 -0.166E-02
   4.534 -0.159E-02 -0.159E-02
   4.544 -0.153E-02 -0.153E-02
   4.554 -0.147E-02 -0.147E-02
   4.564 -0.141E-02 -0.141E-02
   4.574 -0.135E-02 -0.135E-02
   4.584 -0.129E-02 -0.129E-02
   4.594 -0.124E-02 -0.124E-02
   4.604 -0.118E-02 -0.118E-02
   4.614 -0.113E-02 -0.113E-02
   4.624 -0.108E-02 -0.108E-02
   4.634 -0.103E-02 -0.103E-02
   4.644 -0.982E-03 -0.982E-03
   4.654 -0.937E-03 -0.937E-03
   4.664 -0.893E-03 -0.893E-03
   4.674 -0.850E-03 -0.850E-03
   4.684 -0.809E-03 -0.809E-03
   4.694 -0.770E-03 -0.770E-03
   4.704 -0.732E-03 -0.732E-03
   4.714 -0.696E-03 -0.696E-03
   4.724 -0.661E-03 -0.661E-03
   4.734 -0.627E-03 -0.627E-03
   4.744 -0.595E-03 -0.595E-03
   4.754 -0.564E-03 -0.564E-03
   4.764 -0.535E-03 -0.535E-03
   4.774 -0.506E-03 -0.506E-03
   4.784 -0.479E-03 -0.479E-03
   4.794 -0.453E-03 -0.453E-03
   4.804 -0.429E-03 -0.429E-03
   4.814 -0.405E-03 -0.405E-03
   4.824 -0.383E-03 -0.383E-03
   4.834 -0.361E-03 -0.361E-03
   4.844 -0.341E-03 -0.341E-03
   4.854 -0.322E-03 -0.322E-03
   4.864 -0.303E-03 -0.303E-03
   4.874 -0.286E-03 -0.286E-03
   4.884 -0.269E-03 -0.269E-03
   4.894 -0.253E-03 -0.253E-03
   4.904 -0.238E-03 -0.238E-03
   4.914 -0.224E-03 -0.224E-03
   4.924 -0.210E-03 -0.210E-03
   4.934 -0.197E-03 -0.197E-03
   4.944 -0.185E-03 -0.185E-03
   4.954 -0.174E-03 -0.174E-03
   4.964 -0.163E-03 -0.163E-03
   4.974 -0.153E-03 -0.153E-03
   4.984 -0.143E-03 -0.143E-03
   4.994 -0.134E-03 -0.134E-03
   5.004 -0.126E-03 -0.126E-03
   5.014 -0.117E-03 -0.117E-03
   5.024 -0.110E-03 -0.110E-03
   5.034 -0.103E-03 -0.103E-03
   5.044 -0.958E-04 -0.958E-04
   5.054 -0.894E-04 -0.894E-04
   5.064 -0.834E-04 -0.834E-04
   5.074 -0.778E-04 -0.778E-04
   5.084 -0.725E-04 -0.725E-04
   5.094 -0.676E-04 -0.676E-04
   5.104 -0.629E-04 -0.629E-04
   5.114 -0.586E-04 -0.586E-04
   5.124 -0.545E-04 -0.545E-04
   5.134 -0.507E-04 -0.507E-04
   5.144 -0.471E-04 -0.471E-04
   5.154 -0.438E-04 -0.438E-04
   5.164 -0.406E-04 -0.406E-04
   5.174 -0.377E-04 -0.377E-04
   5.184 -0.350E-04 -0.350E-04
   5.194 -0.324E-04 -0.324E-04
   5.204 -0.301E-04 -0.301E-04
   5.214 -0.278E-04 -0.278E-04
   5.224 -0.258E-04 -0.258E-04
   5.234 -0.239E-04 -0.239E-04
   5.244 -0.221E-04 -0.221E-04
   5.254 -0.204E-04 -0.204E-04
   5.264 -0.188E-04 -0.188E-04
   5.274 -0.174E-04 -0.174E-04
   5.284 -0.161E-04 -0.161E-04
   5.294 -0.148E-04 -0.148E-04
