# E (eV)   ldos(E)   pdos(E)   
 -27.116 -0.323E-07 -0.323E-07
 -27.106 -0.348E-07 -0.348E-07
 -27.096 -0.376E-07 -0.376E-07
 -27.086 -0.405E-07 -0.405E-07
 -27.076 -0.437E-07 -0.437E-07
 -27.066 -0.470E-07 -0.470E-07
 -27.056 -0.506E-07 -0.506E-07
 -27.046 -0.544E-07 -0.544E-07
 -27.036 -0.585E-07 -0.585E-07
 -27.026 -0.629E-07 -0.629E-07
 -27.016 -0.676E-07 -0.676E-07
 -27.006 -0.725E-07 -0.725E-07
 -26.996 -0.778E-07 -0.778E-07
 -26.986 -0.835E-07 -0.835E-07
 -26.976 -0.895E-07 -0.895E-07
 -26.966 -0.959E-07 -0.959E-07
 -26.956 -0.103E-06 -0.103E-06
 -26.946 -0.110E-06 -0.110E-06
 -26.936 -0.117E-06 -0.117E-06
 -26.926 -0.126E-06 -0.126E-06
 -26.916 -0.134E-06 -0.134E-06
 -26.906 -0.143E-06 -0.143E-06
 -26.896 -0.153E-06 -0.153E-06
 -26.886 -0.163E-06 -0.163E-06
 -26.876 -0.174E-06 -0.174E-06
 -26.866 -0.185E-06 -0.185E-06
 -26.856 -0.197E-06 -0.197E-06
 -26.846 -0.210E-06 -0.210E-06
 -26.836 -0.223E-06 -0.223E-06
 -26.826 -0.237E-06 -0.237E-06
 -26.816 -0.252E-06 -0.252E-06
 -26.806 -0.268E-06 -0.268E-06
 -26.796 -0.284E-06 -0.284E-06
 -26.786 -0.302E-06 -0.302E-06
 -26.776 -0.320E-06 -0.320E-06
 -26.766 -0.339E-06 -0.339E-06
 -26.756 -0.359E-06 -0.359E-06
 -26.746 -0.379E-06 -0.379E-06
 -26.736 -0.401E-06 -0.401E-06
 -26.726 -0.424E-06 -0.424E-06
 -26.716 -0.448E-06 -0.448E-06
 -26.706 -0.473E-06 -0.473E-06
 -26.696 -0.499E-06 -0.499E-06
 -26.686 -0.526E-06 -0.526E-06
 -26.676 -0.554E-06 -0.554E-06
 -26.666 -0.584E-06 -0.584E-06
 -26.656 -0.615E-06 -0.615E-06
 -26.646 -0.646E-06 -0.646E-06
 -26.636 -0.679E-06 -0.679E-06
 -26.626 -0.714E-06 -0.714E-06
 -26.616 -0.749E-06 -0.749E-06
 -26.606 -0.786E-06 -0.786E-06
 -26.596 -0.824E-06 -0.824E-06
 -26.586 -0.863E-06 -0.863E-06
 -26.576 -0.904E-06 -0.904E-06
 -26.566 -0.946E-06 -0.946E-06
 -26.556 -0.989E-06 -0.989E-06
 -26.546 -0.103E-05 -0.103E-05
 -26.536 -0.108E-05 -0.108E-05
 -26.526 -0.113E-05 -0.113E-05
 -26.516 -0.117E-05 -0.117E-05
 -26.506 -0.122E-05 -0.122E-05
 -26.496 -0.127E-05 -0.127E-05
 -26.486 -0.132E-05 -0.132E-05
 -26.476 -0.138E-05 -0.138E-05
 -26.466 -0.143E-05 -0.143E-05
 -26.456 -0.148E-05 -0.148E-05
 -26.446 -0.154E-05 -0.154E-05
 -26.436 -0.160E-05 -0.160E-05
 -26.426 -0.165E-05 -0.165E-05
 -26.416 -0.171E-05 -0.171E-05
 -26.406 -0.177E-05 -0.177E-05
 -26.396 -0.183E-05 -0.183E-05
 -26.386 -0.188E-05 -0.188E-05
 -26.376 -0.194E-05 -0.194E-05
 -26.366 -0.200E-05 -0.200E-05
 -26.356 -0.206E-05 -0.206E-05
 -26.346 -0.212E-05 -0.212E-05
 -26.336 -0.218E-05 -0.218E-05
 -26.326 -0.223E-05 -0.223E-05
 -26.316 -0.229E-05 -0.229E-05
 -26.306 -0.234E-05 -0.234E-05
 -26.296 -0.240E-05 -0.240E-05
 -26.286 -0.245E-05 -0.245E-05
 -26.276 -0.250E-05 -0.250E-05
 -26.266 -0.255E-05 -0.255E-05
 -26.256 -0.259E-05 -0.259E-05
 -26.246 -0.264E-05 -0.264E-05
 -26.236 -0.268E-05 -0.268E-05
 -26.226 -0.272E-05 -0.272E-05
 -26.216 -0.275E-05 -0.275E-05
 -26.206 -0.278E-05 -0.278E-05
 -26.196 -0.281E-05 -0.281E-05
 -26.186 -0.283E-05 -0.283E-05
 -26.176 -0.285E-05 -0.285E-05
 -26.166 -0.286E-05 -0.286E-05
 -26.156 -0.286E-05 -0.286E-05
 -26.146 -0.286E-05 -0.286E-05
 -26.136 -0.286E-05 -0.286E-05
 -26.126 -0.284E-05 -0.284E-05
 -26.116 -0.282E-05 -0.282E-05
 -26.106 -0.280E-05 -0.280E-05
 -26.096 -0.276E-05 -0.276E-05
 -26.086 -0.272E-05 -0.272E-05
 -26.076 -0.266E-05 -0.266E-05
 -26.066 -0.260E-05 -0.260E-05
 -26.056 -0.253E-05 -0.253E-05
 -26.046 -0.244E-05 -0.244E-05
 -26.036 -0.235E-05 -0.235E-05
 -26.026 -0.224E-05 -0.224E-05
 -26.016 -0.213E-05 -0.213E-05
 -26.006 -0.200E-05 -0.200E-05
 -25.996 -0.186E-05 -0.186E-05
 -25.986 -0.170E-05 -0.170E-05
 -25.976 -0.153E-05 -0.153E-05
 -25.966 -0.135E-05 -0.135E-05
 -25.956 -0.115E-05 -0.115E-05
 -25.946 -0.942E-06 -0.942E-06
 -25.936 -0.714E-06 -0.714E-06
 -25.926 -0.471E-06 -0.471E-06
 -25.916 -0.212E-06 -0.212E-06
 -25.906  0.641E-07  0.641E-07
 -25.896  0.357E-06  0.357E-06
 -25.886  0.667E-06  0.667E-06
 -25.876  0.994E-06  0.994E-06
 -25.866  0.134E-05  0.134E-05
 -25.856  0.170E-05  0.170E-05
 -25.846  0.209E-05  0.209E-05
 -25.836  0.249E-05  0.249E-05
 -25.826  0.291E-05  0.291E-05
 -25.816  0.334E-05  0.334E-05
 -25.806  0.380E-05  0.380E-05
 -25.796  0.428E-05  0.428E-05
 -25.786  0.478E-05  0.478E-05
 -25.776  0.529E-05  0.529E-05
 -25.766  0.583E-05  0.583E-05
 -25.756  0.638E-05  0.638E-05
 -25.746  0.696E-05  0.696E-05
 -25.736  0.755E-05  0.755E-05
 -25.726  0.817E-05  0.817E-05
 -25.716  0.880E-05  0.880E-05
 -25.706  0.945E-05  0.945E-05
 -25.696  0.101E-04  0.101E-04
 -25.686  0.108E-04  0.108E-04
 -25.676  0.115E-04  0.115E-04
 -25.666  0.122E-04  0.122E-04
 -25.656  0.130E-04  0.130E-04
 -25.646  0.137E-04  0.137E-04
 -25.636  0.145E-04  0.145E-04
 -25.626  0.153E-04  0.153E-04
 -25.616  0.161E-04  0.161E-04
 -25.606  0.169E-04  0.169E-04
 -25.596  0.177E-04  0.177E-04
 -25.586  0.186E-04  0.186E-04
 -25.576  0.194E-04  0.194E-04
 -25.566  0.203E-04  0.203E-04
 -25.556  0.212E-04  0.212E-04
 -25.546  0.221E-04  0.221E-04
 -25.536  0.230E-04  0.230E-04
 -25.526  0.239E-04  0.239E-04
 -25.516  0.248E-04  0.248E-04
 -25.506  0.257E-04  0.257E-04
 -25.496  0.266E-04  0.266E-04
 -25.486  0.275E-04  0.275E-04
 -25.476  0.284E-04  0.284E-04
 -25.466  0.293E-04  0.293E-04
 -25.456  0.303E-04  0.303E-04
 -25.446  0.312E-04  0.312E-04
 -25.436  0.321E-04  0.321E-04
 -25.426  0.330E-04  0.330E-04
 -25.416  0.339E-04  0.339E-04
 -25.406  0.348E-04  0.348E-04
 -25.396  0.357E-04  0.357E-04
 -25.386  0.366E-04  0.366E-04
 -25.376  0.374E-04  0.374E-04
 -25.366  0.383E-04  0.383E-04
 -25.356  0.391E-04  0.391E-04
 -25.346  0.399E-04  0.399E-04
 -25.336  0.408E-04  0.408E-04
 -25.326  0.415E-04  0.415E-04
 -25.316  0.423E-04  0.423E-04
 -25.306  0.431E-04  0.431E-04
 -25.296  0.438E-04  0.438E-04
 -25.286  0.445E-04  0.445E-04
 -25.276  0.452E-04  0.452E-04
 -25.266  0.458E-04  0.458E-04
 -25.256  0.465E-04  0.465E-04
 -25.246  0.471E-04  0.471E-04
 -25.236  0.477E-04  0.477E-04
 -25.226  0.482E-04  0.482E-04
 -25.216  0.487E-04  0.487E-04
 -25.206  0.492E-04  0.492E-04
 -25.196  0.497E-04  0.497E-04
 -25.186  0.501E-04  0.501E-04
 -25.176  0.505E-04  0.505E-04
 -25.166  0.508E-04  0.508E-04
 -25.156  0.511E-04  0.511E-04
 -25.146  0.514E-04  0.514E-04
 -25.136  0.517E-04  0.517E-04
 -25.126  0.519E-04  0.519E-04
 -25.116  0.520E-04  0.520E-04
 -25.106  0.522E-04  0.522E-04
 -25.096  0.523E-04  0.523E-04
 -25.086  0.523E-04  0.523E-04
 -25.076  0.523E-04  0.523E-04
 -25.066  0.523E-04  0.523E-04
 -25.056  0.523E-04  0.523E-04
 -25.046  0.522E-04  0.522E-04
 -25.036  0.521E-04  0.521E-04
 -25.026  0.519E-04  0.519E-04
 -25.016  0.517E-04  0.517E-04
 -25.006  0.515E-04  0.515E-04
 -24.996  0.512E-04  0.512E-04
 -24.986  0.509E-04  0.509E-04
 -24.976  0.505E-04  0.505E-04
 -24.966  0.501E-04  0.501E-04
 -24.956  0.497E-04  0.497E-04
 -24.946  0.493E-04  0.493E-04
 -24.936  0.488E-04  0.488E-04
 -24.926  0.483E-04  0.483E-04
 -24.916  0.478E-04  0.478E-04
 -24.906  0.472E-04  0.472E-04
 -24.896  0.466E-04  0.466E-04
 -24.886  0.460E-04  0.460E-04
 -24.876  0.453E-04  0.453E-04
 -24.866  0.446E-04  0.446E-04
 -24.856  0.439E-04  0.439E-04
 -24.846  0.432E-04  0.432E-04
 -24.836  0.425E-04  0.425E-04
 -24.826  0.417E-04  0.417E-04
 -24.816  0.409E-04  0.409E-04
 -24.806  0.401E-04  0.401E-04
 -24.796  0.393E-04  0.393E-04
 -24.786  0.384E-04  0.384E-04
 -24.776  0.376E-04  0.376E-04
 -24.766  0.367E-04  0.367E-04
 -24.756  0.358E-04  0.358E-04
 -24.746  0.350E-04  0.350E-04
 -24.736  0.341E-04  0.341E-04
 -24.726  0.332E-04  0.332E-04
 -24.716  0.323E-04  0.323E-04
 -24.706  0.313E-04  0.313E-04
 -24.696  0.304E-04  0.304E-04
 -24.686  0.295E-04  0.295E-04
 -24.676  0.286E-04  0.286E-04
 -24.666  0.277E-04  0.277E-04
 -24.656  0.268E-04  0.268E-04
 -24.646  0.258E-04  0.258E-04
 -24.636  0.249E-04  0.249E-04
 -24.626  0.240E-04  0.240E-04
 -24.616  0.231E-04  0.231E-04
 -24.606  0.222E-04  0.222E-04
 -24.596  0.213E-04  0.213E-04
 -24.586  0.205E-04  0.205E-04
 -24.576  0.196E-04  0.196E-04
 -24.566  0.187E-04  0.187E-04
 -24.556  0.179E-04  0.179E-04
 -24.546  0.171E-04  0.171E-04
 -24.536  0.162E-04  0.162E-04
 -24.526  0.154E-04  0.154E-04
 -24.516  0.146E-04  0.146E-04
 -24.506  0.139E-04  0.139E-04
 -24.496  0.131E-04  0.131E-04
 -24.486  0.124E-04  0.124E-04
 -24.476  0.116E-04  0.116E-04
 -24.466  0.109E-04  0.109E-04
 -24.456  0.102E-04  0.102E-04
 -24.446  0.957E-05  0.957E-05
 -24.436  0.891E-05  0.891E-05
 -24.426  0.828E-05  0.828E-05
 -24.416  0.766E-05  0.766E-05
 -24.406  0.706E-05  0.706E-05
 -24.396  0.649E-05  0.649E-05
 -24.386  0.593E-05  0.593E-05
 -24.376  0.539E-05  0.539E-05
 -24.366  0.487E-05  0.487E-05
 -24.356  0.437E-05  0.437E-05
 -24.346  0.389E-05  0.389E-05
 -24.336  0.343E-05  0.343E-05
 -24.326  0.298E-05  0.298E-05
 -24.316  0.256E-05  0.256E-05
 -24.306  0.216E-05  0.216E-05
 -24.296  0.177E-05  0.177E-05
 -24.286  0.140E-05  0.140E-05
 -24.276  0.106E-05  0.106E-05
 -24.266  0.725E-06  0.725E-06
 -24.256  0.412E-06  0.412E-06
 -24.246  0.116E-06  0.116E-06
 -24.236 -0.163E-06 -0.163E-06
 -24.226 -0.425E-06 -0.425E-06
 -24.216 -0.671E-06 -0.671E-06
 -24.206 -0.901E-06 -0.901E-06
 -24.196 -0.112E-05 -0.112E-05
 -24.186 -0.132E-05 -0.132E-05
 -24.176 -0.150E-05 -0.150E-05
 -24.166 -0.167E-05 -0.167E-05
 -24.156 -0.183E-05 -0.183E-05
 -24.146 -0.197E-05 -0.197E-05
 -24.136 -0.211E-05 -0.211E-05
 -24.126 -0.222E-05 -0.222E-05
 -24.116 -0.233E-05 -0.233E-05
 -24.106 -0.243E-05 -0.243E-05
 -24.096 -0.251E-05 -0.251E-05
 -24.086 -0.259E-05 -0.259E-05
 -24.076 -0.265E-05 -0.265E-05
 -24.066 -0.271E-05 -0.271E-05
 -24.056 -0.275E-05 -0.275E-05
 -24.046 -0.279E-05 -0.279E-05
 -24.036 -0.282E-05 -0.282E-05
 -24.026 -0.284E-05 -0.284E-05
 -24.016 -0.286E-05 -0.286E-05
 -24.006 -0.286E-05 -0.286E-05
 -23.996 -0.286E-05 -0.286E-05
 -23.986 -0.286E-05 -0.286E-05
 -23.976 -0.285E-05 -0.285E-05
 -23.966 -0.283E-05 -0.283E-05
 -23.956 -0.281E-05 -0.281E-05
 -23.946 -0.279E-05 -0.279E-05
 -23.936 -0.276E-05 -0.276E-05
 -23.926 -0.272E-05 -0.272E-05
 -23.916 -0.269E-05 -0.269E-05
 -23.906 -0.265E-05 -0.265E-05
 -23.896 -0.260E-05 -0.260E-05
 -23.886 -0.256E-05 -0.256E-05
 -23.876 -0.251E-05 -0.251E-05
 -23.866 -0.246E-05 -0.246E-05
 -23.856 -0.241E-05 -0.241E-05
 -23.846 -0.235E-05 -0.235E-05
 -23.836 -0.230E-05 -0.230E-05
 -23.826 -0.224E-05 -0.224E-05
 -23.816 -0.219E-05 -0.219E-05
 -23.806 -0.213E-05 -0.213E-05
 -23.796 -0.207E-05 -0.207E-05
 -23.786 -0.201E-05 -0.201E-05
 -23.776 -0.195E-05 -0.195E-05
 -23.766 -0.190E-05 -0.190E-05
 -23.756 -0.184E-05 -0.184E-05
 -23.746 -0.178E-05 -0.178E-05
 -23.736 -0.172E-05 -0.172E-05
 -23.726 -0.166E-05 -0.166E-05
 -23.716 -0.161E-05 -0.161E-05
 -23.706 -0.155E-05 -0.155E-05
 -23.696 -0.149E-05 -0.149E-05
 -23.686 -0.144E-05 -0.144E-05
 -23.676 -0.139E-05 -0.139E-05
 -23.666 -0.133E-05 -0.133E-05
 -23.656 -0.128E-05 -0.128E-05
 -23.646 -0.123E-05 -0.123E-05
 -23.636 -0.118E-05 -0.118E-05
 -23.626 -0.113E-05 -0.113E-05
 -23.616 -0.109E-05 -0.109E-05
 -23.606 -0.104E-05 -0.104E-05
 -23.596 -0.997E-06 -0.997E-06
 -23.586 -0.953E-06 -0.953E-06
 -23.576 -0.911E-06 -0.911E-06
 -23.566 -0.871E-06 -0.871E-06
 -23.556 -0.831E-06 -0.831E-06
 -23.546 -0.793E-06 -0.793E-06
 -23.536 -0.756E-06 -0.756E-06
 -23.526 -0.720E-06 -0.720E-06
 -23.516 -0.685E-06 -0.685E-06
 -23.506 -0.652E-06 -0.652E-06
 -23.496 -0.620E-06 -0.620E-06
 -23.486 -0.589E-06 -0.589E-06
 -23.476 -0.560E-06 -0.560E-06
 -23.466 -0.531E-06 -0.531E-06
 -23.456 -0.504E-06 -0.504E-06
 -23.446 -0.478E-06 -0.478E-06
 -23.436 -0.452E-06 -0.452E-06
 -23.426 -0.428E-06 -0.428E-06
 -23.416 -0.405E-06 -0.405E-06
 -23.406 -0.383E-06 -0.383E-06
 -23.396 -0.362E-06 -0.362E-06
 -23.386 -0.342E-06 -0.342E-06
 -23.376 -0.323E-06 -0.323E-06
 -23.366 -0.305E-06 -0.305E-06
 -23.356 -0.287E-06 -0.287E-06
 -23.346 -0.271E-06 -0.271E-06
 -23.336 -0.255E-06 -0.255E-06
 -23.326 -0.240E-06 -0.240E-06
 -23.316 -0.226E-06 -0.226E-06
 -23.306 -0.212E-06 -0.212E-06
 -23.296 -0.200E-06 -0.200E-06
 -23.286 -0.187E-06 -0.187E-06
 -23.276 -0.176E-06 -0.176E-06
 -23.266 -0.165E-06 -0.165E-06
 -23.256 -0.155E-06 -0.155E-06
 -23.246 -0.145E-06 -0.145E-06
 -23.236 -0.136E-06 -0.136E-06
 -23.226 -0.127E-06 -0.127E-06
 -23.216 -0.119E-06 -0.119E-06
 -23.206 -0.111E-06 -0.111E-06
 -23.196 -0.104E-06 -0.104E-06
 -23.186 -0.971E-07 -0.971E-07
 -23.176 -0.906E-07 -0.906E-07
 -23.166 -0.845E-07 -0.845E-07
 -23.156 -0.788E-07 -0.788E-07
 -23.146 -0.735E-07 -0.735E-07
 -23.136 -0.685E-07 -0.685E-07
 -23.126 -0.637E-07 -0.637E-07
 -23.116 -0.593E-07 -0.593E-07
 -23.106 -0.552E-07 -0.552E-07
 -23.096 -0.513E-07 -0.513E-07
 -23.086 -0.477E-07 -0.477E-07
 -23.076 -0.443E-07 -0.443E-07
 -23.066 -0.411E-07 -0.411E-07
 -23.056 -0.381E-07 -0.381E-07
 -23.046 -0.354E-07 -0.354E-07
 -23.036 -0.328E-07 -0.328E-07
 -23.026 -0.304E-07 -0.304E-07
 -23.016 -0.281E-07 -0.281E-07
 -23.006 -0.260E-07 -0.260E-07
 -22.996 -0.241E-07 -0.241E-07
 -22.986 -0.223E-07 -0.223E-07
 -22.976 -0.206E-07 -0.206E-07
 -22.966 -0.190E-07 -0.190E-07
 -22.956 -0.176E-07 -0.176E-07
 -22.946 -0.162E-07 -0.162E-07
 -22.936 -0.150E-07 -0.150E-07
 -22.926 -0.138E-07 -0.138E-07
 -22.916 -0.127E-07 -0.127E-07
 -22.906 -0.117E-07 -0.117E-07
 -22.896 -0.108E-07 -0.108E-07
 -22.886 -0.999E-08 -0.999E-08
 -22.876 -0.921E-08 -0.921E-08
 -22.866 -0.850E-08 -0.850E-08
 -22.856 -0.784E-08 -0.784E-08
 -22.846 -0.723E-08 -0.723E-08
 -22.836 -0.668E-08 -0.668E-08
 -22.826 -0.617E-08 -0.617E-08
 -22.816 -0.571E-08 -0.571E-08
 -22.806 -0.529E-08 -0.529E-08
 -22.796 -0.491E-08 -0.491E-08
 -22.786 -0.456E-08 -0.456E-08
 -22.776 -0.425E-08 -0.425E-08
 -22.766 -0.398E-08 -0.398E-08
 -22.756 -0.373E-08 -0.373E-08
 -22.746 -0.351E-08 -0.351E-08
 -22.736 -0.332E-08 -0.332E-08
 -22.726 -0.316E-08 -0.316E-08
 -22.716 -0.302E-08 -0.302E-08
 -22.706 -0.291E-08 -0.291E-08
 -22.696 -0.282E-08 -0.282E-08
 -22.686 -0.276E-08 -0.276E-08
 -22.676 -0.272E-08 -0.272E-08
 -22.666 -0.270E-08 -0.270E-08
 -22.656 -0.270E-08 -0.270E-08
 -22.646 -0.273E-08 -0.273E-08
 -22.636 -0.278E-08 -0.278E-08
 -22.626 -0.285E-08 -0.285E-08
 -22.616 -0.294E-08 -0.294E-08
 -22.606 -0.306E-08 -0.306E-08
 -22.596 -0.320E-08 -0.320E-08
 -22.586 -0.337E-08 -0.337E-08
 -22.576 -0.357E-08 -0.357E-08
 -22.566 -0.379E-08 -0.379E-08
 -22.556 -0.404E-08 -0.404E-08
 -22.546 -0.432E-08 -0.432E-08
 -22.536 -0.464E-08 -0.464E-08
 -22.526 -0.498E-08 -0.498E-08
 -22.516 -0.537E-08 -0.537E-08
 -22.506 -0.579E-08 -0.579E-08
 -22.496 -0.625E-08 -0.625E-08
 -22.486 -0.675E-08 -0.675E-08
 -22.476 -0.730E-08 -0.730E-08
 -22.466 -0.790E-08 -0.790E-08
 -22.456 -0.855E-08 -0.855E-08
 -22.446 -0.925E-08 -0.925E-08
 -22.436 -0.100E-07 -0.100E-07
 -22.426 -0.108E-07 -0.108E-07
 -22.416 -0.117E-07 -0.117E-07
 -22.406 -0.127E-07 -0.127E-07
 -22.396 -0.137E-07 -0.137E-07
 -22.386 -0.149E-07 -0.149E-07
 -22.376 -0.161E-07 -0.161E-07
 -22.366 -0.174E-07 -0.174E-07
 -22.356 -0.188E-07 -0.188E-07
 -22.346 -0.203E-07 -0.203E-07
 -22.336 -0.219E-07 -0.219E-07
 -22.326 -0.236E-07 -0.236E-07
 -22.316 -0.255E-07 -0.255E-07
 -22.306 -0.275E-07 -0.275E-07
 -22.296 -0.296E-07 -0.296E-07
 -22.286 -0.319E-07 -0.319E-07
 -22.276 -0.343E-07 -0.343E-07
 -22.266 -0.370E-07 -0.370E-07
 -22.256 -0.397E-07 -0.397E-07
 -22.246 -0.427E-07 -0.427E-07
 -22.236 -0.459E-07 -0.459E-07
 -22.226 -0.493E-07 -0.493E-07
 -22.216 -0.529E-07 -0.529E-07
 -22.206 -0.568E-07 -0.568E-07
 -22.196 -0.609E-07 -0.609E-07
 -22.186 -0.652E-07 -0.652E-07
 -22.176 -0.699E-07 -0.699E-07
 -22.166 -0.748E-07 -0.748E-07
 -22.156 -0.800E-07 -0.800E-07
 -22.146 -0.856E-07 -0.856E-07
 -22.136 -0.915E-07 -0.915E-07
 -22.126 -0.977E-07 -0.977E-07
 -22.116 -0.104E-06 -0.104E-06
 -22.106 -0.111E-06 -0.111E-06
 -22.096 -0.119E-06 -0.119E-06
 -22.086 -0.127E-06 -0.127E-06
 -22.076 -0.135E-06 -0.135E-06
 -22.066 -0.144E-06 -0.144E-06
 -22.056 -0.153E-06 -0.153E-06
 -22.046 -0.162E-06 -0.162E-06
 -22.036 -0.173E-06 -0.173E-06
 -22.026 -0.183E-06 -0.183E-06
 -22.016 -0.195E-06 -0.195E-06
 -22.006 -0.207E-06 -0.207E-06
 -21.996 -0.219E-06 -0.219E-06
 -21.986 -0.232E-06 -0.232E-06
 -21.976 -0.246E-06 -0.246E-06
 -21.966 -0.260E-06 -0.260E-06
 -21.956 -0.276E-06 -0.276E-06
 -21.946 -0.291E-06 -0.291E-06
 -21.936 -0.308E-06 -0.308E-06
 -21.926 -0.325E-06 -0.325E-06
 -21.916 -0.343E-06 -0.343E-06
 -21.906 -0.362E-06 -0.362E-06
 -21.896 -0.382E-06 -0.382E-06
 -21.886 -0.402E-06 -0.402E-06
 -21.876 -0.423E-06 -0.423E-06
 -21.866 -0.445E-06 -0.445E-06
 -21.856 -0.468E-06 -0.468E-06
 -21.846 -0.492E-06 -0.492E-06
 -21.836 -0.517E-06 -0.517E-06
 -21.826 -0.543E-06 -0.543E-06
 -21.816 -0.569E-06 -0.569E-06
 -21.806 -0.597E-06 -0.597E-06
 -21.796 -0.625E-06 -0.625E-06
 -21.786 -0.654E-06 -0.654E-06
 -21.776 -0.684E-06 -0.684E-06
 -21.766 -0.715E-06 -0.715E-06
 -21.756 -0.747E-06 -0.747E-06
 -21.746 -0.780E-06 -0.780E-06
 -21.736 -0.814E-06 -0.814E-06
 -21.726 -0.849E-06 -0.849E-06
 -21.716 -0.884E-06 -0.884E-06
 -21.706 -0.920E-06 -0.920E-06
 -21.696 -0.957E-06 -0.957E-06
 -21.686 -0.995E-06 -0.995E-06
 -21.676 -0.103E-05 -0.103E-05
 -21.666 -0.107E-05 -0.107E-05
 -21.656 -0.111E-05 -0.111E-05
 -21.646 -0.115E-05 -0.115E-05
 -21.636 -0.119E-05 -0.119E-05
 -21.626 -0.123E-05 -0.123E-05
 -21.616 -0.127E-05 -0.127E-05
 -21.606 -0.132E-05 -0.132E-05
 -21.596 -0.136E-05 -0.136E-05
 -21.586 -0.140E-05 -0.140E-05
 -21.576 -0.144E-05 -0.144E-05
 -21.566 -0.148E-05 -0.148E-05
 -21.556 -0.152E-05 -0.152E-05
 -21.546 -0.157E-05 -0.157E-05
 -21.536 -0.161E-05 -0.161E-05
 -21.526 -0.165E-05 -0.165E-05
 -21.516 -0.169E-05 -0.169E-05
 -21.506 -0.172E-05 -0.172E-05
 -21.496 -0.176E-05 -0.176E-05
 -21.486 -0.180E-05 -0.180E-05
 -21.476 -0.183E-05 -0.183E-05
 -21.466 -0.186E-05 -0.186E-05
 -21.456 -0.189E-05 -0.189E-05
 -21.446 -0.192E-05 -0.192E-05
 -21.436 -0.195E-05 -0.195E-05
 -21.426 -0.197E-05 -0.197E-05
 -21.416 -0.199E-05 -0.199E-05
 -21.406 -0.201E-05 -0.201E-05
 -21.396 -0.202E-05 -0.202E-05
 -21.386 -0.204E-05 -0.204E-05
 -21.376 -0.204E-05 -0.204E-05
 -21.366 -0.205E-05 -0.205E-05
 -21.356 -0.205E-05 -0.205E-05
 -21.346 -0.204E-05 -0.204E-05
 -21.336 -0.203E-05 -0.203E-05
 -21.326 -0.201E-05 -0.201E-05
 -21.316 -0.199E-05 -0.199E-05
 -21.306 -0.196E-05 -0.196E-05
 -21.296 -0.193E-05 -0.193E-05
 -21.286 -0.189E-05 -0.189E-05
 -21.276 -0.184E-05 -0.184E-05
 -21.266 -0.179E-05 -0.179E-05
 -21.256 -0.173E-05 -0.173E-05
 -21.246 -0.166E-05 -0.166E-05
 -21.236 -0.158E-05 -0.158E-05
 -21.226 -0.150E-05 -0.150E-05
 -21.216 -0.140E-05 -0.140E-05
 -21.206 -0.130E-05 -0.130E-05
 -21.196 -0.118E-05 -0.118E-05
 -21.186 -0.106E-05 -0.106E-05
 -21.176 -0.927E-06 -0.927E-06
 -21.166 -0.784E-06 -0.784E-06
 -21.156 -0.629E-06 -0.629E-06
 -21.146 -0.464E-06 -0.464E-06
 -21.136 -0.287E-06 -0.287E-06
 -21.126 -0.990E-07 -0.990E-07
 -21.116  0.101E-06  0.101E-06
 -21.106  0.313E-06  0.313E-06
 -21.096  0.538E-06  0.538E-06
 -21.086  0.775E-06  0.775E-06
 -21.076  0.103E-05  0.103E-05
 -21.066  0.129E-05  0.129E-05
 -21.056  0.156E-05  0.156E-05
 -21.046  0.185E-05  0.185E-05
 -21.036  0.216E-05  0.216E-05
 -21.026  0.247E-05  0.247E-05
 -21.016  0.280E-05  0.280E-05
 -21.006  0.315E-05  0.315E-05
 -20.996  0.351E-05  0.351E-05
 -20.986  0.388E-05  0.388E-05
 -20.976  0.426E-05  0.426E-05
 -20.966  0.466E-05  0.466E-05
 -20.956  0.508E-05  0.508E-05
 -20.946  0.550E-05  0.550E-05
 -20.936  0.594E-05  0.594E-05
 -20.926  0.640E-05  0.640E-05
 -20.916  0.687E-05  0.687E-05
 -20.906  0.735E-05  0.735E-05
 -20.896  0.784E-05  0.784E-05
 -20.886  0.834E-05  0.834E-05
 -20.876  0.886E-05  0.886E-05
 -20.866  0.939E-05  0.939E-05
 -20.856  0.993E-05  0.993E-05
 -20.846  0.105E-04  0.105E-04
 -20.836  0.110E-04  0.110E-04
 -20.826  0.116E-04  0.116E-04
 -20.816  0.122E-04  0.122E-04
 -20.806  0.128E-04  0.128E-04
 -20.796  0.134E-04  0.134E-04
 -20.786  0.140E-04  0.140E-04
 -20.776  0.146E-04  0.146E-04
 -20.766  0.153E-04  0.153E-04
 -20.756  0.159E-04  0.159E-04
 -20.746  0.165E-04  0.165E-04
 -20.736  0.172E-04  0.172E-04
 -20.726  0.178E-04  0.178E-04
 -20.716  0.184E-04  0.184E-04
 -20.706  0.191E-04  0.191E-04
 -20.696  0.197E-04  0.197E-04
 -20.686  0.204E-04  0.204E-04
 -20.676  0.210E-04  0.210E-04
 -20.666  0.217E-04  0.217E-04
 -20.656  0.223E-04  0.223E-04
 -20.646  0.230E-04  0.230E-04
 -20.636  0.236E-04  0.236E-04
 -20.626  0.243E-04  0.243E-04
 -20.616  0.249E-04  0.249E-04
 -20.606  0.255E-04  0.255E-04
 -20.596  0.261E-04  0.261E-04
 -20.586  0.267E-04  0.267E-04
 -20.576  0.273E-04  0.273E-04
 -20.566  0.279E-04  0.279E-04
 -20.556  0.285E-04  0.285E-04
 -20.546  0.291E-04  0.291E-04
 -20.536  0.296E-04  0.296E-04
 -20.526  0.302E-04  0.302E-04
 -20.516  0.307E-04  0.307E-04
 -20.506  0.312E-04  0.312E-04
 -20.496  0.317E-04  0.317E-04
 -20.486  0.321E-04  0.321E-04
 -20.476  0.326E-04  0.326E-04
 -20.466  0.330E-04  0.330E-04
 -20.456  0.334E-04  0.334E-04
 -20.446  0.338E-04  0.338E-04
 -20.436  0.342E-04  0.342E-04
 -20.426  0.346E-04  0.346E-04
 -20.416  0.349E-04  0.349E-04
 -20.406  0.352E-04  0.352E-04
 -20.396  0.355E-04  0.355E-04
 -20.386  0.357E-04  0.357E-04
 -20.376  0.359E-04  0.359E-04
 -20.366  0.361E-04  0.361E-04
 -20.356  0.363E-04  0.363E-04
 -20.346  0.365E-04  0.365E-04
 -20.336  0.366E-04  0.366E-04
 -20.326  0.367E-04  0.367E-04
 -20.316  0.368E-04  0.368E-04
 -20.306  0.368E-04  0.368E-04
 -20.296  0.368E-04  0.368E-04
 -20.286  0.368E-04  0.368E-04
 -20.276  0.368E-04  0.368E-04
 -20.266  0.367E-04  0.367E-04
 -20.256  0.366E-04  0.366E-04
 -20.246  0.365E-04  0.365E-04
 -20.236  0.364E-04  0.364E-04
 -20.226  0.362E-04  0.362E-04
 -20.216  0.360E-04  0.360E-04
 -20.206  0.358E-04  0.358E-04
 -20.196  0.356E-04  0.356E-04
 -20.186  0.353E-04  0.353E-04
 -20.176  0.350E-04  0.350E-04
 -20.166  0.347E-04  0.347E-04
 -20.156  0.344E-04  0.344E-04
 -20.146  0.340E-04  0.340E-04
 -20.136  0.336E-04  0.336E-04
 -20.126  0.332E-04  0.332E-04
 -20.116  0.328E-04  0.328E-04
 -20.106  0.324E-04  0.324E-04
 -20.096  0.319E-04  0.319E-04
 -20.086  0.314E-04  0.314E-04
 -20.076  0.310E-04  0.310E-04
 -20.066  0.304E-04  0.304E-04
 -20.056  0.299E-04  0.299E-04
 -20.046  0.294E-04  0.294E-04
 -20.036  0.289E-04  0.289E-04
 -20.026  0.283E-04  0.283E-04
 -20.016  0.277E-04  0.277E-04
 -20.006  0.272E-04  0.272E-04
 -19.996  0.266E-04  0.266E-04
 -19.986  0.260E-04  0.260E-04
 -19.976  0.254E-04  0.254E-04
 -19.966  0.248E-04  0.248E-04
 -19.956  0.242E-04  0.242E-04
 -19.946  0.236E-04  0.236E-04
 -19.936  0.230E-04  0.230E-04
 -19.926  0.223E-04  0.223E-04
 -19.916  0.217E-04  0.217E-04
 -19.906  0.211E-04  0.211E-04
 -19.896  0.205E-04  0.205E-04
 -19.886  0.199E-04  0.199E-04
 -19.876  0.193E-04  0.193E-04
 -19.866  0.187E-04  0.187E-04
 -19.856  0.181E-04  0.181E-04
 -19.846  0.175E-04  0.175E-04
 -19.836  0.170E-04  0.170E-04
 -19.826  0.164E-04  0.164E-04
 -19.816  0.159E-04  0.159E-04
 -19.806  0.153E-04  0.153E-04
 -19.796  0.148E-04  0.148E-04
 -19.786  0.143E-04  0.143E-04
 -19.776  0.138E-04  0.138E-04
 -19.766  0.133E-04  0.133E-04
 -19.756  0.128E-04  0.128E-04
 -19.746  0.123E-04  0.123E-04
 -19.736  0.119E-04  0.119E-04
 -19.726  0.114E-04  0.114E-04
 -19.716  0.110E-04  0.110E-04
 -19.706  0.106E-04  0.106E-04
 -19.696  0.102E-04  0.102E-04
 -19.686  0.988E-05  0.988E-05
 -19.676  0.953E-05  0.953E-05
 -19.666  0.921E-05  0.921E-05
 -19.656  0.889E-05  0.889E-05
 -19.646  0.860E-05  0.860E-05
 -19.636  0.833E-05  0.833E-05
 -19.626  0.807E-05  0.807E-05
 -19.616  0.784E-05  0.784E-05
 -19.606  0.762E-05  0.762E-05
 -19.596  0.742E-05  0.742E-05
 -19.586  0.724E-05  0.724E-05
 -19.576  0.707E-05  0.707E-05
 -19.566  0.693E-05  0.693E-05
 -19.556  0.680E-05  0.680E-05
 -19.546  0.669E-05  0.669E-05
 -19.536  0.660E-05  0.660E-05
 -19.526  0.653E-05  0.653E-05
 -19.516  0.647E-05  0.647E-05
 -19.506  0.643E-05  0.643E-05
 -19.496  0.641E-05  0.641E-05
 -19.486  0.640E-05  0.640E-05
 -19.476  0.640E-05  0.640E-05
 -19.466  0.642E-05  0.642E-05
 -19.456  0.646E-05  0.646E-05
 -19.446  0.651E-05  0.651E-05
 -19.436  0.657E-05  0.657E-05
 -19.426  0.665E-05  0.665E-05
 -19.416  0.673E-05  0.673E-05
 -19.406  0.683E-05  0.683E-05
 -19.396  0.694E-05  0.694E-05
 -19.386  0.706E-05  0.706E-05
 -19.376  0.719E-05  0.719E-05
 -19.366  0.733E-05  0.733E-05
 -19.356  0.747E-05  0.747E-05
 -19.346  0.762E-05  0.762E-05
 -19.336  0.778E-05  0.778E-05
 -19.326  0.795E-05  0.795E-05
 -19.316  0.812E-05  0.812E-05
 -19.306  0.830E-05  0.830E-05
 -19.296  0.847E-05  0.847E-05
 -19.286  0.866E-05  0.866E-05
 -19.276  0.884E-05  0.884E-05
 -19.266  0.903E-05  0.903E-05
 -19.256  0.922E-05  0.922E-05
 -19.246  0.941E-05  0.941E-05
 -19.236  0.960E-05  0.960E-05
 -19.226  0.979E-05  0.979E-05
 -19.216  0.997E-05  0.997E-05
 -19.206  0.102E-04  0.102E-04
 -19.196  0.103E-04  0.103E-04
 -19.186  0.105E-04  0.105E-04
 -19.176  0.107E-04  0.107E-04
 -19.166  0.109E-04  0.109E-04
 -19.156  0.110E-04  0.110E-04
 -19.146  0.112E-04  0.112E-04
 -19.136  0.114E-04  0.114E-04
 -19.126  0.115E-04  0.115E-04
 -19.116  0.116E-04  0.116E-04
 -19.106  0.118E-04  0.118E-04
 -19.096  0.119E-04  0.119E-04
 -19.086  0.120E-04  0.120E-04
 -19.076  0.121E-04  0.121E-04
 -19.066  0.122E-04  0.122E-04
 -19.056  0.123E-04  0.123E-04
 -19.046  0.124E-04  0.124E-04
 -19.036  0.125E-04  0.125E-04
 -19.026  0.126E-04  0.126E-04
 -19.016  0.126E-04  0.126E-04
 -19.006  0.127E-04  0.127E-04
 -18.996  0.127E-04  0.127E-04
 -18.986  0.127E-04  0.127E-04
 -18.976  0.128E-04  0.128E-04
 -18.966  0.128E-04  0.128E-04
 -18.956  0.128E-04  0.128E-04
 -18.946  0.127E-04  0.127E-04
 -18.936  0.127E-04  0.127E-04
 -18.926  0.127E-04  0.127E-04
 -18.916  0.126E-04  0.126E-04
 -18.906  0.126E-04  0.126E-04
 -18.896  0.125E-04  0.125E-04
 -18.886  0.124E-04  0.124E-04
 -18.876  0.124E-04  0.124E-04
 -18.866  0.123E-04  0.123E-04
 -18.856  0.122E-04  0.122E-04
 -18.846  0.121E-04  0.121E-04
 -18.836  0.119E-04  0.119E-04
 -18.826  0.118E-04  0.118E-04
 -18.816  0.117E-04  0.117E-04
 -18.806  0.115E-04  0.115E-04
 -18.796  0.114E-04  0.114E-04
 -18.786  0.112E-04  0.112E-04
 -18.776  0.110E-04  0.110E-04
 -18.766  0.109E-04  0.109E-04
 -18.756  0.107E-04  0.107E-04
 -18.746  0.105E-04  0.105E-04
 -18.736  0.103E-04  0.103E-04
 -18.726  0.101E-04  0.101E-04
 -18.716  0.988E-05  0.988E-05
 -18.706  0.967E-05  0.967E-05
 -18.696  0.946E-05  0.946E-05
 -18.686  0.924E-05  0.924E-05
 -18.676  0.901E-05  0.901E-05
 -18.666  0.879E-05  0.879E-05
 -18.656  0.856E-05  0.856E-05
 -18.646  0.832E-05  0.832E-05
 -18.636  0.809E-05  0.809E-05
 -18.626  0.785E-05  0.785E-05
 -18.616  0.761E-05  0.761E-05
 -18.606  0.737E-05  0.737E-05
 -18.596  0.713E-05  0.713E-05
 -18.586  0.689E-05  0.689E-05
 -18.576  0.665E-05  0.665E-05
 -18.566  0.640E-05  0.640E-05
 -18.556  0.616E-05  0.616E-05
 -18.546  0.592E-05  0.592E-05
 -18.536  0.568E-05  0.568E-05
 -18.526  0.544E-05  0.544E-05
 -18.516  0.520E-05  0.520E-05
 -18.506  0.497E-05  0.497E-05
 -18.496  0.473E-05  0.473E-05
 -18.486  0.450E-05  0.450E-05
 -18.476  0.427E-05  0.427E-05
 -18.466  0.405E-05  0.405E-05
 -18.456  0.382E-05  0.382E-05
 -18.446  0.360E-05  0.360E-05
 -18.436  0.338E-05  0.338E-05
 -18.426  0.317E-05  0.317E-05
 -18.416  0.296E-05  0.296E-05
 -18.406  0.275E-05  0.275E-05
 -18.396  0.255E-05  0.255E-05
 -18.386  0.235E-05  0.235E-05
 -18.376  0.216E-05  0.216E-05
 -18.366  0.197E-05  0.197E-05
 -18.356  0.178E-05  0.178E-05
 -18.346  0.160E-05  0.160E-05
 -18.336  0.142E-05  0.142E-05
 -18.326  0.125E-05  0.125E-05
 -18.316  0.108E-05  0.108E-05
 -18.306  0.915E-06  0.915E-06
 -18.296  0.756E-06  0.756E-06
 -18.286  0.601E-06  0.601E-06
 -18.276  0.451E-06  0.451E-06
 -18.266  0.306E-06  0.306E-06
 -18.256  0.165E-06  0.165E-06
 -18.246  0.289E-07  0.289E-07
 -18.236 -0.102E-06 -0.102E-06
 -18.226 -0.229E-06 -0.229E-06
 -18.216 -0.351E-06 -0.351E-06
 -18.206 -0.469E-06 -0.469E-06
 -18.196 -0.582E-06 -0.582E-06
 -18.186 -0.690E-06 -0.690E-06
 -18.176 -0.794E-06 -0.794E-06
 -18.166 -0.894E-06 -0.894E-06
 -18.156 -0.989E-06 -0.989E-06
 -18.146 -0.108E-05 -0.108E-05
 -18.136 -0.117E-05 -0.117E-05
 -18.126 -0.125E-05 -0.125E-05
 -18.116 -0.132E-05 -0.132E-05
 -18.106 -0.140E-05 -0.140E-05
 -18.096 -0.147E-05 -0.147E-05
 -18.086 -0.153E-05 -0.153E-05
 -18.076 -0.159E-05 -0.159E-05
 -18.066 -0.165E-05 -0.165E-05
 -18.056 -0.170E-05 -0.170E-05
 -18.046 -0.175E-05 -0.175E-05
 -18.036 -0.179E-05 -0.179E-05
 -18.026 -0.183E-05 -0.183E-05
 -18.016 -0.187E-05 -0.187E-05
 -18.006 -0.190E-05 -0.190E-05
 -17.996 -0.193E-05 -0.193E-05
 -17.986 -0.195E-05 -0.195E-05
 -17.976 -0.197E-05 -0.197E-05
 -17.966 -0.198E-05 -0.198E-05
 -17.956 -0.199E-05 -0.199E-05
 -17.946 -0.200E-05 -0.200E-05
 -17.936 -0.200E-05 -0.200E-05
 -17.926 -0.200E-05 -0.200E-05
 -17.916 -0.199E-05 -0.199E-05
 -17.906 -0.198E-05 -0.198E-05
 -17.896 -0.196E-05 -0.196E-05
 -17.886 -0.194E-05 -0.194E-05
 -17.876 -0.192E-05 -0.192E-05
 -17.866 -0.188E-05 -0.188E-05
 -17.856 -0.185E-05 -0.185E-05
 -17.846 -0.181E-05 -0.181E-05
 -17.836 -0.176E-05 -0.176E-05
 -17.826 -0.171E-05 -0.171E-05
 -17.816 -0.165E-05 -0.165E-05
 -17.806 -0.159E-05 -0.159E-05
 -17.796 -0.152E-05 -0.152E-05
 -17.786 -0.145E-05 -0.145E-05
 -17.776 -0.137E-05 -0.137E-05
 -17.766 -0.128E-05 -0.128E-05
 -17.756 -0.119E-05 -0.119E-05
 -17.746 -0.109E-05 -0.109E-05
 -17.736 -0.990E-06 -0.990E-06
 -17.726 -0.879E-06 -0.879E-06
 -17.716 -0.762E-06 -0.762E-06
 -17.706 -0.638E-06 -0.638E-06
 -17.696 -0.507E-06 -0.507E-06
 -17.686 -0.370E-06 -0.370E-06
 -17.676 -0.225E-06 -0.225E-06
 -17.666 -0.735E-07 -0.735E-07
 -17.656  0.853E-07  0.853E-07
 -17.646  0.251E-06  0.251E-06
 -17.636  0.425E-06  0.425E-06
 -17.626  0.605E-06  0.605E-06
 -17.616  0.793E-06  0.793E-06
 -17.606  0.989E-06  0.989E-06
 -17.596  0.119E-05  0.119E-05
 -17.586  0.140E-05  0.140E-05
 -17.576  0.162E-05  0.162E-05
 -17.566  0.185E-05  0.185E-05
 -17.556  0.208E-05  0.208E-05
 -17.546  0.232E-05  0.232E-05
 -17.536  0.257E-05  0.257E-05
 -17.526  0.282E-05  0.282E-05
 -17.516  0.309E-05  0.309E-05
 -17.506  0.336E-05  0.336E-05
 -17.496  0.363E-05  0.363E-05
 -17.486  0.392E-05  0.392E-05
 -17.476  0.421E-05  0.421E-05
 -17.466  0.451E-05  0.451E-05
 -17.456  0.481E-05  0.481E-05
 -17.446  0.512E-05  0.512E-05
 -17.436  0.544E-05  0.544E-05
 -17.426  0.576E-05  0.576E-05
 -17.416  0.609E-05  0.609E-05
 -17.406  0.643E-05  0.643E-05
 -17.396  0.677E-05  0.677E-05
 -17.386  0.711E-05  0.711E-05
 -17.376  0.746E-05  0.746E-05
 -17.366  0.782E-05  0.782E-05
 -17.356  0.817E-05  0.817E-05
 -17.346  0.854E-05  0.854E-05
 -17.336  0.890E-05  0.890E-05
 -17.326  0.927E-05  0.927E-05
 -17.316  0.964E-05  0.964E-05
 -17.306  0.100E-04  0.100E-04
 -17.296  0.104E-04  0.104E-04
 -17.286  0.108E-04  0.108E-04
 -17.276  0.111E-04  0.111E-04
 -17.266  0.115E-04  0.115E-04
 -17.256  0.119E-04  0.119E-04
 -17.246  0.123E-04  0.123E-04
 -17.236  0.127E-04  0.127E-04
 -17.226  0.130E-04  0.130E-04
 -17.216  0.134E-04  0.134E-04
 -17.206  0.138E-04  0.138E-04
 -17.196  0.141E-04  0.141E-04
 -17.186  0.145E-04  0.145E-04
 -17.176  0.149E-04  0.149E-04
 -17.166  0.152E-04  0.152E-04
 -17.156  0.156E-04  0.156E-04
 -17.146  0.159E-04  0.159E-04
 -17.136  0.163E-04  0.163E-04
 -17.126  0.166E-04  0.166E-04
 -17.116  0.170E-04  0.170E-04
 -17.106  0.173E-04  0.173E-04
 -17.096  0.176E-04  0.176E-04
 -17.086  0.179E-04  0.179E-04
 -17.076  0.182E-04  0.182E-04
 -17.066  0.185E-04  0.185E-04
 -17.056  0.188E-04  0.188E-04
 -17.046  0.191E-04  0.191E-04
 -17.036  0.194E-04  0.194E-04
 -17.026  0.196E-04  0.196E-04
 -17.016  0.199E-04  0.199E-04
 -17.006  0.201E-04  0.201E-04
 -16.996  0.204E-04  0.204E-04
 -16.986  0.206E-04  0.206E-04
 -16.976  0.208E-04  0.208E-04
 -16.966  0.210E-04  0.210E-04
 -16.956  0.212E-04  0.212E-04
 -16.946  0.214E-04  0.214E-04
 -16.936  0.215E-04  0.215E-04
 -16.926  0.217E-04  0.217E-04
 -16.916  0.218E-04  0.218E-04
 -16.906  0.220E-04  0.220E-04
 -16.896  0.221E-04  0.221E-04
 -16.886  0.222E-04  0.222E-04
 -16.876  0.223E-04  0.223E-04
 -16.866  0.224E-04  0.224E-04
 -16.856  0.225E-04  0.225E-04
 -16.846  0.225E-04  0.225E-04
 -16.836  0.226E-04  0.226E-04
 -16.826  0.226E-04  0.226E-04
 -16.816  0.227E-04  0.227E-04
 -16.806  0.227E-04  0.227E-04
 -16.796  0.227E-04  0.227E-04
 -16.786  0.227E-04  0.227E-04
 -16.776  0.227E-04  0.227E-04
 -16.766  0.227E-04  0.227E-04
 -16.756  0.227E-04  0.227E-04
 -16.746  0.226E-04  0.226E-04
 -16.736  0.226E-04  0.226E-04
 -16.726  0.225E-04  0.225E-04
 -16.716  0.225E-04  0.225E-04
 -16.706  0.224E-04  0.224E-04
 -16.696  0.223E-04  0.223E-04
 -16.686  0.222E-04  0.222E-04
 -16.676  0.221E-04  0.221E-04
 -16.666  0.220E-04  0.220E-04
 -16.656  0.219E-04  0.219E-04
 -16.646  0.218E-04  0.218E-04
 -16.636  0.217E-04  0.217E-04
 -16.626  0.216E-04  0.216E-04
 -16.616  0.215E-04  0.215E-04
 -16.606  0.213E-04  0.213E-04
 -16.596  0.212E-04  0.212E-04
 -16.586  0.210E-04  0.210E-04
 -16.576  0.209E-04  0.209E-04
 -16.566  0.207E-04  0.207E-04
 -16.556  0.206E-04  0.206E-04
 -16.546  0.204E-04  0.204E-04
 -16.536  0.203E-04  0.203E-04
 -16.526  0.201E-04  0.201E-04
 -16.516  0.200E-04  0.200E-04
 -16.506  0.198E-04  0.198E-04
 -16.496  0.196E-04  0.196E-04
 -16.486  0.195E-04  0.195E-04
 -16.476  0.193E-04  0.193E-04
 -16.466  0.191E-04  0.191E-04
 -16.456  0.190E-04  0.190E-04
 -16.446  0.188E-04  0.188E-04
 -16.436  0.186E-04  0.186E-04
 -16.426  0.185E-04  0.185E-04
 -16.416  0.183E-04  0.183E-04
 -16.406  0.181E-04  0.181E-04
 -16.396  0.180E-04  0.180E-04
 -16.386  0.178E-04  0.178E-04
 -16.376  0.176E-04  0.176E-04
 -16.366  0.175E-04  0.175E-04
 -16.356  0.173E-04  0.173E-04
 -16.346  0.171E-04  0.171E-04
 -16.336  0.170E-04  0.170E-04
 -16.326  0.168E-04  0.168E-04
 -16.316  0.166E-04  0.166E-04
 -16.306  0.165E-04  0.165E-04
 -16.296  0.163E-04  0.163E-04
 -16.286  0.162E-04  0.162E-04
 -16.276  0.160E-04  0.160E-04
 -16.266  0.158E-04  0.158E-04
 -16.256  0.157E-04  0.157E-04
 -16.246  0.155E-04  0.155E-04
 -16.236  0.154E-04  0.154E-04
 -16.226  0.152E-04  0.152E-04
 -16.216  0.150E-04  0.150E-04
 -16.206  0.149E-04  0.149E-04
 -16.196  0.147E-04  0.147E-04
 -16.186  0.146E-04  0.146E-04
 -16.176  0.144E-04  0.144E-04
 -16.166  0.143E-04  0.143E-04
 -16.156  0.141E-04  0.141E-04
 -16.146  0.139E-04  0.139E-04
 -16.136  0.138E-04  0.138E-04
 -16.126  0.136E-04  0.136E-04
 -16.116  0.134E-04  0.134E-04
 -16.106  0.133E-04  0.133E-04
 -16.096  0.131E-04  0.131E-04
 -16.086  0.130E-04  0.130E-04
 -16.076  0.128E-04  0.128E-04
 -16.066  0.126E-04  0.126E-04
 -16.056  0.125E-04  0.125E-04
 -16.046  0.123E-04  0.123E-04
 -16.036  0.121E-04  0.121E-04
 -16.026  0.119E-04  0.119E-04
 -16.016  0.118E-04  0.118E-04
 -16.006  0.116E-04  0.116E-04
 -15.996  0.114E-04  0.114E-04
 -15.986  0.112E-04  0.112E-04
 -15.976  0.110E-04  0.110E-04
 -15.966  0.109E-04  0.109E-04
 -15.956  0.107E-04  0.107E-04
 -15.946  0.105E-04  0.105E-04
 -15.936  0.103E-04  0.103E-04
 -15.926  0.101E-04  0.101E-04
 -15.916  0.991E-05  0.991E-05
 -15.906  0.971E-05  0.971E-05
 -15.896  0.952E-05  0.952E-05
 -15.886  0.932E-05  0.932E-05
 -15.876  0.912E-05  0.912E-05
 -15.866  0.892E-05  0.892E-05
 -15.856  0.872E-05  0.872E-05
 -15.846  0.852E-05  0.852E-05
 -15.836  0.832E-05  0.832E-05
 -15.826  0.811E-05  0.811E-05
 -15.816  0.791E-05  0.791E-05
 -15.806  0.770E-05  0.770E-05
 -15.796  0.750E-05  0.750E-05
 -15.786  0.729E-05  0.729E-05
 -15.776  0.709E-05  0.709E-05
 -15.766  0.688E-05  0.688E-05
 -15.756  0.668E-05  0.668E-05
 -15.746  0.647E-05  0.647E-05
 -15.736  0.627E-05  0.627E-05
 -15.726  0.607E-05  0.607E-05
 -15.716  0.586E-05  0.586E-05
 -15.706  0.566E-05  0.566E-05
 -15.696  0.546E-05  0.546E-05
 -15.686  0.526E-05  0.526E-05
 -15.676  0.506E-05  0.506E-05
 -15.666  0.487E-05  0.487E-05
 -15.656  0.467E-05  0.467E-05
 -15.646  0.448E-05  0.448E-05
 -15.636  0.429E-05  0.429E-05
 -15.626  0.410E-05  0.410E-05
 -15.616  0.392E-05  0.392E-05
 -15.606  0.373E-05  0.373E-05
 -15.596  0.355E-05  0.355E-05
 -15.586  0.337E-05  0.337E-05
 -15.576  0.320E-05  0.320E-05
 -15.566  0.303E-05  0.303E-05
 -15.556  0.286E-05  0.286E-05
 -15.546  0.269E-05  0.269E-05
 -15.536  0.253E-05  0.253E-05
 -15.526  0.237E-05  0.237E-05
 -15.516  0.221E-05  0.221E-05
 -15.506  0.206E-05  0.206E-05
 -15.496  0.191E-05  0.191E-05
 -15.486  0.176E-05  0.176E-05
 -15.476  0.162E-05  0.162E-05
 -15.466  0.148E-05  0.148E-05
 -15.456  0.134E-05  0.134E-05
 -15.446  0.121E-05  0.121E-05
 -15.436  0.108E-05  0.108E-05
 -15.426  0.958E-06  0.958E-06
 -15.416  0.837E-06  0.837E-06
 -15.406  0.719E-06  0.719E-06
 -15.396  0.604E-06  0.604E-06
 -15.386  0.493E-06  0.493E-06
 -15.376  0.386E-06  0.386E-06
 -15.366  0.281E-06  0.281E-06
 -15.356  0.180E-06  0.180E-06
 -15.346  0.819E-07  0.819E-07
 -15.336 -0.131E-07 -0.131E-07
 -15.326 -0.105E-06 -0.105E-06
 -15.316 -0.194E-06 -0.194E-06
 -15.306 -0.281E-06 -0.281E-06
 -15.296 -0.364E-06 -0.364E-06
 -15.286 -0.446E-06 -0.446E-06
 -15.276 -0.525E-06 -0.525E-06
 -15.266 -0.601E-06 -0.601E-06
 -15.256 -0.676E-06 -0.676E-06
 -15.246 -0.748E-06 -0.748E-06
 -15.236 -0.819E-06 -0.819E-06
 -15.226 -0.888E-06 -0.888E-06
 -15.216 -0.956E-06 -0.956E-06
 -15.206 -0.102E-05 -0.102E-05
 -15.196 -0.109E-05 -0.109E-05
 -15.186 -0.115E-05 -0.115E-05
 -15.176 -0.121E-05 -0.121E-05
 -15.166 -0.128E-05 -0.128E-05
 -15.156 -0.134E-05 -0.134E-05
 -15.146 -0.140E-05 -0.140E-05
 -15.136 -0.146E-05 -0.146E-05
 -15.126 -0.153E-05 -0.153E-05
 -15.116 -0.159E-05 -0.159E-05
 -15.106 -0.165E-05 -0.165E-05
 -15.096 -0.171E-05 -0.171E-05
 -15.086 -0.178E-05 -0.178E-05
 -15.076 -0.184E-05 -0.184E-05
 -15.066 -0.191E-05 -0.191E-05
 -15.056 -0.198E-05 -0.198E-05
 -15.046 -0.205E-05 -0.205E-05
 -15.036 -0.212E-05 -0.212E-05
 -15.026 -0.219E-05 -0.219E-05
 -15.016 -0.227E-05 -0.227E-05
 -15.006 -0.235E-05 -0.235E-05
 -14.996 -0.242E-05 -0.242E-05
 -14.986 -0.251E-05 -0.251E-05
 -14.976 -0.259E-05 -0.259E-05
 -14.966 -0.268E-05 -0.268E-05
 -14.956 -0.277E-05 -0.277E-05
 -14.946 -0.286E-05 -0.286E-05
 -14.936 -0.296E-05 -0.296E-05
 -14.926 -0.306E-05 -0.306E-05
 -14.916 -0.317E-05 -0.317E-05
 -14.906 -0.327E-05 -0.327E-05
 -14.896 -0.338E-05 -0.338E-05
 -14.886 -0.350E-05 -0.350E-05
 -14.876 -0.362E-05 -0.362E-05
 -14.866 -0.374E-05 -0.374E-05
 -14.856 -0.386E-05 -0.386E-05
 -14.846 -0.399E-05 -0.399E-05
 -14.836 -0.412E-05 -0.412E-05
 -14.826 -0.426E-05 -0.426E-05
 -14.816 -0.440E-05 -0.440E-05
 -14.806 -0.454E-05 -0.454E-05
 -14.796 -0.468E-05 -0.468E-05
 -14.786 -0.483E-05 -0.483E-05
 -14.776 -0.499E-05 -0.499E-05
 -14.766 -0.514E-05 -0.514E-05
 -14.756 -0.530E-05 -0.530E-05
 -14.746 -0.546E-05 -0.546E-05
 -14.736 -0.562E-05 -0.562E-05
 -14.726 -0.578E-05 -0.578E-05
 -14.716 -0.595E-05 -0.595E-05
 -14.706 -0.611E-05 -0.611E-05
 -14.696 -0.628E-05 -0.628E-05
 -14.686 -0.644E-05 -0.644E-05
 -14.676 -0.661E-05 -0.661E-05
 -14.666 -0.678E-05 -0.678E-05
 -14.656 -0.694E-05 -0.694E-05
 -14.646 -0.711E-05 -0.711E-05
 -14.636 -0.727E-05 -0.727E-05
 -14.626 -0.743E-05 -0.743E-05
 -14.616 -0.758E-05 -0.758E-05
 -14.606 -0.773E-05 -0.773E-05
 -14.596 -0.788E-05 -0.788E-05
 -14.586 -0.802E-05 -0.802E-05
 -14.576 -0.815E-05 -0.815E-05
 -14.566 -0.828E-05 -0.828E-05
 -14.556 -0.840E-05 -0.840E-05
 -14.546 -0.850E-05 -0.850E-05
 -14.536 -0.860E-05 -0.860E-05
 -14.526 -0.869E-05 -0.869E-05
 -14.516 -0.877E-05 -0.877E-05
 -14.506 -0.883E-05 -0.883E-05
 -14.496 -0.888E-05 -0.888E-05
 -14.486 -0.891E-05 -0.891E-05
 -14.476 -0.893E-05 -0.893E-05
 -14.466 -0.893E-05 -0.893E-05
 -14.456 -0.890E-05 -0.890E-05
 -14.446 -0.886E-05 -0.886E-05
 -14.436 -0.880E-05 -0.880E-05
 -14.426 -0.872E-05 -0.872E-05
 -14.416 -0.861E-05 -0.861E-05
 -14.406 -0.847E-05 -0.847E-05
 -14.396 -0.831E-05 -0.831E-05
 -14.386 -0.812E-05 -0.812E-05
 -14.376 -0.790E-05 -0.790E-05
 -14.366 -0.765E-05 -0.765E-05
 -14.356 -0.736E-05 -0.736E-05
 -14.346 -0.704E-05 -0.704E-05
 -14.336 -0.669E-05 -0.669E-05
 -14.326 -0.630E-05 -0.630E-05
 -14.316 -0.587E-05 -0.587E-05
 -14.306 -0.540E-05 -0.540E-05
 -14.296 -0.489E-05 -0.489E-05
 -14.286 -0.433E-05 -0.433E-05
 -14.276 -0.373E-05 -0.373E-05
 -14.266 -0.309E-05 -0.309E-05
 -14.256 -0.240E-05 -0.240E-05
 -14.246 -0.166E-05 -0.166E-05
 -14.236 -0.874E-06 -0.874E-06
 -14.226 -0.349E-07 -0.349E-07
 -14.216  0.856E-06  0.856E-06
 -14.206  0.180E-05  0.180E-05
 -14.196  0.280E-05  0.280E-05
 -14.186  0.385E-05  0.385E-05
 -14.176  0.496E-05  0.496E-05
 -14.166  0.612E-05  0.612E-05
 -14.156  0.734E-05  0.734E-05
 -14.146  0.863E-05  0.863E-05
 -14.136  0.997E-05  0.997E-05
 -14.126  0.114E-04  0.114E-04
 -14.116  0.128E-04  0.128E-04
 -14.106  0.143E-04  0.143E-04
 -14.096  0.159E-04  0.159E-04
 -14.086  0.176E-04  0.176E-04
 -14.076  0.193E-04  0.193E-04
 -14.066  0.210E-04  0.210E-04
 -14.056  0.228E-04  0.228E-04
 -14.046  0.247E-04  0.247E-04
 -14.036  0.267E-04  0.267E-04
 -14.026  0.287E-04  0.287E-04
 -14.016  0.307E-04  0.307E-04
 -14.006  0.328E-04  0.328E-04
 -13.996  0.350E-04  0.350E-04
 -13.986  0.372E-04  0.372E-04
 -13.976  0.395E-04  0.395E-04
 -13.966  0.418E-04  0.418E-04
 -13.956  0.442E-04  0.442E-04
 -13.946  0.467E-04  0.467E-04
 -13.936  0.491E-04  0.491E-04
 -13.926  0.517E-04  0.517E-04
 -13.916  0.542E-04  0.542E-04
 -13.906  0.568E-04  0.568E-04
 -13.896  0.595E-04  0.595E-04
 -13.886  0.622E-04  0.622E-04
 -13.876  0.649E-04  0.649E-04
 -13.866  0.676E-04  0.676E-04
 -13.856  0.704E-04  0.704E-04
 -13.846  0.732E-04  0.732E-04
 -13.836  0.760E-04  0.760E-04
 -13.826  0.788E-04  0.788E-04
 -13.816  0.817E-04  0.817E-04
 -13.806  0.846E-04  0.846E-04
 -13.796  0.874E-04  0.874E-04
 -13.786  0.903E-04  0.903E-04
 -13.776  0.932E-04  0.932E-04
 -13.766  0.960E-04  0.960E-04
 -13.756  0.989E-04  0.989E-04
 -13.746  0.102E-03  0.102E-03
 -13.736  0.105E-03  0.105E-03
 -13.726  0.107E-03  0.107E-03
 -13.716  0.110E-03  0.110E-03
 -13.706  0.113E-03  0.113E-03
 -13.696  0.116E-03  0.116E-03
 -13.686  0.118E-03  0.118E-03
 -13.676  0.121E-03  0.121E-03
 -13.666  0.124E-03  0.124E-03
 -13.656  0.126E-03  0.126E-03
 -13.646  0.129E-03  0.129E-03
 -13.636  0.131E-03  0.131E-03
 -13.626  0.134E-03  0.134E-03
 -13.616  0.136E-03  0.136E-03
 -13.606  0.138E-03  0.138E-03
 -13.596  0.140E-03  0.140E-03
 -13.586  0.142E-03  0.142E-03
 -13.576  0.144E-03  0.144E-03
 -13.566  0.146E-03  0.146E-03
 -13.556  0.148E-03  0.148E-03
 -13.546  0.150E-03  0.150E-03
 -13.536  0.152E-03  0.152E-03
 -13.526  0.153E-03  0.153E-03
 -13.516  0.155E-03  0.155E-03
 -13.506  0.156E-03  0.156E-03
 -13.496  0.158E-03  0.158E-03
 -13.486  0.159E-03  0.159E-03
 -13.476  0.160E-03  0.160E-03
 -13.466  0.161E-03  0.161E-03
 -13.456  0.162E-03  0.162E-03
 -13.446  0.162E-03  0.162E-03
 -13.436  0.163E-03  0.163E-03
 -13.426  0.163E-03  0.163E-03
 -13.416  0.164E-03  0.164E-03
 -13.406  0.164E-03  0.164E-03
 -13.396  0.164E-03  0.164E-03
 -13.386  0.164E-03  0.164E-03
 -13.376  0.164E-03  0.164E-03
 -13.366  0.164E-03  0.164E-03
 -13.356  0.164E-03  0.164E-03
 -13.346  0.163E-03  0.163E-03
 -13.336  0.163E-03  0.163E-03
 -13.326  0.162E-03  0.162E-03
 -13.316  0.161E-03  0.161E-03
 -13.306  0.161E-03  0.161E-03
 -13.296  0.160E-03  0.160E-03
 -13.286  0.158E-03  0.158E-03
 -13.276  0.157E-03  0.157E-03
 -13.266  0.156E-03  0.156E-03
 -13.256  0.155E-03  0.155E-03
 -13.246  0.153E-03  0.153E-03
 -13.236  0.151E-03  0.151E-03
 -13.226  0.150E-03  0.150E-03
 -13.216  0.148E-03  0.148E-03
 -13.206  0.146E-03  0.146E-03
 -13.196  0.144E-03  0.144E-03
 -13.186  0.142E-03  0.142E-03
 -13.176  0.140E-03  0.140E-03
 -13.166  0.138E-03  0.138E-03
 -13.156  0.135E-03  0.135E-03
 -13.146  0.133E-03  0.133E-03
 -13.136  0.131E-03  0.131E-03
 -13.126  0.128E-03  0.128E-03
 -13.116  0.126E-03  0.126E-03
 -13.106  0.123E-03  0.123E-03
 -13.096  0.120E-03  0.120E-03
 -13.086  0.118E-03  0.118E-03
 -13.076  0.115E-03  0.115E-03
 -13.066  0.112E-03  0.112E-03
 -13.056  0.110E-03  0.110E-03
 -13.046  0.107E-03  0.107E-03
 -13.036  0.104E-03  0.104E-03
 -13.026  0.101E-03  0.101E-03
 -13.016  0.981E-04  0.981E-04
 -13.006  0.952E-04  0.952E-04
 -12.996  0.923E-04  0.923E-04
 -12.986  0.894E-04  0.894E-04
 -12.976  0.865E-04  0.865E-04
 -12.966  0.836E-04  0.836E-04
 -12.956  0.807E-04  0.807E-04
 -12.946  0.778E-04  0.778E-04
 -12.936  0.750E-04  0.750E-04
 -12.926  0.721E-04  0.721E-04
 -12.916  0.692E-04  0.692E-04
 -12.906  0.664E-04  0.664E-04
 -12.896  0.636E-04  0.636E-04
 -12.886  0.609E-04  0.609E-04
 -12.876  0.581E-04  0.581E-04
 -12.866  0.554E-04  0.554E-04
 -12.856  0.527E-04  0.527E-04
 -12.846  0.501E-04  0.501E-04
 -12.836  0.475E-04  0.475E-04
 -12.826  0.449E-04  0.449E-04
 -12.816  0.424E-04  0.424E-04
 -12.806  0.400E-04  0.400E-04
 -12.796  0.375E-04  0.375E-04
 -12.786  0.352E-04  0.352E-04
 -12.776  0.328E-04  0.328E-04
 -12.766  0.306E-04  0.306E-04
 -12.756  0.283E-04  0.283E-04
 -12.746  0.262E-04  0.262E-04
 -12.736  0.240E-04  0.240E-04
 -12.726  0.220E-04  0.220E-04
 -12.716  0.200E-04  0.200E-04
 -12.706  0.180E-04  0.180E-04
 -12.696  0.161E-04  0.161E-04
 -12.686  0.142E-04  0.142E-04
 -12.676  0.124E-04  0.124E-04
 -12.666  0.107E-04  0.107E-04
 -12.656  0.902E-05  0.902E-05
 -12.646  0.739E-05  0.739E-05
 -12.636  0.581E-05  0.581E-05
 -12.626  0.429E-05  0.429E-05
 -12.616  0.281E-05  0.281E-05
 -12.606  0.140E-05  0.140E-05
 -12.596  0.305E-07  0.305E-07
 -12.586 -0.128E-05 -0.128E-05
 -12.576 -0.255E-05 -0.255E-05
 -12.566 -0.376E-05 -0.376E-05
 -12.556 -0.493E-05 -0.493E-05
 -12.546 -0.604E-05 -0.604E-05
 -12.536 -0.711E-05 -0.711E-05
 -12.526 -0.813E-05 -0.813E-05
 -12.516 -0.911E-05 -0.911E-05
 -12.506 -0.100E-04 -0.100E-04
 -12.496 -0.109E-04 -0.109E-04
 -12.486 -0.118E-04 -0.118E-04
 -12.476 -0.126E-04 -0.126E-04
 -12.466 -0.133E-04 -0.133E-04
 -12.456 -0.140E-04 -0.140E-04
 -12.446 -0.147E-04 -0.147E-04
 -12.436 -0.154E-04 -0.154E-04
 -12.426 -0.160E-04 -0.160E-04
 -12.416 -0.165E-04 -0.165E-04
 -12.406 -0.171E-04 -0.171E-04
 -12.396 -0.175E-04 -0.175E-04
 -12.386 -0.180E-04 -0.180E-04
 -12.376 -0.184E-04 -0.184E-04
 -12.366 -0.188E-04 -0.188E-04
 -12.356 -0.191E-04 -0.191E-04
 -12.346 -0.194E-04 -0.194E-04
 -12.336 -0.197E-04 -0.197E-04
 -12.326 -0.200E-04 -0.200E-04
 -12.316 -0.202E-04 -0.202E-04
 -12.306 -0.203E-04 -0.203E-04
 -12.296 -0.205E-04 -0.205E-04
 -12.286 -0.206E-04 -0.206E-04
 -12.276 -0.207E-04 -0.207E-04
 -12.266 -0.207E-04 -0.207E-04
 -12.256 -0.207E-04 -0.207E-04
 -12.246 -0.206E-04 -0.206E-04
 -12.236 -0.206E-04 -0.206E-04
 -12.226 -0.204E-04 -0.204E-04
 -12.216 -0.203E-04 -0.203E-04
 -12.206 -0.201E-04 -0.201E-04
 -12.196 -0.199E-04 -0.199E-04
 -12.186 -0.196E-04 -0.196E-04
 -12.176 -0.193E-04 -0.193E-04
 -12.166 -0.189E-04 -0.189E-04
 -12.156 -0.185E-04 -0.185E-04
 -12.146 -0.180E-04 -0.180E-04
 -12.136 -0.175E-04 -0.175E-04
 -12.126 -0.170E-04 -0.170E-04
 -12.116 -0.164E-04 -0.164E-04
 -12.106 -0.157E-04 -0.157E-04
 -12.096 -0.150E-04 -0.150E-04
 -12.086 -0.143E-04 -0.143E-04
 -12.076 -0.135E-04 -0.135E-04
 -12.066 -0.126E-04 -0.126E-04
 -12.056 -0.117E-04 -0.117E-04
 -12.046 -0.107E-04 -0.107E-04
 -12.036 -0.963E-05 -0.963E-05
 -12.026 -0.852E-05 -0.852E-05
 -12.016 -0.734E-05 -0.734E-05
 -12.006 -0.609E-05 -0.609E-05
 -11.996 -0.477E-05 -0.477E-05
 -11.986 -0.339E-05 -0.339E-05
 -11.976 -0.194E-05 -0.194E-05
 -11.966 -0.411E-06 -0.411E-06
 -11.956  0.119E-05  0.119E-05
 -11.946  0.286E-05  0.286E-05
 -11.936  0.461E-05  0.461E-05
 -11.926  0.643E-05  0.643E-05
 -11.916  0.833E-05  0.833E-05
 -11.906  0.103E-04  0.103E-04
 -11.896  0.124E-04  0.124E-04
 -11.886  0.145E-04  0.145E-04
 -11.876  0.167E-04  0.167E-04
 -11.866  0.190E-04  0.190E-04
 -11.856  0.214E-04  0.214E-04
 -11.846  0.238E-04  0.238E-04
 -11.836  0.264E-04  0.264E-04
 -11.826  0.290E-04  0.290E-04
 -11.816  0.317E-04  0.317E-04
 -11.806  0.344E-04  0.344E-04
 -11.796  0.373E-04  0.373E-04
 -11.786  0.402E-04  0.402E-04
 -11.776  0.432E-04  0.432E-04
 -11.766  0.463E-04  0.463E-04
 -11.756  0.494E-04  0.494E-04
 -11.746  0.526E-04  0.526E-04
 -11.736  0.559E-04  0.559E-04
 -11.726  0.592E-04  0.592E-04
 -11.716  0.626E-04  0.626E-04
 -11.706  0.661E-04  0.661E-04
 -11.696  0.696E-04  0.696E-04
 -11.686  0.732E-04  0.732E-04
 -11.676  0.768E-04  0.768E-04
 -11.666  0.805E-04  0.805E-04
 -11.656  0.842E-04  0.842E-04
 -11.646  0.880E-04  0.880E-04
 -11.636  0.918E-04  0.918E-04
 -11.626  0.956E-04  0.956E-04
 -11.616  0.995E-04  0.995E-04
 -11.606  0.103E-03  0.103E-03
 -11.596  0.107E-03  0.107E-03
 -11.586  0.111E-03  0.111E-03
 -11.576  0.115E-03  0.115E-03
 -11.566  0.119E-03  0.119E-03
 -11.556  0.123E-03  0.123E-03
 -11.546  0.127E-03  0.127E-03
 -11.536  0.131E-03  0.131E-03
 -11.526  0.135E-03  0.135E-03
 -11.516  0.139E-03  0.139E-03
 -11.506  0.142E-03  0.142E-03
 -11.496  0.146E-03  0.146E-03
 -11.486  0.150E-03  0.150E-03
 -11.476  0.154E-03  0.154E-03
 -11.466  0.157E-03  0.157E-03
 -11.456  0.161E-03  0.161E-03
 -11.446  0.165E-03  0.165E-03
 -11.436  0.168E-03  0.168E-03
 -11.426  0.171E-03  0.171E-03
 -11.416  0.175E-03  0.175E-03
 -11.406  0.178E-03  0.178E-03
 -11.396  0.181E-03  0.181E-03
 -11.386  0.184E-03  0.184E-03
 -11.376  0.187E-03  0.187E-03
 -11.366  0.190E-03  0.190E-03
 -11.356  0.193E-03  0.193E-03
 -11.346  0.195E-03  0.195E-03
 -11.336  0.198E-03  0.198E-03
 -11.326  0.200E-03  0.200E-03
 -11.316  0.202E-03  0.202E-03
 -11.306  0.204E-03  0.204E-03
 -11.296  0.206E-03  0.206E-03
 -11.286  0.208E-03  0.208E-03
 -11.276  0.209E-03  0.209E-03
 -11.266  0.211E-03  0.211E-03
 -11.256  0.212E-03  0.212E-03
 -11.246  0.213E-03  0.213E-03
 -11.236  0.214E-03  0.214E-03
 -11.226  0.214E-03  0.214E-03
 -11.216  0.215E-03  0.215E-03
 -11.206  0.215E-03  0.215E-03
 -11.196  0.215E-03  0.215E-03
 -11.186  0.215E-03  0.215E-03
 -11.176  0.214E-03  0.214E-03
 -11.166  0.214E-03  0.214E-03
 -11.156  0.213E-03  0.213E-03
 -11.146  0.212E-03  0.212E-03
 -11.136  0.211E-03  0.211E-03
 -11.126  0.209E-03  0.209E-03
 -11.116  0.208E-03  0.208E-03
 -11.106  0.206E-03  0.206E-03
 -11.096  0.204E-03  0.204E-03
 -11.086  0.201E-03  0.201E-03
 -11.076  0.199E-03  0.199E-03
 -11.066  0.196E-03  0.196E-03
 -11.056  0.192E-03  0.192E-03
 -11.046  0.189E-03  0.189E-03
 -11.036  0.185E-03  0.185E-03
 -11.026  0.181E-03  0.181E-03
 -11.016  0.177E-03  0.177E-03
 -11.006  0.173E-03  0.173E-03
 -10.996  0.168E-03  0.168E-03
 -10.986  0.163E-03  0.163E-03
 -10.976  0.158E-03  0.158E-03
 -10.966  0.152E-03  0.152E-03
 -10.956  0.146E-03  0.146E-03
 -10.946  0.140E-03  0.140E-03
 -10.936  0.134E-03  0.134E-03
 -10.926  0.127E-03  0.127E-03
 -10.916  0.120E-03  0.120E-03
 -10.906  0.113E-03  0.113E-03
 -10.896  0.105E-03  0.105E-03
 -10.886  0.970E-04  0.970E-04
 -10.876  0.886E-04  0.886E-04
 -10.866  0.799E-04  0.799E-04
 -10.856  0.709E-04  0.709E-04
 -10.846  0.614E-04  0.614E-04
 -10.836  0.517E-04  0.517E-04
 -10.826  0.415E-04  0.415E-04
 -10.816  0.310E-04  0.310E-04
 -10.806  0.201E-04  0.201E-04
 -10.796  0.873E-05  0.873E-05
 -10.786 -0.302E-05 -0.302E-05
 -10.776 -0.152E-04 -0.152E-04
 -10.766 -0.278E-04 -0.278E-04
 -10.756 -0.409E-04 -0.409E-04
 -10.746 -0.544E-04 -0.544E-04
 -10.736 -0.684E-04 -0.684E-04
 -10.726 -0.828E-04 -0.828E-04
 -10.716 -0.978E-04 -0.978E-04
 -10.706 -0.113E-03 -0.113E-03
 -10.696 -0.129E-03 -0.129E-03
 -10.686 -0.146E-03 -0.146E-03
 -10.676 -0.163E-03 -0.163E-03
 -10.666 -0.181E-03 -0.181E-03
 -10.656 -0.199E-03 -0.199E-03
 -10.646 -0.218E-03 -0.218E-03
 -10.636 -0.237E-03 -0.237E-03
 -10.626 -0.257E-03 -0.257E-03
 -10.616 -0.278E-03 -0.278E-03
 -10.606 -0.299E-03 -0.299E-03
 -10.596 -0.321E-03 -0.321E-03
 -10.586 -0.344E-03 -0.344E-03
 -10.576 -0.368E-03 -0.368E-03
 -10.566 -0.392E-03 -0.392E-03
 -10.556 -0.417E-03 -0.417E-03
 -10.546 -0.442E-03 -0.442E-03
 -10.536 -0.468E-03 -0.468E-03
 -10.526 -0.495E-03 -0.495E-03
 -10.516 -0.523E-03 -0.523E-03
 -10.506 -0.552E-03 -0.552E-03
 -10.496 -0.581E-03 -0.581E-03
 -10.486 -0.611E-03 -0.611E-03
 -10.476 -0.642E-03 -0.642E-03
 -10.466 -0.673E-03 -0.673E-03
 -10.456 -0.706E-03 -0.706E-03
 -10.446 -0.739E-03 -0.739E-03
 -10.436 -0.772E-03 -0.772E-03
 -10.426 -0.807E-03 -0.807E-03
 -10.416 -0.842E-03 -0.842E-03
 -10.406 -0.878E-03 -0.878E-03
 -10.396 -0.914E-03 -0.914E-03
 -10.386 -0.951E-03 -0.951E-03
 -10.376 -0.989E-03 -0.989E-03
 -10.366 -0.103E-02 -0.103E-02
 -10.356 -0.107E-02 -0.107E-02
 -10.346 -0.111E-02 -0.111E-02
 -10.336 -0.115E-02 -0.115E-02
 -10.326 -0.119E-02 -0.119E-02
 -10.316 -0.123E-02 -0.123E-02
 -10.306 -0.127E-02 -0.127E-02
 -10.296 -0.131E-02 -0.131E-02
 -10.286 -0.135E-02 -0.135E-02
 -10.276 -0.139E-02 -0.139E-02
 -10.266 -0.143E-02 -0.143E-02
 -10.256 -0.147E-02 -0.147E-02
 -10.246 -0.151E-02 -0.151E-02
 -10.236 -0.155E-02 -0.155E-02
 -10.226 -0.159E-02 -0.159E-02
 -10.216 -0.163E-02 -0.163E-02
 -10.206 -0.167E-02 -0.167E-02
 -10.196 -0.171E-02 -0.171E-02
 -10.186 -0.175E-02 -0.175E-02
 -10.176 -0.178E-02 -0.178E-02
 -10.166 -0.182E-02 -0.182E-02
 -10.156 -0.185E-02 -0.185E-02
 -10.146 -0.188E-02 -0.188E-02
 -10.136 -0.191E-02 -0.191E-02
 -10.126 -0.194E-02 -0.194E-02
 -10.116 -0.197E-02 -0.197E-02
 -10.106 -0.199E-02 -0.199E-02
 -10.096 -0.201E-02 -0.201E-02
 -10.086 -0.203E-02 -0.203E-02
 -10.076 -0.204E-02 -0.204E-02
 -10.066 -0.205E-02 -0.205E-02
 -10.056 -0.206E-02 -0.206E-02
 -10.046 -0.207E-02 -0.207E-02
 -10.036 -0.207E-02 -0.207E-02
 -10.026 -0.206E-02 -0.206E-02
 -10.016 -0.205E-02 -0.205E-02
 -10.006 -0.204E-02 -0.204E-02
  -9.996 -0.202E-02 -0.202E-02
  -9.986 -0.200E-02 -0.200E-02
  -9.976 -0.197E-02 -0.197E-02
  -9.966 -0.193E-02 -0.193E-02
  -9.956 -0.189E-02 -0.189E-02
  -9.946 -0.184E-02 -0.184E-02
  -9.936 -0.178E-02 -0.178E-02
  -9.926 -0.172E-02 -0.172E-02
  -9.916 -0.165E-02 -0.165E-02
  -9.906 -0.157E-02 -0.157E-02
  -9.896 -0.148E-02 -0.148E-02
  -9.886 -0.138E-02 -0.138E-02
  -9.876 -0.128E-02 -0.128E-02
  -9.866 -0.116E-02 -0.116E-02
  -9.856 -0.104E-02 -0.104E-02
  -9.846 -0.903E-03 -0.903E-03
  -9.836 -0.759E-03 -0.759E-03
  -9.826 -0.604E-03 -0.604E-03
  -9.816 -0.437E-03 -0.437E-03
  -9.806 -0.260E-03 -0.260E-03
  -9.796 -0.712E-04 -0.712E-04
  -9.786  0.129E-03  0.129E-03
  -9.776  0.342E-03  0.342E-03
  -9.766  0.567E-03  0.567E-03
  -9.756  0.805E-03  0.805E-03
  -9.746  0.106E-02  0.106E-02
  -9.736  0.132E-02  0.132E-02
  -9.726  0.160E-02  0.160E-02
  -9.716  0.189E-02  0.189E-02
  -9.706  0.219E-02  0.219E-02
  -9.696  0.251E-02  0.251E-02
  -9.686  0.284E-02  0.284E-02
  -9.676  0.319E-02  0.319E-02
  -9.666  0.355E-02  0.355E-02
  -9.656  0.392E-02  0.392E-02
  -9.646  0.431E-02  0.431E-02
  -9.636  0.471E-02  0.471E-02
  -9.626  0.513E-02  0.513E-02
  -9.616  0.556E-02  0.556E-02
  -9.606  0.601E-02  0.601E-02
  -9.596  0.647E-02  0.647E-02
  -9.586  0.695E-02  0.695E-02
  -9.576  0.743E-02  0.743E-02
  -9.566  0.794E-02  0.794E-02
  -9.556  0.846E-02  0.846E-02
  -9.546  0.899E-02  0.899E-02
  -9.536  0.953E-02  0.953E-02
  -9.526  0.101E-01  0.101E-01
  -9.516  0.107E-01  0.107E-01
  -9.506  0.112E-01  0.112E-01
  -9.496  0.118E-01  0.118E-01
  -9.486  0.124E-01  0.124E-01
  -9.476  0.131E-01  0.131E-01
  -9.466  0.137E-01  0.137E-01
  -9.456  0.143E-01  0.143E-01
  -9.446  0.150E-01  0.150E-01
  -9.436  0.156E-01  0.156E-01
  -9.426  0.163E-01  0.163E-01
  -9.416  0.170E-01  0.170E-01
  -9.406  0.177E-01  0.177E-01
  -9.396  0.183E-01  0.183E-01
  -9.386  0.190E-01  0.190E-01
  -9.376  0.197E-01  0.197E-01
  -9.366  0.205E-01  0.205E-01
  -9.356  0.212E-01  0.212E-01
  -9.346  0.219E-01  0.219E-01
  -9.336  0.226E-01  0.226E-01
  -9.326  0.233E-01  0.233E-01
  -9.316  0.240E-01  0.240E-01
  -9.306  0.247E-01  0.247E-01
  -9.296  0.255E-01  0.255E-01
  -9.286  0.262E-01  0.262E-01
  -9.276  0.269E-01  0.269E-01
  -9.266  0.276E-01  0.276E-01
  -9.256  0.283E-01  0.283E-01
  -9.246  0.290E-01  0.290E-01
  -9.236  0.297E-01  0.297E-01
  -9.226  0.304E-01  0.304E-01
  -9.216  0.311E-01  0.311E-01
  -9.206  0.317E-01  0.317E-01
  -9.196  0.324E-01  0.324E-01
  -9.186  0.331E-01  0.331E-01
  -9.176  0.337E-01  0.337E-01
  -9.166  0.343E-01  0.343E-01
  -9.156  0.349E-01  0.349E-01
  -9.146  0.355E-01  0.355E-01
  -9.136  0.361E-01  0.361E-01
  -9.126  0.367E-01  0.367E-01
  -9.116  0.372E-01  0.372E-01
  -9.106  0.378E-01  0.378E-01
  -9.096  0.383E-01  0.383E-01
  -9.086  0.388E-01  0.388E-01
  -9.076  0.393E-01  0.393E-01
  -9.066  0.397E-01  0.397E-01
  -9.056  0.402E-01  0.402E-01
  -9.046  0.406E-01  0.406E-01
  -9.036  0.410E-01  0.410E-01
  -9.026  0.414E-01  0.414E-01
  -9.016  0.417E-01  0.417E-01
  -9.006  0.421E-01  0.421E-01
  -8.996  0.424E-01  0.424E-01
  -8.986  0.426E-01  0.426E-01
  -8.976  0.429E-01  0.429E-01
  -8.966  0.431E-01  0.431E-01
  -8.956  0.433E-01  0.433E-01
  -8.946  0.435E-01  0.435E-01
  -8.936  0.437E-01  0.437E-01
  -8.926  0.438E-01  0.438E-01
  -8.916  0.439E-01  0.439E-01
  -8.906  0.440E-01  0.440E-01
  -8.896  0.441E-01  0.441E-01
  -8.886  0.441E-01  0.441E-01
  -8.876  0.441E-01  0.441E-01
  -8.866  0.441E-01  0.441E-01
  -8.856  0.441E-01  0.441E-01
  -8.846  0.440E-01  0.440E-01
  -8.836  0.440E-01  0.440E-01
  -8.826  0.439E-01  0.439E-01
  -8.816  0.437E-01  0.437E-01
  -8.806  0.436E-01  0.436E-01
  -8.796  0.434E-01  0.434E-01
  -8.786  0.432E-01  0.432E-01
  -8.776  0.430E-01  0.430E-01
  -8.766  0.428E-01  0.428E-01
  -8.756  0.425E-01  0.425E-01
  -8.746  0.422E-01  0.422E-01
  -8.736  0.420E-01  0.420E-01
  -8.726  0.416E-01  0.416E-01
  -8.716  0.413E-01  0.413E-01
  -8.706  0.410E-01  0.410E-01
  -8.696  0.406E-01  0.406E-01
  -8.686  0.402E-01  0.402E-01
  -8.676  0.399E-01  0.399E-01
  -8.666  0.395E-01  0.395E-01
  -8.656  0.390E-01  0.390E-01
  -8.646  0.386E-01  0.386E-01
  -8.636  0.382E-01  0.382E-01
  -8.626  0.377E-01  0.377E-01
  -8.616  0.373E-01  0.373E-01
  -8.606  0.368E-01  0.368E-01
  -8.596  0.364E-01  0.364E-01
  -8.586  0.359E-01  0.359E-01
  -8.576  0.354E-01  0.354E-01
  -8.566  0.349E-01  0.349E-01
  -8.556  0.344E-01  0.344E-01
  -8.546  0.339E-01  0.339E-01
  -8.536  0.334E-01  0.334E-01
  -8.526  0.329E-01  0.329E-01
  -8.516  0.324E-01  0.324E-01
  -8.506  0.319E-01  0.319E-01
  -8.496  0.315E-01  0.315E-01
  -8.486  0.310E-01  0.310E-01
  -8.476  0.305E-01  0.305E-01
  -8.466  0.300E-01  0.300E-01
  -8.456  0.295E-01  0.295E-01
  -8.446  0.290E-01  0.290E-01
  -8.436  0.285E-01  0.285E-01
  -8.426  0.281E-01  0.281E-01
  -8.416  0.276E-01  0.276E-01
  -8.406  0.271E-01  0.271E-01
  -8.396  0.267E-01  0.267E-01
  -8.386  0.262E-01  0.262E-01
  -8.376  0.258E-01  0.258E-01
  -8.366  0.254E-01  0.254E-01
  -8.356  0.250E-01  0.250E-01
  -8.346  0.246E-01  0.246E-01
  -8.336  0.242E-01  0.242E-01
  -8.326  0.238E-01  0.238E-01
  -8.316  0.234E-01  0.234E-01
  -8.306  0.231E-01  0.231E-01
  -8.296  0.227E-01  0.227E-01
  -8.286  0.224E-01  0.224E-01
  -8.276  0.221E-01  0.221E-01
  -8.266  0.217E-01  0.217E-01
  -8.256  0.215E-01  0.215E-01
  -8.246  0.212E-01  0.212E-01
  -8.236  0.209E-01  0.209E-01
  -8.226  0.206E-01  0.206E-01
  -8.216  0.204E-01  0.204E-01
  -8.206  0.202E-01  0.202E-01
  -8.196  0.200E-01  0.200E-01
  -8.186  0.198E-01  0.198E-01
  -8.176  0.196E-01  0.196E-01
  -8.166  0.194E-01  0.194E-01
  -8.156  0.193E-01  0.193E-01
  -8.146  0.191E-01  0.191E-01
  -8.136  0.190E-01  0.190E-01
  -8.126  0.189E-01  0.189E-01
  -8.116  0.188E-01  0.188E-01
  -8.106  0.187E-01  0.187E-01
  -8.096  0.187E-01  0.187E-01
  -8.086  0.186E-01  0.186E-01
  -8.076  0.186E-01  0.186E-01
  -8.066  0.186E-01  0.186E-01
  -8.056  0.185E-01  0.185E-01
  -8.046  0.186E-01  0.186E-01
  -8.036  0.186E-01  0.186E-01
  -8.026  0.186E-01  0.186E-01
  -8.016  0.187E-01  0.187E-01
  -8.006  0.187E-01  0.187E-01
  -7.996  0.188E-01  0.188E-01
  -7.986  0.189E-01  0.189E-01
  -7.976  0.190E-01  0.190E-01
  -7.966  0.191E-01  0.191E-01
  -7.956  0.192E-01  0.192E-01
  -7.946  0.194E-01  0.194E-01
  -7.936  0.195E-01  0.195E-01
  -7.926  0.197E-01  0.197E-01
  -7.916  0.198E-01  0.198E-01
  -7.906  0.200E-01  0.200E-01
  -7.896  0.202E-01  0.202E-01
  -7.886  0.204E-01  0.204E-01
  -7.876  0.206E-01  0.206E-01
  -7.866  0.209E-01  0.209E-01
  -7.856  0.211E-01  0.211E-01
  -7.846  0.213E-01  0.213E-01
  -7.836  0.216E-01  0.216E-01
  -7.826  0.219E-01  0.219E-01
  -7.816  0.221E-01  0.221E-01
  -7.806  0.224E-01  0.224E-01
  -7.796  0.227E-01  0.227E-01
  -7.786  0.230E-01  0.230E-01
  -7.776  0.232E-01  0.232E-01
  -7.766  0.235E-01  0.235E-01
  -7.756  0.238E-01  0.238E-01
  -7.746  0.241E-01  0.241E-01
  -7.736  0.245E-01  0.245E-01
  -7.726  0.248E-01  0.248E-01
  -7.716  0.251E-01  0.251E-01
  -7.706  0.254E-01  0.254E-01
  -7.696  0.257E-01  0.257E-01
  -7.686  0.260E-01  0.260E-01
  -7.676  0.264E-01  0.264E-01
  -7.666  0.267E-01  0.267E-01
  -7.656  0.270E-01  0.270E-01
  -7.646  0.273E-01  0.273E-01
  -7.636  0.276E-01  0.276E-01
  -7.626  0.280E-01  0.280E-01
  -7.616  0.283E-01  0.283E-01
  -7.606  0.286E-01  0.286E-01
  -7.596  0.289E-01  0.289E-01
  -7.586  0.292E-01  0.292E-01
  -7.576  0.295E-01  0.295E-01
  -7.566  0.298E-01  0.298E-01
  -7.556  0.301E-01  0.301E-01
  -7.546  0.304E-01  0.304E-01
  -7.536  0.306E-01  0.306E-01
  -7.526  0.309E-01  0.309E-01
  -7.516  0.312E-01  0.312E-01
  -7.506  0.314E-01  0.314E-01
  -7.496  0.317E-01  0.317E-01
  -7.486  0.319E-01  0.319E-01
  -7.476  0.321E-01  0.321E-01
  -7.466  0.323E-01  0.323E-01
  -7.456  0.325E-01  0.325E-01
  -7.446  0.327E-01  0.327E-01
  -7.436  0.329E-01  0.329E-01
  -7.426  0.331E-01  0.331E-01
  -7.416  0.332E-01  0.332E-01
  -7.406  0.334E-01  0.334E-01
  -7.396  0.335E-01  0.335E-01
  -7.386  0.336E-01  0.336E-01
  -7.376  0.337E-01  0.337E-01
  -7.366  0.338E-01  0.338E-01
  -7.356  0.339E-01  0.339E-01
  -7.346  0.339E-01  0.339E-01
  -7.336  0.339E-01  0.339E-01
  -7.326  0.340E-01  0.340E-01
  -7.316  0.340E-01  0.340E-01
  -7.306  0.340E-01  0.340E-01
  -7.296  0.340E-01  0.340E-01
  -7.286  0.339E-01  0.339E-01
  -7.276  0.339E-01  0.339E-01
  -7.266  0.338E-01  0.338E-01
  -7.256  0.337E-01  0.337E-01
  -7.246  0.336E-01  0.336E-01
  -7.236  0.335E-01  0.335E-01
  -7.226  0.334E-01  0.334E-01
  -7.216  0.332E-01  0.332E-01
  -7.206  0.330E-01  0.330E-01
  -7.196  0.329E-01  0.329E-01
  -7.186  0.327E-01  0.327E-01
  -7.176  0.325E-01  0.325E-01
  -7.166  0.322E-01  0.322E-01
  -7.156  0.320E-01  0.320E-01
  -7.146  0.317E-01  0.317E-01
  -7.136  0.314E-01  0.314E-01
  -7.126  0.311E-01  0.311E-01
  -7.116  0.308E-01  0.308E-01
  -7.106  0.305E-01  0.305E-01
  -7.096  0.302E-01  0.302E-01
  -7.086  0.298E-01  0.298E-01
  -7.076  0.295E-01  0.295E-01
  -7.066  0.291E-01  0.291E-01
  -7.056  0.287E-01  0.287E-01
  -7.046  0.283E-01  0.283E-01
  -7.036  0.279E-01  0.279E-01
  -7.026  0.275E-01  0.275E-01
  -7.016  0.271E-01  0.271E-01
  -7.006  0.266E-01  0.266E-01
  -6.996  0.262E-01  0.262E-01
  -6.986  0.257E-01  0.257E-01
  -6.976  0.253E-01  0.253E-01
  -6.966  0.248E-01  0.248E-01
  -6.956  0.243E-01  0.243E-01
  -6.946  0.238E-01  0.238E-01
  -6.936  0.234E-01  0.234E-01
  -6.926  0.229E-01  0.229E-01
  -6.916  0.224E-01  0.224E-01
  -6.906  0.219E-01  0.219E-01
  -6.896  0.214E-01  0.214E-01
  -6.886  0.208E-01  0.208E-01
  -6.876  0.203E-01  0.203E-01
  -6.866  0.198E-01  0.198E-01
  -6.856  0.193E-01  0.193E-01
  -6.846  0.188E-01  0.188E-01
  -6.836  0.183E-01  0.183E-01
  -6.826  0.178E-01  0.178E-01
  -6.816  0.173E-01  0.173E-01
  -6.806  0.168E-01  0.168E-01
  -6.796  0.163E-01  0.163E-01
  -6.786  0.158E-01  0.158E-01
  -6.776  0.153E-01  0.153E-01
  -6.766  0.149E-01  0.149E-01
  -6.756  0.144E-01  0.144E-01
  -6.746  0.140E-01  0.140E-01
  -6.736  0.135E-01  0.135E-01
  -6.726  0.131E-01  0.131E-01
  -6.716  0.126E-01  0.126E-01
  -6.706  0.122E-01  0.122E-01
  -6.696  0.118E-01  0.118E-01
  -6.686  0.114E-01  0.114E-01
  -6.676  0.111E-01  0.111E-01
  -6.666  0.107E-01  0.107E-01
  -6.656  0.103E-01  0.103E-01
  -6.646  0.100E-01  0.100E-01
  -6.636  0.969E-02  0.969E-02
  -6.626  0.939E-02  0.939E-02
  -6.616  0.911E-02  0.911E-02
  -6.606  0.885E-02  0.885E-02
  -6.596  0.860E-02  0.860E-02
  -6.586  0.838E-02  0.838E-02
  -6.576  0.817E-02  0.817E-02
  -6.566  0.798E-02  0.798E-02
  -6.556  0.782E-02  0.782E-02
  -6.546  0.767E-02  0.767E-02
  -6.536  0.755E-02  0.755E-02
  -6.526  0.745E-02  0.745E-02
  -6.516  0.737E-02  0.737E-02
  -6.506  0.731E-02  0.731E-02
  -6.496  0.728E-02  0.728E-02
  -6.486  0.727E-02  0.727E-02
  -6.476  0.728E-02  0.728E-02
  -6.466  0.732E-02  0.732E-02
  -6.456  0.738E-02  0.738E-02
  -6.446  0.746E-02  0.746E-02
  -6.436  0.757E-02  0.757E-02
  -6.426  0.770E-02  0.770E-02
  -6.416  0.785E-02  0.785E-02
  -6.406  0.803E-02  0.803E-02
  -6.396  0.823E-02  0.823E-02
  -6.386  0.846E-02  0.846E-02
  -6.376  0.871E-02  0.871E-02
  -6.366  0.898E-02  0.898E-02
  -6.356  0.927E-02  0.927E-02
  -6.346  0.959E-02  0.959E-02
  -6.336  0.993E-02  0.993E-02
  -6.326  0.103E-01  0.103E-01
  -6.316  0.107E-01  0.107E-01
  -6.306  0.111E-01  0.111E-01
  -6.296  0.115E-01  0.115E-01
  -6.286  0.119E-01  0.119E-01
  -6.276  0.124E-01  0.124E-01
  -6.266  0.129E-01  0.129E-01
  -6.256  0.134E-01  0.134E-01
  -6.246  0.139E-01  0.139E-01
  -6.236  0.144E-01  0.144E-01
  -6.226  0.150E-01  0.150E-01
  -6.216  0.155E-01  0.155E-01
  -6.206  0.161E-01  0.161E-01
  -6.196  0.167E-01  0.167E-01
  -6.186  0.173E-01  0.173E-01
  -6.176  0.179E-01  0.179E-01
  -6.166  0.186E-01  0.186E-01
  -6.156  0.192E-01  0.192E-01
  -6.146  0.198E-01  0.198E-01
  -6.136  0.205E-01  0.205E-01
  -6.126  0.211E-01  0.211E-01
  -6.116  0.218E-01  0.218E-01
  -6.106  0.225E-01  0.225E-01
  -6.096  0.231E-01  0.231E-01
  -6.086  0.238E-01  0.238E-01
  -6.076  0.245E-01  0.245E-01
  -6.066  0.252E-01  0.252E-01
  -6.056  0.258E-01  0.258E-01
  -6.046  0.265E-01  0.265E-01
  -6.036  0.272E-01  0.272E-01
  -6.026  0.278E-01  0.278E-01
  -6.016  0.285E-01  0.285E-01
  -6.006  0.291E-01  0.291E-01
  -5.996  0.298E-01  0.298E-01
  -5.986  0.304E-01  0.304E-01
  -5.976  0.310E-01  0.310E-01
  -5.966  0.316E-01  0.316E-01
  -5.956  0.322E-01  0.322E-01
  -5.946  0.328E-01  0.328E-01
  -5.936  0.334E-01  0.334E-01
  -5.926  0.339E-01  0.339E-01
  -5.916  0.345E-01  0.345E-01
  -5.906  0.350E-01  0.350E-01
  -5.896  0.355E-01  0.355E-01
  -5.886  0.360E-01  0.360E-01
  -5.876  0.365E-01  0.365E-01
  -5.866  0.369E-01  0.369E-01
  -5.856  0.373E-01  0.373E-01
  -5.846  0.378E-01  0.378E-01
  -5.836  0.381E-01  0.381E-01
  -5.826  0.385E-01  0.385E-01
  -5.816  0.389E-01  0.389E-01
  -5.806  0.392E-01  0.392E-01
  -5.796  0.395E-01  0.395E-01
  -5.786  0.398E-01  0.398E-01
  -5.776  0.400E-01  0.400E-01
  -5.766  0.402E-01  0.402E-01
  -5.756  0.404E-01  0.404E-01
  -5.746  0.406E-01  0.406E-01
  -5.736  0.408E-01  0.408E-01
  -5.726  0.409E-01  0.409E-01
  -5.716  0.410E-01  0.410E-01
  -5.706  0.411E-01  0.411E-01
  -5.696  0.412E-01  0.412E-01
  -5.686  0.413E-01  0.413E-01
  -5.676  0.413E-01  0.413E-01
  -5.666  0.413E-01  0.413E-01
  -5.656  0.413E-01  0.413E-01
  -5.646  0.413E-01  0.413E-01
  -5.636  0.412E-01  0.412E-01
  -5.626  0.411E-01  0.411E-01
  -5.616  0.411E-01  0.411E-01
  -5.606  0.410E-01  0.410E-01
  -5.596  0.408E-01  0.408E-01
  -5.586  0.407E-01  0.407E-01
  -5.576  0.406E-01  0.406E-01
  -5.566  0.404E-01  0.404E-01
  -5.556  0.403E-01  0.403E-01
  -5.546  0.401E-01  0.401E-01
  -5.536  0.399E-01  0.399E-01
  -5.526  0.397E-01  0.397E-01
  -5.516  0.395E-01  0.395E-01
  -5.506  0.393E-01  0.393E-01
  -5.496  0.391E-01  0.391E-01
  -5.486  0.389E-01  0.389E-01
  -5.476  0.387E-01  0.387E-01
  -5.466  0.385E-01  0.385E-01
  -5.456  0.383E-01  0.383E-01
  -5.446  0.381E-01  0.381E-01
  -5.436  0.379E-01  0.379E-01
  -5.426  0.377E-01  0.377E-01
  -5.416  0.375E-01  0.375E-01
  -5.406  0.373E-01  0.373E-01
  -5.396  0.371E-01  0.371E-01
  -5.386  0.370E-01  0.370E-01
  -5.376  0.368E-01  0.368E-01
  -5.366  0.367E-01  0.367E-01
  -5.356  0.366E-01  0.366E-01
  -5.346  0.365E-01  0.365E-01
  -5.336  0.364E-01  0.364E-01
  -5.326  0.363E-01  0.363E-01
  -5.316  0.363E-01  0.363E-01
  -5.306  0.363E-01  0.363E-01
  -5.296  0.363E-01  0.363E-01
  -5.286  0.363E-01  0.363E-01
  -5.276  0.364E-01  0.364E-01
  -5.266  0.365E-01  0.365E-01
  -5.256  0.366E-01  0.366E-01
  -5.246  0.367E-01  0.367E-01
  -5.236  0.369E-01  0.369E-01
  -5.226  0.371E-01  0.371E-01
  -5.216  0.373E-01  0.373E-01
  -5.206  0.375E-01  0.375E-01
  -5.196  0.378E-01  0.378E-01
  -5.186  0.382E-01  0.382E-01
  -5.176  0.385E-01  0.385E-01
  -5.166  0.389E-01  0.389E-01
  -5.156  0.393E-01  0.393E-01
  -5.146  0.398E-01  0.398E-01
  -5.136  0.403E-01  0.403E-01
  -5.126  0.408E-01  0.408E-01
  -5.116  0.414E-01  0.414E-01
  -5.106  0.419E-01  0.419E-01
  -5.096  0.426E-01  0.426E-01
  -5.086  0.432E-01  0.432E-01
  -5.076  0.439E-01  0.439E-01
  -5.066  0.447E-01  0.447E-01
  -5.056  0.454E-01  0.454E-01
  -5.046  0.462E-01  0.462E-01
  -5.036  0.471E-01  0.471E-01
  -5.026  0.479E-01  0.479E-01
  -5.016  0.488E-01  0.488E-01
  -5.006  0.498E-01  0.498E-01
  -4.996  0.507E-01  0.507E-01
  -4.986  0.517E-01  0.517E-01
  -4.976  0.527E-01  0.527E-01
  -4.966  0.538E-01  0.538E-01
  -4.956  0.549E-01  0.549E-01
  -4.946  0.560E-01  0.560E-01
  -4.936  0.571E-01  0.571E-01
  -4.926  0.582E-01  0.582E-01
  -4.916  0.594E-01  0.594E-01
  -4.906  0.606E-01  0.606E-01
  -4.896  0.618E-01  0.618E-01
  -4.886  0.631E-01  0.631E-01
  -4.876  0.643E-01  0.643E-01
  -4.866  0.656E-01  0.656E-01
  -4.856  0.669E-01  0.669E-01
  -4.846  0.682E-01  0.682E-01
  -4.836  0.695E-01  0.695E-01
  -4.826  0.708E-01  0.708E-01
  -4.816  0.721E-01  0.721E-01
  -4.806  0.735E-01  0.735E-01
  -4.796  0.748E-01  0.748E-01
  -4.786  0.761E-01  0.761E-01
  -4.776  0.775E-01  0.775E-01
  -4.766  0.788E-01  0.788E-01
  -4.756  0.802E-01  0.802E-01
  -4.746  0.815E-01  0.815E-01
  -4.736  0.828E-01  0.828E-01
  -4.726  0.842E-01  0.842E-01
  -4.716  0.855E-01  0.855E-01
  -4.706  0.868E-01  0.868E-01
  -4.696  0.881E-01  0.881E-01
  -4.686  0.894E-01  0.894E-01
  -4.676  0.907E-01  0.907E-01
  -4.666  0.919E-01  0.919E-01
  -4.656  0.931E-01  0.931E-01
  -4.646  0.944E-01  0.944E-01
  -4.636  0.956E-01  0.956E-01
  -4.626  0.967E-01  0.967E-01
  -4.616  0.979E-01  0.979E-01
  -4.606  0.990E-01  0.990E-01
  -4.596  0.100E+00  0.100E+00
  -4.586  0.101E+00  0.101E+00
  -4.576  0.102E+00  0.102E+00
  -4.566  0.103E+00  0.103E+00
  -4.556  0.104E+00  0.104E+00
  -4.546  0.105E+00  0.105E+00
  -4.536  0.106E+00  0.106E+00
  -4.526  0.107E+00  0.107E+00
  -4.516  0.108E+00  0.108E+00
  -4.506  0.108E+00  0.108E+00
  -4.496  0.109E+00  0.109E+00
  -4.486  0.110E+00  0.110E+00
  -4.476  0.110E+00  0.110E+00
  -4.466  0.111E+00  0.111E+00
  -4.456  0.112E+00  0.112E+00
  -4.446  0.112E+00  0.112E+00
  -4.436  0.113E+00  0.113E+00
  -4.426  0.113E+00  0.113E+00
  -4.416  0.113E+00  0.113E+00
  -4.406  0.114E+00  0.114E+00
  -4.396  0.114E+00  0.114E+00
  -4.386  0.114E+00  0.114E+00
  -4.376  0.115E+00  0.115E+00
  -4.366  0.115E+00  0.115E+00
  -4.356  0.115E+00  0.115E+00
  -4.346  0.115E+00  0.115E+00
  -4.336  0.115E+00  0.115E+00
  -4.326  0.115E+00  0.115E+00
  -4.316  0.115E+00  0.115E+00
  -4.306  0.115E+00  0.115E+00
  -4.296  0.115E+00  0.115E+00
  -4.286  0.114E+00  0.114E+00
  -4.276  0.114E+00  0.114E+00
  -4.266  0.114E+00  0.114E+00
  -4.256  0.113E+00  0.113E+00
  -4.246  0.113E+00  0.113E+00
  -4.236  0.113E+00  0.113E+00
  -4.226  0.112E+00  0.112E+00
  -4.216  0.112E+00  0.112E+00
  -4.206  0.111E+00  0.111E+00
  -4.196  0.110E+00  0.110E+00
  -4.186  0.110E+00  0.110E+00
  -4.176  0.109E+00  0.109E+00
  -4.166  0.108E+00  0.108E+00
  -4.156  0.108E+00  0.108E+00
  -4.146  0.107E+00  0.107E+00
  -4.136  0.106E+00  0.106E+00
  -4.126  0.105E+00  0.105E+00
  -4.116  0.104E+00  0.104E+00
  -4.106  0.103E+00  0.103E+00
  -4.096  0.102E+00  0.102E+00
  -4.086  0.101E+00  0.101E+00
  -4.076  0.100E+00  0.100E+00
  -4.066  0.994E-01  0.994E-01
  -4.056  0.983E-01  0.983E-01
  -4.046  0.973E-01  0.973E-01
  -4.036  0.962E-01  0.962E-01
  -4.026  0.951E-01  0.951E-01
  -4.016  0.940E-01  0.940E-01
  -4.006  0.928E-01  0.928E-01
  -3.996  0.917E-01  0.917E-01
  -3.986  0.905E-01  0.905E-01
  -3.976  0.893E-01  0.893E-01
  -3.966  0.882E-01  0.882E-01
  -3.956  0.870E-01  0.870E-01
  -3.946  0.858E-01  0.858E-01
  -3.936  0.846E-01  0.846E-01
  -3.926  0.834E-01  0.834E-01
  -3.916  0.821E-01  0.821E-01
  -3.906  0.809E-01  0.809E-01
  -3.896  0.797E-01  0.797E-01
  -3.886  0.785E-01  0.785E-01
  -3.876  0.773E-01  0.773E-01
  -3.866  0.761E-01  0.761E-01
  -3.856  0.749E-01  0.749E-01
  -3.846  0.737E-01  0.737E-01
  -3.836  0.725E-01  0.725E-01
  -3.826  0.713E-01  0.713E-01
  -3.816  0.701E-01  0.701E-01
  -3.806  0.690E-01  0.690E-01
  -3.796  0.678E-01  0.678E-01
  -3.786  0.667E-01  0.667E-01
  -3.776  0.656E-01  0.656E-01
  -3.766  0.645E-01  0.645E-01
  -3.756  0.634E-01  0.634E-01
  -3.746  0.623E-01  0.623E-01
  -3.736  0.613E-01  0.613E-01
  -3.726  0.602E-01  0.602E-01
  -3.716  0.592E-01  0.592E-01
  -3.706  0.583E-01  0.583E-01
  -3.696  0.573E-01  0.573E-01
  -3.686  0.564E-01  0.564E-01
  -3.676  0.554E-01  0.554E-01
  -3.666  0.546E-01  0.546E-01
  -3.656  0.537E-01  0.537E-01
  -3.646  0.529E-01  0.529E-01
  -3.636  0.521E-01  0.521E-01
  -3.626  0.513E-01  0.513E-01
  -3.616  0.505E-01  0.505E-01
  -3.606  0.498E-01  0.498E-01
  -3.596  0.492E-01  0.492E-01
  -3.586  0.485E-01  0.485E-01
  -3.576  0.479E-01  0.479E-01
  -3.566  0.473E-01  0.473E-01
  -3.556  0.468E-01  0.468E-01
  -3.546  0.462E-01  0.462E-01
  -3.536  0.458E-01  0.458E-01
  -3.526  0.453E-01  0.453E-01
  -3.516  0.449E-01  0.449E-01
  -3.506  0.445E-01  0.445E-01
  -3.496  0.442E-01  0.442E-01
  -3.486  0.439E-01  0.439E-01
  -3.476  0.436E-01  0.436E-01
  -3.466  0.434E-01  0.434E-01
  -3.456  0.432E-01  0.432E-01
  -3.446  0.431E-01  0.431E-01
  -3.436  0.429E-01  0.429E-01
  -3.426  0.429E-01  0.429E-01
  -3.416  0.428E-01  0.428E-01
  -3.406  0.428E-01  0.428E-01
  -3.396  0.429E-01  0.429E-01
  -3.386  0.429E-01  0.429E-01
  -3.376  0.430E-01  0.430E-01
  -3.366  0.432E-01  0.432E-01
  -3.356  0.434E-01  0.434E-01
  -3.346  0.436E-01  0.436E-01
  -3.336  0.439E-01  0.439E-01
  -3.326  0.442E-01  0.442E-01
  -3.316  0.445E-01  0.445E-01
  -3.306  0.449E-01  0.449E-01
  -3.296  0.453E-01  0.453E-01
  -3.286  0.457E-01  0.457E-01
  -3.276  0.462E-01  0.462E-01
  -3.266  0.467E-01  0.467E-01
  -3.256  0.472E-01  0.472E-01
  -3.246  0.477E-01  0.477E-01
  -3.236  0.483E-01  0.483E-01
  -3.226  0.490E-01  0.490E-01
  -3.216  0.496E-01  0.496E-01
  -3.206  0.503E-01  0.503E-01
  -3.196  0.510E-01  0.510E-01
  -3.186  0.517E-01  0.517E-01
  -3.176  0.525E-01  0.525E-01
  -3.166  0.532E-01  0.532E-01
  -3.156  0.540E-01  0.540E-01
  -3.146  0.549E-01  0.549E-01
  -3.136  0.557E-01  0.557E-01
  -3.126  0.566E-01  0.566E-01
  -3.116  0.574E-01  0.574E-01
  -3.106  0.583E-01  0.583E-01
  -3.096  0.592E-01  0.592E-01
  -3.086  0.601E-01  0.601E-01
  -3.076  0.610E-01  0.610E-01
  -3.066  0.620E-01  0.620E-01
  -3.056  0.629E-01  0.629E-01
  -3.046  0.639E-01  0.639E-01
  -3.036  0.648E-01  0.648E-01
  -3.026  0.658E-01  0.658E-01
  -3.016  0.667E-01  0.667E-01
  -3.006  0.677E-01  0.677E-01
  -2.996  0.686E-01  0.686E-01
  -2.986  0.696E-01  0.696E-01
  -2.976  0.705E-01  0.705E-01
  -2.966  0.714E-01  0.714E-01
  -2.956  0.724E-01  0.724E-01
  -2.946  0.733E-01  0.733E-01
  -2.936  0.742E-01  0.742E-01
  -2.926  0.751E-01  0.751E-01
  -2.916  0.760E-01  0.760E-01
  -2.906  0.768E-01  0.768E-01
  -2.896  0.777E-01  0.777E-01
  -2.886  0.785E-01  0.785E-01
  -2.876  0.793E-01  0.793E-01
  -2.866  0.801E-01  0.801E-01
  -2.856  0.809E-01  0.809E-01
  -2.846  0.817E-01  0.817E-01
  -2.836  0.824E-01  0.824E-01
  -2.826  0.831E-01  0.831E-01
  -2.816  0.838E-01  0.838E-01
  -2.806  0.844E-01  0.844E-01
  -2.796  0.850E-01  0.850E-01
  -2.786  0.856E-01  0.856E-01
  -2.776  0.862E-01  0.862E-01
  -2.766  0.867E-01  0.867E-01
  -2.756  0.872E-01  0.872E-01
  -2.746  0.877E-01  0.877E-01
  -2.736  0.882E-01  0.882E-01
  -2.726  0.886E-01  0.886E-01
  -2.716  0.890E-01  0.890E-01
  -2.706  0.893E-01  0.893E-01
  -2.696  0.896E-01  0.896E-01
  -2.686  0.899E-01  0.899E-01
  -2.676  0.901E-01  0.901E-01
  -2.666  0.904E-01  0.904E-01
  -2.656  0.905E-01  0.905E-01
  -2.646  0.907E-01  0.907E-01
  -2.636  0.908E-01  0.908E-01
  -2.626  0.909E-01  0.909E-01
  -2.616  0.909E-01  0.909E-01
  -2.606  0.910E-01  0.910E-01
  -2.596  0.910E-01  0.910E-01
  -2.586  0.909E-01  0.909E-01
  -2.576  0.908E-01  0.908E-01
  -2.566  0.907E-01  0.907E-01
  -2.556  0.906E-01  0.906E-01
  -2.546  0.905E-01  0.905E-01
  -2.536  0.903E-01  0.903E-01
  -2.526  0.901E-01  0.901E-01
  -2.516  0.898E-01  0.898E-01
  -2.506  0.895E-01  0.895E-01
  -2.496  0.893E-01  0.893E-01
  -2.486  0.889E-01  0.889E-01
  -2.476  0.886E-01  0.886E-01
  -2.466  0.882E-01  0.882E-01
  -2.456  0.879E-01  0.879E-01
  -2.446  0.874E-01  0.874E-01
  -2.436  0.870E-01  0.870E-01
  -2.426  0.866E-01  0.866E-01
  -2.416  0.861E-01  0.861E-01
  -2.406  0.856E-01  0.856E-01
  -2.396  0.851E-01  0.851E-01
  -2.386  0.846E-01  0.846E-01
  -2.376  0.841E-01  0.841E-01
  -2.366  0.836E-01  0.836E-01
  -2.356  0.830E-01  0.830E-01
  -2.346  0.825E-01  0.825E-01
  -2.336  0.819E-01  0.819E-01
  -2.326  0.813E-01  0.813E-01
  -2.316  0.807E-01  0.807E-01
  -2.306  0.801E-01  0.801E-01
  -2.296  0.795E-01  0.795E-01
  -2.286  0.789E-01  0.789E-01
  -2.276  0.783E-01  0.783E-01
  -2.266  0.777E-01  0.777E-01
  -2.256  0.770E-01  0.770E-01
  -2.246  0.764E-01  0.764E-01
  -2.236  0.758E-01  0.758E-01
  -2.226  0.751E-01  0.751E-01
  -2.216  0.745E-01  0.745E-01
  -2.206  0.738E-01  0.738E-01
  -2.196  0.732E-01  0.732E-01
  -2.186  0.726E-01  0.726E-01
  -2.176  0.719E-01  0.719E-01
  -2.166  0.713E-01  0.713E-01
  -2.156  0.706E-01  0.706E-01
  -2.146  0.700E-01  0.700E-01
  -2.136  0.694E-01  0.694E-01
  -2.126  0.687E-01  0.687E-01
  -2.116  0.681E-01  0.681E-01
  -2.106  0.675E-01  0.675E-01
  -2.096  0.669E-01  0.669E-01
  -2.086  0.662E-01  0.662E-01
  -2.076  0.656E-01  0.656E-01
  -2.066  0.650E-01  0.650E-01
  -2.056  0.644E-01  0.644E-01
  -2.046  0.638E-01  0.638E-01
  -2.036  0.632E-01  0.632E-01
  -2.026  0.626E-01  0.626E-01
  -2.016  0.620E-01  0.620E-01
  -2.006  0.615E-01  0.615E-01
  -1.996  0.609E-01  0.609E-01
  -1.986  0.603E-01  0.603E-01
  -1.976  0.598E-01  0.598E-01
  -1.966  0.592E-01  0.592E-01
  -1.956  0.587E-01  0.587E-01
  -1.946  0.581E-01  0.581E-01
  -1.936  0.576E-01  0.576E-01
  -1.926  0.570E-01  0.570E-01
  -1.916  0.565E-01  0.565E-01
  -1.906  0.560E-01  0.560E-01
  -1.896  0.555E-01  0.555E-01
  -1.886  0.550E-01  0.550E-01
  -1.876  0.545E-01  0.545E-01
  -1.866  0.540E-01  0.540E-01
  -1.856  0.535E-01  0.535E-01
  -1.846  0.530E-01  0.530E-01
  -1.836  0.526E-01  0.526E-01
  -1.826  0.521E-01  0.521E-01
  -1.816  0.516E-01  0.516E-01
  -1.806  0.512E-01  0.512E-01
  -1.796  0.508E-01  0.508E-01
  -1.786  0.503E-01  0.503E-01
  -1.776  0.499E-01  0.499E-01
  -1.766  0.495E-01  0.495E-01
  -1.756  0.491E-01  0.491E-01
  -1.746  0.487E-01  0.487E-01
  -1.736  0.483E-01  0.483E-01
  -1.726  0.479E-01  0.479E-01
  -1.716  0.475E-01  0.475E-01
  -1.706  0.472E-01  0.472E-01
  -1.696  0.468E-01  0.468E-01
  -1.686  0.465E-01  0.465E-01
  -1.676  0.461E-01  0.461E-01
  -1.666  0.458E-01  0.458E-01
  -1.656  0.455E-01  0.455E-01
  -1.646  0.452E-01  0.452E-01
  -1.636  0.449E-01  0.449E-01
  -1.626  0.446E-01  0.446E-01
  -1.616  0.443E-01  0.443E-01
  -1.606  0.440E-01  0.440E-01
  -1.596  0.437E-01  0.437E-01
  -1.586  0.435E-01  0.435E-01
  -1.576  0.432E-01  0.432E-01
  -1.566  0.430E-01  0.430E-01
  -1.556  0.428E-01  0.428E-01
  -1.546  0.426E-01  0.426E-01
  -1.536  0.423E-01  0.423E-01
  -1.526  0.421E-01  0.421E-01
  -1.516  0.419E-01  0.419E-01
  -1.506  0.418E-01  0.418E-01
  -1.496  0.416E-01  0.416E-01
  -1.486  0.414E-01  0.414E-01
  -1.476  0.413E-01  0.413E-01
  -1.466  0.411E-01  0.411E-01
  -1.456  0.410E-01  0.410E-01
  -1.446  0.408E-01  0.408E-01
  -1.436  0.407E-01  0.407E-01
  -1.426  0.406E-01  0.406E-01
  -1.416  0.405E-01  0.405E-01
  -1.406  0.404E-01  0.404E-01
  -1.396  0.403E-01  0.403E-01
  -1.386  0.402E-01  0.402E-01
  -1.376  0.401E-01  0.401E-01
  -1.366  0.400E-01  0.400E-01
  -1.356  0.400E-01  0.400E-01
  -1.346  0.399E-01  0.399E-01
  -1.336  0.399E-01  0.399E-01
  -1.326  0.398E-01  0.398E-01
  -1.316  0.397E-01  0.397E-01
  -1.306  0.397E-01  0.397E-01
  -1.296  0.397E-01  0.397E-01
  -1.286  0.396E-01  0.396E-01
  -1.276  0.396E-01  0.396E-01
  -1.266  0.396E-01  0.396E-01
  -1.256  0.395E-01  0.395E-01
  -1.246  0.395E-01  0.395E-01
  -1.236  0.395E-01  0.395E-01
  -1.226  0.394E-01  0.394E-01
  -1.216  0.394E-01  0.394E-01
  -1.206  0.394E-01  0.394E-01
  -1.196  0.394E-01  0.394E-01
  -1.186  0.393E-01  0.393E-01
  -1.176  0.393E-01  0.393E-01
  -1.166  0.393E-01  0.393E-01
  -1.156  0.392E-01  0.392E-01
  -1.146  0.392E-01  0.392E-01
  -1.136  0.392E-01  0.392E-01
  -1.126  0.391E-01  0.391E-01
  -1.116  0.391E-01  0.391E-01
  -1.106  0.390E-01  0.390E-01
  -1.096  0.390E-01  0.390E-01
  -1.086  0.389E-01  0.389E-01
  -1.076  0.389E-01  0.389E-01
  -1.066  0.388E-01  0.388E-01
  -1.056  0.387E-01  0.387E-01
  -1.046  0.386E-01  0.386E-01
  -1.036  0.386E-01  0.386E-01
  -1.026  0.385E-01  0.385E-01
  -1.016  0.384E-01  0.384E-01
  -1.006  0.383E-01  0.383E-01
  -0.996  0.381E-01  0.381E-01
  -0.986  0.380E-01  0.380E-01
  -0.976  0.379E-01  0.379E-01
  -0.966  0.377E-01  0.377E-01
  -0.956  0.376E-01  0.376E-01
  -0.946  0.374E-01  0.374E-01
  -0.936  0.372E-01  0.372E-01
  -0.926  0.371E-01  0.371E-01
  -0.916  0.369E-01  0.369E-01
  -0.906  0.367E-01  0.367E-01
  -0.896  0.365E-01  0.365E-01
  -0.886  0.363E-01  0.363E-01
  -0.876  0.360E-01  0.360E-01
  -0.866  0.358E-01  0.358E-01
  -0.856  0.356E-01  0.356E-01
  -0.846  0.353E-01  0.353E-01
  -0.836  0.350E-01  0.350E-01
  -0.826  0.348E-01  0.348E-01
  -0.816  0.345E-01  0.345E-01
  -0.806  0.342E-01  0.342E-01
  -0.796  0.339E-01  0.339E-01
  -0.786  0.336E-01  0.336E-01
  -0.776  0.333E-01  0.333E-01
  -0.766  0.330E-01  0.330E-01
  -0.756  0.326E-01  0.326E-01
  -0.746  0.323E-01  0.323E-01
  -0.736  0.320E-01  0.320E-01
  -0.726  0.316E-01  0.316E-01
  -0.716  0.312E-01  0.312E-01
  -0.706  0.309E-01  0.309E-01
  -0.696  0.305E-01  0.305E-01
  -0.686  0.302E-01  0.302E-01
  -0.676  0.298E-01  0.298E-01
  -0.666  0.294E-01  0.294E-01
  -0.656  0.290E-01  0.290E-01
  -0.646  0.286E-01  0.286E-01
  -0.636  0.283E-01  0.283E-01
  -0.626  0.279E-01  0.279E-01
  -0.616  0.275E-01  0.275E-01
  -0.606  0.271E-01  0.271E-01
  -0.596  0.267E-01  0.267E-01
  -0.586  0.263E-01  0.263E-01
  -0.576  0.259E-01  0.259E-01
  -0.566  0.256E-01  0.256E-01
  -0.556  0.252E-01  0.252E-01
  -0.546  0.248E-01  0.248E-01
  -0.536  0.245E-01  0.245E-01
  -0.526  0.241E-01  0.241E-01
  -0.516  0.237E-01  0.237E-01
  -0.506  0.234E-01  0.234E-01
  -0.496  0.231E-01  0.231E-01
  -0.486  0.227E-01  0.227E-01
  -0.476  0.224E-01  0.224E-01
  -0.466  0.221E-01  0.221E-01
  -0.456  0.218E-01  0.218E-01
  -0.446  0.215E-01  0.215E-01
  -0.436  0.212E-01  0.212E-01
  -0.426  0.210E-01  0.210E-01
  -0.416  0.207E-01  0.207E-01
  -0.406  0.205E-01  0.205E-01
  -0.396  0.203E-01  0.203E-01
  -0.386  0.200E-01  0.200E-01
  -0.376  0.199E-01  0.199E-01
  -0.366  0.197E-01  0.197E-01
  -0.356  0.195E-01  0.195E-01
  -0.346  0.194E-01  0.194E-01
  -0.336  0.193E-01  0.193E-01
  -0.326  0.192E-01  0.192E-01
  -0.316  0.191E-01  0.191E-01
  -0.306  0.190E-01  0.190E-01
  -0.296  0.190E-01  0.190E-01
  -0.286  0.190E-01  0.190E-01
  -0.276  0.190E-01  0.190E-01
  -0.266  0.190E-01  0.190E-01
  -0.256  0.190E-01  0.190E-01
  -0.246  0.191E-01  0.191E-01
  -0.236  0.192E-01  0.192E-01
  -0.226  0.193E-01  0.193E-01
  -0.216  0.195E-01  0.195E-01
  -0.206  0.196E-01  0.196E-01
  -0.196  0.198E-01  0.198E-01
  -0.186  0.200E-01  0.200E-01
  -0.176  0.202E-01  0.202E-01
  -0.166  0.205E-01  0.205E-01
  -0.156  0.208E-01  0.208E-01
  -0.146  0.211E-01  0.211E-01
  -0.136  0.214E-01  0.214E-01
  -0.126  0.217E-01  0.217E-01
  -0.116  0.221E-01  0.221E-01
  -0.106  0.225E-01  0.225E-01
  -0.096  0.229E-01  0.229E-01
  -0.086  0.234E-01  0.234E-01
  -0.076  0.238E-01  0.238E-01
  -0.066  0.243E-01  0.243E-01
  -0.056  0.248E-01  0.248E-01
  -0.046  0.254E-01  0.254E-01
  -0.036  0.259E-01  0.259E-01
  -0.026  0.265E-01  0.265E-01
  -0.016  0.271E-01  0.271E-01
  -0.006  0.277E-01  0.277E-01
   0.004  0.283E-01  0.283E-01
   0.014  0.289E-01  0.289E-01
   0.024  0.296E-01  0.296E-01
   0.034  0.303E-01  0.303E-01
   0.044  0.310E-01  0.310E-01
   0.054  0.317E-01  0.317E-01
   0.064  0.324E-01  0.324E-01
   0.074  0.332E-01  0.332E-01
   0.084  0.339E-01  0.339E-01
   0.094  0.347E-01  0.347E-01
   0.104  0.355E-01  0.355E-01
   0.114  0.363E-01  0.363E-01
   0.124  0.371E-01  0.371E-01
   0.134  0.379E-01  0.379E-01
   0.144  0.387E-01  0.387E-01
   0.154  0.396E-01  0.396E-01
   0.164  0.404E-01  0.404E-01
   0.174  0.413E-01  0.413E-01
   0.184  0.422E-01  0.422E-01
   0.194  0.430E-01  0.430E-01
   0.204  0.439E-01  0.439E-01
   0.214  0.448E-01  0.448E-01
   0.224  0.457E-01  0.457E-01
   0.234  0.466E-01  0.466E-01
   0.244  0.475E-01  0.475E-01
   0.254  0.484E-01  0.484E-01
   0.264  0.493E-01  0.493E-01
   0.274  0.502E-01  0.502E-01
   0.284  0.511E-01  0.511E-01
   0.294  0.521E-01  0.521E-01
   0.304  0.530E-01  0.530E-01
   0.314  0.539E-01  0.539E-01
   0.324  0.548E-01  0.548E-01
   0.334  0.557E-01  0.557E-01
   0.344  0.567E-01  0.567E-01
   0.354  0.576E-01  0.576E-01
   0.364  0.585E-01  0.585E-01
   0.374  0.594E-01  0.594E-01
   0.384  0.604E-01  0.604E-01
   0.394  0.613E-01  0.613E-01
   0.404  0.622E-01  0.622E-01
   0.414  0.631E-01  0.631E-01
   0.424  0.640E-01  0.640E-01
   0.434  0.650E-01  0.650E-01
   0.444  0.659E-01  0.659E-01
   0.454  0.668E-01  0.668E-01
   0.464  0.677E-01  0.677E-01
   0.474  0.686E-01  0.686E-01
   0.484  0.696E-01  0.696E-01
   0.494  0.705E-01  0.705E-01
   0.504  0.714E-01  0.714E-01
   0.514  0.723E-01  0.723E-01
   0.524  0.732E-01  0.732E-01
   0.534  0.742E-01  0.742E-01
   0.544  0.751E-01  0.751E-01
   0.554  0.760E-01  0.760E-01
   0.564  0.769E-01  0.769E-01
   0.574  0.779E-01  0.779E-01
   0.584  0.788E-01  0.788E-01
   0.594  0.797E-01  0.797E-01
   0.604  0.807E-01  0.807E-01
   0.614  0.816E-01  0.816E-01
   0.624  0.826E-01  0.826E-01
   0.634  0.835E-01  0.835E-01
   0.644  0.845E-01  0.845E-01
   0.654  0.854E-01  0.854E-01
   0.664  0.864E-01  0.864E-01
   0.674  0.874E-01  0.874E-01
   0.684  0.883E-01  0.883E-01
   0.694  0.893E-01  0.893E-01
   0.704  0.903E-01  0.903E-01
   0.714  0.913E-01  0.913E-01
   0.724  0.923E-01  0.923E-01
   0.734  0.933E-01  0.933E-01
   0.744  0.943E-01  0.943E-01
   0.754  0.954E-01  0.954E-01
   0.764  0.964E-01  0.964E-01
   0.774  0.974E-01  0.974E-01
   0.784  0.985E-01  0.985E-01
   0.794  0.996E-01  0.996E-01
   0.804  0.101E+00  0.101E+00
   0.814  0.102E+00  0.102E+00
   0.824  0.103E+00  0.103E+00
   0.834  0.104E+00  0.104E+00
   0.844  0.105E+00  0.105E+00
   0.854  0.106E+00  0.106E+00
   0.864  0.107E+00  0.107E+00
   0.874  0.108E+00  0.108E+00
   0.884  0.110E+00  0.110E+00
   0.894  0.111E+00  0.111E+00
   0.904  0.112E+00  0.112E+00
   0.914  0.113E+00  0.113E+00
   0.924  0.114E+00  0.114E+00
   0.934  0.115E+00  0.115E+00
   0.944  0.117E+00  0.117E+00
   0.954  0.118E+00  0.118E+00
   0.964  0.119E+00  0.119E+00
   0.974  0.120E+00  0.120E+00
   0.984  0.121E+00  0.121E+00
   0.994  0.123E+00  0.123E+00
   1.004  0.124E+00  0.124E+00
   1.014  0.125E+00  0.125E+00
   1.024  0.126E+00  0.126E+00
   1.034  0.128E+00  0.128E+00
   1.044  0.129E+00  0.129E+00
   1.054  0.130E+00  0.130E+00
   1.064  0.131E+00  0.131E+00
   1.074  0.133E+00  0.133E+00
   1.084  0.134E+00  0.134E+00
   1.094  0.135E+00  0.135E+00
   1.104  0.136E+00  0.136E+00
   1.114  0.138E+00  0.138E+00
   1.124  0.139E+00  0.139E+00
   1.134  0.140E+00  0.140E+00
   1.144  0.141E+00  0.141E+00
   1.154  0.142E+00  0.142E+00
   1.164  0.144E+00  0.144E+00
   1.174  0.145E+00  0.145E+00
   1.184  0.146E+00  0.146E+00
   1.194  0.147E+00  0.147E+00
   1.204  0.148E+00  0.148E+00
   1.214  0.150E+00  0.150E+00
   1.224  0.151E+00  0.151E+00
   1.234  0.152E+00  0.152E+00
   1.244  0.153E+00  0.153E+00
   1.254  0.154E+00  0.154E+00
   1.264  0.155E+00  0.155E+00
   1.274  0.156E+00  0.156E+00
   1.284  0.157E+00  0.157E+00
   1.294  0.158E+00  0.158E+00
   1.304  0.159E+00  0.159E+00
   1.314  0.160E+00  0.160E+00
   1.324  0.161E+00  0.161E+00
   1.334  0.162E+00  0.162E+00
   1.344  0.163E+00  0.163E+00
   1.354  0.164E+00  0.164E+00
   1.364  0.165E+00  0.165E+00
   1.374  0.166E+00  0.166E+00
   1.384  0.166E+00  0.166E+00
   1.394  0.167E+00  0.167E+00
   1.404  0.168E+00  0.168E+00
   1.414  0.168E+00  0.168E+00
   1.424  0.169E+00  0.169E+00
   1.434  0.170E+00  0.170E+00
   1.444  0.170E+00  0.170E+00
   1.454  0.171E+00  0.171E+00
   1.464  0.171E+00  0.171E+00
   1.474  0.171E+00  0.171E+00
   1.484  0.172E+00  0.172E+00
   1.494  0.172E+00  0.172E+00
   1.504  0.172E+00  0.172E+00
   1.514  0.173E+00  0.173E+00
   1.524  0.173E+00  0.173E+00
   1.534  0.173E+00  0.173E+00
   1.544  0.173E+00  0.173E+00
   1.554  0.173E+00  0.173E+00
   1.564  0.173E+00  0.173E+00
   1.574  0.173E+00  0.173E+00
   1.584  0.173E+00  0.173E+00
   1.594  0.173E+00  0.173E+00
   1.604  0.172E+00  0.172E+00
   1.614  0.172E+00  0.172E+00
   1.624  0.172E+00  0.172E+00
   1.634  0.171E+00  0.171E+00
   1.644  0.171E+00  0.171E+00
   1.654  0.170E+00  0.170E+00
   1.664  0.170E+00  0.170E+00
   1.674  0.169E+00  0.169E+00
   1.684  0.169E+00  0.169E+00
   1.694  0.168E+00  0.168E+00
   1.704  0.167E+00  0.167E+00
   1.714  0.166E+00  0.166E+00
   1.724  0.166E+00  0.166E+00
   1.734  0.165E+00  0.165E+00
   1.744  0.164E+00  0.164E+00
   1.754  0.163E+00  0.163E+00
   1.764  0.162E+00  0.162E+00
   1.774  0.161E+00  0.161E+00
   1.784  0.160E+00  0.160E+00
   1.794  0.159E+00  0.159E+00
   1.804  0.158E+00  0.158E+00
   1.814  0.157E+00  0.157E+00
   1.824  0.155E+00  0.155E+00
   1.834  0.154E+00  0.154E+00
   1.844  0.153E+00  0.153E+00
   1.854  0.152E+00  0.152E+00
   1.864  0.151E+00  0.151E+00
   1.874  0.149E+00  0.149E+00
   1.884  0.148E+00  0.148E+00
   1.894  0.147E+00  0.147E+00
   1.904  0.146E+00  0.146E+00
   1.914  0.145E+00  0.145E+00
   1.924  0.143E+00  0.143E+00
   1.934  0.142E+00  0.142E+00
   1.944  0.141E+00  0.141E+00
   1.954  0.140E+00  0.140E+00
   1.964  0.139E+00  0.139E+00
   1.974  0.138E+00  0.138E+00
   1.984  0.137E+00  0.137E+00
   1.994  0.136E+00  0.136E+00
   2.004  0.135E+00  0.135E+00
   2.014  0.134E+00  0.134E+00
   2.024  0.133E+00  0.133E+00
   2.034  0.132E+00  0.132E+00
   2.044  0.131E+00  0.131E+00
   2.054  0.130E+00  0.130E+00
   2.064  0.130E+00  0.130E+00
   2.074  0.129E+00  0.129E+00
   2.084  0.129E+00  0.129E+00
   2.094  0.128E+00  0.128E+00
   2.104  0.128E+00  0.128E+00
   2.114  0.127E+00  0.127E+00
   2.124  0.127E+00  0.127E+00
   2.134  0.127E+00  0.127E+00
   2.144  0.127E+00  0.127E+00
   2.154  0.127E+00  0.127E+00
   2.164  0.127E+00  0.127E+00
   2.174  0.127E+00  0.127E+00
   2.184  0.128E+00  0.128E+00
   2.194  0.128E+00  0.128E+00
   2.204  0.129E+00  0.129E+00
   2.214  0.129E+00  0.129E+00
   2.224  0.130E+00  0.130E+00
   2.234  0.131E+00  0.131E+00
   2.244  0.132E+00  0.132E+00
   2.254  0.133E+00  0.133E+00
   2.264  0.134E+00  0.134E+00
   2.274  0.135E+00  0.135E+00
   2.284  0.136E+00  0.136E+00
   2.294  0.138E+00  0.138E+00
   2.304  0.139E+00  0.139E+00
   2.314  0.141E+00  0.141E+00
   2.324  0.142E+00  0.142E+00
   2.334  0.144E+00  0.144E+00
   2.344  0.146E+00  0.146E+00
   2.354  0.148E+00  0.148E+00
   2.364  0.150E+00  0.150E+00
   2.374  0.152E+00  0.152E+00
   2.384  0.155E+00  0.155E+00
   2.394  0.157E+00  0.157E+00
   2.404  0.159E+00  0.159E+00
   2.414  0.162E+00  0.162E+00
   2.424  0.164E+00  0.164E+00
   2.434  0.167E+00  0.167E+00
   2.444  0.169E+00  0.169E+00
   2.454  0.172E+00  0.172E+00
   2.464  0.175E+00  0.175E+00
   2.474  0.178E+00  0.178E+00
   2.484  0.180E+00  0.180E+00
   2.494  0.183E+00  0.183E+00
   2.504  0.186E+00  0.186E+00
   2.514  0.189E+00  0.189E+00
   2.524  0.192E+00  0.192E+00
   2.534  0.195E+00  0.195E+00
   2.544  0.198E+00  0.198E+00
   2.554  0.200E+00  0.200E+00
   2.564  0.203E+00  0.203E+00
   2.574  0.206E+00  0.206E+00
   2.584  0.209E+00  0.209E+00
   2.594  0.212E+00  0.212E+00
   2.604  0.215E+00  0.215E+00
   2.614  0.217E+00  0.217E+00
   2.624  0.220E+00  0.220E+00
   2.634  0.223E+00  0.223E+00
   2.644  0.225E+00  0.225E+00
   2.654  0.228E+00  0.228E+00
   2.664  0.230E+00  0.230E+00
   2.674  0.232E+00  0.232E+00
   2.684  0.235E+00  0.235E+00
   2.694  0.237E+00  0.237E+00
   2.704  0.239E+00  0.239E+00
   2.714  0.241E+00  0.241E+00
   2.724  0.243E+00  0.243E+00
   2.734  0.244E+00  0.244E+00
   2.744  0.246E+00  0.246E+00
   2.754  0.247E+00  0.247E+00
   2.764  0.249E+00  0.249E+00
   2.774  0.250E+00  0.250E+00
   2.784  0.251E+00  0.251E+00
   2.794  0.252E+00  0.252E+00
   2.804  0.253E+00  0.253E+00
   2.814  0.254E+00  0.254E+00
   2.824  0.254E+00  0.254E+00
   2.834  0.255E+00  0.255E+00
   2.844  0.255E+00  0.255E+00
   2.854  0.255E+00  0.255E+00
   2.864  0.255E+00  0.255E+00
   2.874  0.255E+00  0.255E+00
   2.884  0.255E+00  0.255E+00
   2.894  0.254E+00  0.254E+00
   2.904  0.254E+00  0.254E+00
   2.914  0.253E+00  0.253E+00
   2.924  0.252E+00  0.252E+00
   2.934  0.251E+00  0.251E+00
   2.944  0.249E+00  0.249E+00
   2.954  0.248E+00  0.248E+00
   2.964  0.247E+00  0.247E+00
   2.974  0.245E+00  0.245E+00
   2.984  0.243E+00  0.243E+00
   2.994  0.241E+00  0.241E+00
   3.004  0.239E+00  0.239E+00
   3.014  0.237E+00  0.237E+00
   3.024  0.234E+00  0.234E+00
   3.034  0.232E+00  0.232E+00
   3.044  0.229E+00  0.229E+00
   3.054  0.226E+00  0.226E+00
   3.064  0.224E+00  0.224E+00
   3.074  0.221E+00  0.221E+00
   3.084  0.218E+00  0.218E+00
   3.094  0.214E+00  0.214E+00
   3.104  0.211E+00  0.211E+00
   3.114  0.208E+00  0.208E+00
   3.124  0.204E+00  0.204E+00
   3.134  0.201E+00  0.201E+00
   3.144  0.197E+00  0.197E+00
   3.154  0.193E+00  0.193E+00
   3.164  0.189E+00  0.189E+00
   3.174  0.186E+00  0.186E+00
   3.184  0.182E+00  0.182E+00
   3.194  0.178E+00  0.178E+00
   3.204  0.174E+00  0.174E+00
   3.214  0.170E+00  0.170E+00
   3.224  0.166E+00  0.166E+00
   3.234  0.161E+00  0.161E+00
   3.244  0.157E+00  0.157E+00
   3.254  0.153E+00  0.153E+00
   3.264  0.149E+00  0.149E+00
   3.274  0.145E+00  0.145E+00
   3.284  0.141E+00  0.141E+00
   3.294  0.136E+00  0.136E+00
   3.304  0.132E+00  0.132E+00
   3.314  0.128E+00  0.128E+00
   3.324  0.124E+00  0.124E+00
   3.334  0.120E+00  0.120E+00
   3.344  0.116E+00  0.116E+00
   3.354  0.111E+00  0.111E+00
   3.364  0.107E+00  0.107E+00
   3.374  0.103E+00  0.103E+00
   3.384  0.994E-01  0.994E-01
   3.394  0.955E-01  0.955E-01
   3.404  0.916E-01  0.916E-01
   3.414  0.877E-01  0.877E-01
   3.424  0.839E-01  0.839E-01
   3.434  0.802E-01  0.802E-01
   3.444  0.765E-01  0.765E-01
   3.454  0.729E-01  0.729E-01
   3.464  0.694E-01  0.694E-01
   3.474  0.659E-01  0.659E-01
   3.484  0.625E-01  0.625E-01
   3.494  0.592E-01  0.592E-01
   3.504  0.560E-01  0.560E-01
   3.514  0.528E-01  0.528E-01
   3.524  0.497E-01  0.497E-01
   3.534  0.467E-01  0.467E-01
   3.544  0.438E-01  0.438E-01
   3.554  0.409E-01  0.409E-01
   3.564  0.381E-01  0.381E-01
   3.574  0.355E-01  0.355E-01
   3.584  0.329E-01  0.329E-01
   3.594  0.303E-01  0.303E-01
   3.604  0.279E-01  0.279E-01
   3.614  0.256E-01  0.256E-01
   3.624  0.233E-01  0.233E-01
   3.634  0.211E-01  0.211E-01
   3.644  0.190E-01  0.190E-01
   3.654  0.170E-01  0.170E-01
   3.664  0.150E-01  0.150E-01
   3.674  0.132E-01  0.132E-01
   3.684  0.114E-01  0.114E-01
   3.694  0.972E-02  0.972E-02
   3.704  0.810E-02  0.810E-02
   3.714  0.656E-02  0.656E-02
   3.724  0.509E-02  0.509E-02
   3.734  0.370E-02  0.370E-02
   3.744  0.238E-02  0.238E-02
   3.754  0.114E-02  0.114E-02
   3.764 -0.402E-04 -0.402E-04
   3.774 -0.115E-02 -0.115E-02
   3.784 -0.219E-02 -0.219E-02
   3.794 -0.317E-02 -0.317E-02
   3.804 -0.408E-02 -0.408E-02
   3.814 -0.493E-02 -0.493E-02
   3.824 -0.572E-02 -0.572E-02
   3.834 -0.646E-02 -0.646E-02
   3.844 -0.713E-02 -0.713E-02
   3.854 -0.776E-02 -0.776E-02
   3.864 -0.833E-02 -0.833E-02
   3.874 -0.885E-02 -0.885E-02
   3.884 -0.932E-02 -0.932E-02
   3.894 -0.975E-02 -0.975E-02
   3.904 -0.101E-01 -0.101E-01
   3.914 -0.105E-01 -0.105E-01
   3.924 -0.108E-01 -0.108E-01
   3.934 -0.110E-01 -0.110E-01
   3.944 -0.113E-01 -0.113E-01
   3.954 -0.114E-01 -0.114E-01
   3.964 -0.116E-01 -0.116E-01
   3.974 -0.117E-01 -0.117E-01
   3.984 -0.118E-01 -0.118E-01
   3.994 -0.119E-01 -0.119E-01
   4.004 -0.119E-01 -0.119E-01
   4.014 -0.119E-01 -0.119E-01
   4.024 -0.119E-01 -0.119E-01
   4.034 -0.119E-01 -0.119E-01
   4.044 -0.118E-01 -0.118E-01
   4.054 -0.117E-01 -0.117E-01
   4.064 -0.116E-01 -0.116E-01
   4.074 -0.115E-01 -0.115E-01
   4.084 -0.114E-01 -0.114E-01
   4.094 -0.112E-01 -0.112E-01
   4.104 -0.111E-01 -0.111E-01
   4.114 -0.109E-01 -0.109E-01
   4.124 -0.107E-01 -0.107E-01
   4.134 -0.106E-01 -0.106E-01
   4.144 -0.104E-01 -0.104E-01
   4.154 -0.102E-01 -0.102E-01
   4.164 -0.995E-02 -0.995E-02
   4.174 -0.974E-02 -0.974E-02
   4.184 -0.952E-02 -0.952E-02
   4.194 -0.930E-02 -0.930E-02
   4.204 -0.907E-02 -0.907E-02
   4.214 -0.884E-02 -0.884E-02
   4.224 -0.861E-02 -0.861E-02
   4.234 -0.838E-02 -0.838E-02
   4.244 -0.814E-02 -0.814E-02
   4.254 -0.791E-02 -0.791E-02
   4.264 -0.768E-02 -0.768E-02
   4.274 -0.745E-02 -0.745E-02
   4.284 -0.722E-02 -0.722E-02
   4.294 -0.699E-02 -0.699E-02
   4.304 -0.676E-02 -0.676E-02
   4.314 -0.654E-02 -0.654E-02
   4.324 -0.632E-02 -0.632E-02
   4.334 -0.610E-02 -0.610E-02
   4.344 -0.588E-02 -0.588E-02
   4.354 -0.567E-02 -0.567E-02
   4.364 -0.546E-02 -0.546E-02
   4.374 -0.526E-02 -0.526E-02
   4.384 -0.506E-02 -0.506E-02
   4.394 -0.487E-02 -0.487E-02
   4.404 -0.468E-02 -0.468E-02
   4.414 -0.449E-02 -0.449E-02
   4.424 -0.431E-02 -0.431E-02
   4.434 -0.413E-02 -0.413E-02
   4.444 -0.396E-02 -0.396E-02
   4.454 -0.380E-02 -0.380E-02
   4.464 -0.363E-02 -0.363E-02
   4.474 -0.348E-02 -0.348E-02
   4.484 -0.333E-02 -0.333E-02
   4.494 -0.318E-02 -0.318E-02
   4.504 -0.303E-02 -0.303E-02
   4.514 -0.290E-02 -0.290E-02
   4.524 -0.276E-02 -0.276E-02
   4.534 -0.264E-02 -0.264E-02
   4.544 -0.251E-02 -0.251E-02
   4.554 -0.239E-02 -0.239E-02
   4.564 -0.228E-02 -0.228E-02
   4.574 -0.217E-02 -0.217E-02
   4.584 -0.206E-02 -0.206E-02
   4.594 -0.196E-02 -0.196E-02
   4.604 -0.186E-02 -0.186E-02
   4.614 -0.176E-02 -0.176E-02
   4.624 -0.167E-02 -0.167E-02
   4.634 -0.159E-02 -0.159E-02
   4.644 -0.150E-02 -0.150E-02
   4.654 -0.143E-02 -0.143E-02
   4.664 -0.135E-02 -0.135E-02
   4.674 -0.128E-02 -0.128E-02
   4.684 -0.121E-02 -0.121E-02
   4.694 -0.114E-02 -0.114E-02
   4.704 -0.108E-02 -0.108E-02
   4.714 -0.102E-02 -0.102E-02
   4.724 -0.962E-03 -0.962E-03
   4.734 -0.907E-03 -0.907E-03
   4.744 -0.856E-03 -0.856E-03
   4.754 -0.806E-03 -0.806E-03
   4.764 -0.760E-03 -0.760E-03
   4.774 -0.715E-03 -0.715E-03
   4.784 -0.673E-03 -0.673E-03
   4.794 -0.633E-03 -0.633E-03
   4.804 -0.595E-03 -0.595E-03
   4.814 -0.559E-03 -0.559E-03
   4.824 -0.525E-03 -0.525E-03
   4.834 -0.493E-03 -0.493E-03
   4.844 -0.463E-03 -0.463E-03
   4.854 -0.434E-03 -0.434E-03
   4.864 -0.407E-03 -0.407E-03
   4.874 -0.381E-03 -0.381E-03
   4.884 -0.357E-03 -0.357E-03
   4.894 -0.334E-03 -0.334E-03
   4.904 -0.313E-03 -0.313E-03
   4.914 -0.293E-03 -0.293E-03
   4.924 -0.274E-03 -0.274E-03
   4.934 -0.256E-03 -0.256E-03
   4.944 -0.239E-03 -0.239E-03
   4.954 -0.223E-03 -0.223E-03
   4.964 -0.208E-03 -0.208E-03
   4.974 -0.194E-03 -0.194E-03
   4.984 -0.181E-03 -0.181E-03
   4.994 -0.168E-03 -0.168E-03
   5.004 -0.157E-03 -0.157E-03
   5.014 -0.146E-03 -0.146E-03
   5.024 -0.136E-03 -0.136E-03
   5.034 -0.126E-03 -0.126E-03
   5.044 -0.117E-03 -0.117E-03
   5.054 -0.109E-03 -0.109E-03
   5.064 -0.101E-03 -0.101E-03
   5.074 -0.941E-04 -0.941E-04
   5.084 -0.874E-04 -0.874E-04
   5.094 -0.810E-04 -0.810E-04
   5.104 -0.751E-04 -0.751E-04
   5.114 -0.696E-04 -0.696E-04
   5.124 -0.645E-04 -0.645E-04
   5.134 -0.597E-04 -0.597E-04
   5.144 -0.552E-04 -0.552E-04
   5.154 -0.511E-04 -0.511E-04
   5.164 -0.473E-04 -0.473E-04
   5.174 -0.437E-04 -0.437E-04
   5.184 -0.403E-04 -0.403E-04
   5.194 -0.372E-04 -0.372E-04
   5.204 -0.344E-04 -0.344E-04
   5.214 -0.317E-04 -0.317E-04
   5.224 -0.292E-04 -0.292E-04
   5.234 -0.270E-04 -0.270E-04
   5.244 -0.248E-04 -0.248E-04
   5.254 -0.229E-04 -0.229E-04
   5.264 -0.211E-04 -0.211E-04
   5.274 -0.194E-04 -0.194E-04
   5.284 -0.178E-04 -0.178E-04
   5.294 -0.164E-04 -0.164E-04
