# E (eV)   ldos(E)   pdos(E)   
 -27.116 -0.526E-05 -0.526E-05
 -27.106 -0.568E-05 -0.568E-05
 -27.096 -0.613E-05 -0.613E-05
 -27.086 -0.661E-05 -0.661E-05
 -27.076 -0.712E-05 -0.712E-05
 -27.066 -0.767E-05 -0.767E-05
 -27.056 -0.826E-05 -0.826E-05
 -27.046 -0.889E-05 -0.889E-05
 -27.036 -0.956E-05 -0.956E-05
 -27.026 -0.103E-04 -0.103E-04
 -27.016 -0.110E-04 -0.110E-04
 -27.006 -0.119E-04 -0.119E-04
 -26.996 -0.127E-04 -0.127E-04
 -26.986 -0.137E-04 -0.137E-04
 -26.976 -0.146E-04 -0.146E-04
 -26.966 -0.157E-04 -0.157E-04
 -26.956 -0.168E-04 -0.168E-04
 -26.946 -0.180E-04 -0.180E-04
 -26.936 -0.192E-04 -0.192E-04
 -26.926 -0.206E-04 -0.206E-04
 -26.916 -0.220E-04 -0.220E-04
 -26.906 -0.235E-04 -0.235E-04
 -26.896 -0.251E-04 -0.251E-04
 -26.886 -0.267E-04 -0.267E-04
 -26.876 -0.285E-04 -0.285E-04
 -26.866 -0.304E-04 -0.304E-04
 -26.856 -0.324E-04 -0.324E-04
 -26.846 -0.345E-04 -0.345E-04
 -26.836 -0.367E-04 -0.367E-04
 -26.826 -0.390E-04 -0.390E-04
 -26.816 -0.415E-04 -0.415E-04
 -26.806 -0.440E-04 -0.440E-04
 -26.796 -0.467E-04 -0.467E-04
 -26.786 -0.496E-04 -0.496E-04
 -26.776 -0.526E-04 -0.526E-04
 -26.766 -0.557E-04 -0.557E-04
 -26.756 -0.590E-04 -0.590E-04
 -26.746 -0.625E-04 -0.625E-04
 -26.736 -0.661E-04 -0.661E-04
 -26.726 -0.699E-04 -0.699E-04
 -26.716 -0.739E-04 -0.739E-04
 -26.706 -0.780E-04 -0.780E-04
 -26.696 -0.823E-04 -0.823E-04
 -26.686 -0.868E-04 -0.868E-04
 -26.676 -0.915E-04 -0.915E-04
 -26.666 -0.964E-04 -0.964E-04
 -26.656 -0.101E-03 -0.101E-03
 -26.646 -0.107E-03 -0.107E-03
 -26.636 -0.112E-03 -0.112E-03
 -26.626 -0.118E-03 -0.118E-03
 -26.616 -0.124E-03 -0.124E-03
 -26.606 -0.130E-03 -0.130E-03
 -26.596 -0.136E-03 -0.136E-03
 -26.586 -0.143E-03 -0.143E-03
 -26.576 -0.150E-03 -0.150E-03
 -26.566 -0.157E-03 -0.157E-03
 -26.556 -0.164E-03 -0.164E-03
 -26.546 -0.171E-03 -0.171E-03
 -26.536 -0.179E-03 -0.179E-03
 -26.526 -0.187E-03 -0.187E-03
 -26.516 -0.195E-03 -0.195E-03
 -26.506 -0.203E-03 -0.203E-03
 -26.496 -0.211E-03 -0.211E-03
 -26.486 -0.220E-03 -0.220E-03
 -26.476 -0.229E-03 -0.229E-03
 -26.466 -0.238E-03 -0.238E-03
 -26.456 -0.247E-03 -0.247E-03
 -26.446 -0.256E-03 -0.256E-03
 -26.436 -0.266E-03 -0.266E-03
 -26.426 -0.275E-03 -0.275E-03
 -26.416 -0.285E-03 -0.285E-03
 -26.406 -0.295E-03 -0.295E-03
 -26.396 -0.305E-03 -0.305E-03
 -26.386 -0.314E-03 -0.314E-03
 -26.376 -0.324E-03 -0.324E-03
 -26.366 -0.334E-03 -0.334E-03
 -26.356 -0.344E-03 -0.344E-03
 -26.346 -0.354E-03 -0.354E-03
 -26.336 -0.364E-03 -0.364E-03
 -26.326 -0.374E-03 -0.374E-03
 -26.316 -0.383E-03 -0.383E-03
 -26.306 -0.393E-03 -0.393E-03
 -26.296 -0.402E-03 -0.402E-03
 -26.286 -0.411E-03 -0.411E-03
 -26.276 -0.420E-03 -0.420E-03
 -26.266 -0.428E-03 -0.428E-03
 -26.256 -0.436E-03 -0.436E-03
 -26.246 -0.444E-03 -0.444E-03
 -26.236 -0.451E-03 -0.451E-03
 -26.226 -0.458E-03 -0.458E-03
 -26.216 -0.464E-03 -0.464E-03
 -26.206 -0.469E-03 -0.469E-03
 -26.196 -0.474E-03 -0.474E-03
 -26.186 -0.478E-03 -0.478E-03
 -26.176 -0.481E-03 -0.481E-03
 -26.166 -0.484E-03 -0.484E-03
 -26.156 -0.485E-03 -0.485E-03
 -26.146 -0.486E-03 -0.486E-03
 -26.136 -0.486E-03 -0.486E-03
 -26.126 -0.484E-03 -0.484E-03
 -26.116 -0.481E-03 -0.481E-03
 -26.106 -0.477E-03 -0.477E-03
 -26.096 -0.472E-03 -0.472E-03
 -26.086 -0.465E-03 -0.465E-03
 -26.076 -0.457E-03 -0.457E-03
 -26.066 -0.447E-03 -0.447E-03
 -26.056 -0.435E-03 -0.435E-03
 -26.046 -0.422E-03 -0.422E-03
 -26.036 -0.407E-03 -0.407E-03
 -26.026 -0.391E-03 -0.391E-03
 -26.016 -0.372E-03 -0.372E-03
 -26.006 -0.351E-03 -0.351E-03
 -25.996 -0.328E-03 -0.328E-03
 -25.986 -0.303E-03 -0.303E-03
 -25.976 -0.276E-03 -0.276E-03
 -25.966 -0.246E-03 -0.246E-03
 -25.956 -0.214E-03 -0.214E-03
 -25.946 -0.179E-03 -0.179E-03
 -25.936 -0.142E-03 -0.142E-03
 -25.926 -0.102E-03 -0.102E-03
 -25.916 -0.595E-04 -0.595E-04
 -25.906 -0.142E-04 -0.142E-04
 -25.896  0.340E-04  0.340E-04
 -25.886  0.850E-04  0.850E-04
 -25.876  0.139E-03  0.139E-03
 -25.866  0.196E-03  0.196E-03
 -25.856  0.256E-03  0.256E-03
 -25.846  0.319E-03  0.319E-03
 -25.836  0.386E-03  0.386E-03
 -25.826  0.455E-03  0.455E-03
 -25.816  0.528E-03  0.528E-03
 -25.806  0.604E-03  0.604E-03
 -25.796  0.683E-03  0.683E-03
 -25.786  0.766E-03  0.766E-03
 -25.776  0.851E-03  0.851E-03
 -25.766  0.941E-03  0.941E-03
 -25.756  0.103E-02  0.103E-02
 -25.746  0.113E-02  0.113E-02
 -25.736  0.123E-02  0.123E-02
 -25.726  0.133E-02  0.133E-02
 -25.716  0.144E-02  0.144E-02
 -25.706  0.154E-02  0.154E-02
 -25.696  0.166E-02  0.166E-02
 -25.686  0.177E-02  0.177E-02
 -25.676  0.189E-02  0.189E-02
 -25.666  0.201E-02  0.201E-02
 -25.656  0.213E-02  0.213E-02
 -25.646  0.226E-02  0.226E-02
 -25.636  0.239E-02  0.239E-02
 -25.626  0.252E-02  0.252E-02
 -25.616  0.266E-02  0.266E-02
 -25.606  0.280E-02  0.280E-02
 -25.596  0.294E-02  0.294E-02
 -25.586  0.308E-02  0.308E-02
 -25.576  0.322E-02  0.322E-02
 -25.566  0.337E-02  0.337E-02
 -25.556  0.351E-02  0.351E-02
 -25.546  0.366E-02  0.366E-02
 -25.536  0.381E-02  0.381E-02
 -25.526  0.397E-02  0.397E-02
 -25.516  0.412E-02  0.412E-02
 -25.506  0.427E-02  0.427E-02
 -25.496  0.443E-02  0.443E-02
 -25.486  0.458E-02  0.458E-02
 -25.476  0.474E-02  0.474E-02
 -25.466  0.490E-02  0.490E-02
 -25.456  0.505E-02  0.505E-02
 -25.446  0.521E-02  0.521E-02
 -25.436  0.536E-02  0.536E-02
 -25.426  0.552E-02  0.552E-02
 -25.416  0.567E-02  0.567E-02
 -25.406  0.582E-02  0.582E-02
 -25.396  0.598E-02  0.598E-02
 -25.386  0.613E-02  0.613E-02
 -25.376  0.627E-02  0.627E-02
 -25.366  0.642E-02  0.642E-02
 -25.356  0.656E-02  0.656E-02
 -25.346  0.670E-02  0.670E-02
 -25.336  0.684E-02  0.684E-02
 -25.326  0.698E-02  0.698E-02
 -25.316  0.711E-02  0.711E-02
 -25.306  0.724E-02  0.724E-02
 -25.296  0.737E-02  0.737E-02
 -25.286  0.749E-02  0.749E-02
 -25.276  0.761E-02  0.761E-02
 -25.266  0.772E-02  0.772E-02
 -25.256  0.783E-02  0.783E-02
 -25.246  0.793E-02  0.793E-02
 -25.236  0.803E-02  0.803E-02
 -25.226  0.813E-02  0.813E-02
 -25.216  0.822E-02  0.822E-02
 -25.206  0.830E-02  0.830E-02
 -25.196  0.838E-02  0.838E-02
 -25.186  0.846E-02  0.846E-02
 -25.176  0.853E-02  0.853E-02
 -25.166  0.859E-02  0.859E-02
 -25.156  0.865E-02  0.865E-02
 -25.146  0.870E-02  0.870E-02
 -25.136  0.874E-02  0.874E-02
 -25.126  0.878E-02  0.878E-02
 -25.116  0.881E-02  0.881E-02
 -25.106  0.884E-02  0.884E-02
 -25.096  0.886E-02  0.886E-02
 -25.086  0.887E-02  0.887E-02
 -25.076  0.888E-02  0.888E-02
 -25.066  0.888E-02  0.888E-02
 -25.056  0.888E-02  0.888E-02
 -25.046  0.886E-02  0.886E-02
 -25.036  0.884E-02  0.884E-02
 -25.026  0.882E-02  0.882E-02
 -25.016  0.879E-02  0.879E-02
 -25.006  0.875E-02  0.875E-02
 -24.996  0.871E-02  0.871E-02
 -24.986  0.866E-02  0.866E-02
 -24.976  0.860E-02  0.860E-02
 -24.966  0.854E-02  0.854E-02
 -24.956  0.847E-02  0.847E-02
 -24.946  0.840E-02  0.840E-02
 -24.936  0.832E-02  0.832E-02
 -24.926  0.824E-02  0.824E-02
 -24.916  0.815E-02  0.815E-02
 -24.906  0.806E-02  0.806E-02
 -24.896  0.796E-02  0.796E-02
 -24.886  0.785E-02  0.785E-02
 -24.876  0.775E-02  0.775E-02
 -24.866  0.763E-02  0.763E-02
 -24.856  0.752E-02  0.752E-02
 -24.846  0.739E-02  0.739E-02
 -24.836  0.727E-02  0.727E-02
 -24.826  0.714E-02  0.714E-02
 -24.816  0.701E-02  0.701E-02
 -24.806  0.688E-02  0.688E-02
 -24.796  0.674E-02  0.674E-02
 -24.786  0.660E-02  0.660E-02
 -24.776  0.645E-02  0.645E-02
 -24.766  0.631E-02  0.631E-02
 -24.756  0.616E-02  0.616E-02
 -24.746  0.601E-02  0.601E-02
 -24.736  0.586E-02  0.586E-02
 -24.726  0.571E-02  0.571E-02
 -24.716  0.555E-02  0.555E-02
 -24.706  0.540E-02  0.540E-02
 -24.696  0.524E-02  0.524E-02
 -24.686  0.509E-02  0.509E-02
 -24.676  0.493E-02  0.493E-02
 -24.666  0.478E-02  0.478E-02
 -24.656  0.462E-02  0.462E-02
 -24.646  0.447E-02  0.447E-02
 -24.636  0.431E-02  0.431E-02
 -24.626  0.416E-02  0.416E-02
 -24.616  0.400E-02  0.400E-02
 -24.606  0.385E-02  0.385E-02
 -24.596  0.370E-02  0.370E-02
 -24.586  0.355E-02  0.355E-02
 -24.576  0.340E-02  0.340E-02
 -24.566  0.326E-02  0.326E-02
 -24.556  0.311E-02  0.311E-02
 -24.546  0.297E-02  0.297E-02
 -24.536  0.283E-02  0.283E-02
 -24.526  0.269E-02  0.269E-02
 -24.516  0.256E-02  0.256E-02
 -24.506  0.242E-02  0.242E-02
 -24.496  0.229E-02  0.229E-02
 -24.486  0.216E-02  0.216E-02
 -24.476  0.204E-02  0.204E-02
 -24.466  0.192E-02  0.192E-02
 -24.456  0.180E-02  0.180E-02
 -24.446  0.168E-02  0.168E-02
 -24.436  0.157E-02  0.157E-02
 -24.426  0.146E-02  0.146E-02
 -24.416  0.135E-02  0.135E-02
 -24.406  0.125E-02  0.125E-02
 -24.396  0.115E-02  0.115E-02
 -24.386  0.106E-02  0.106E-02
 -24.376  0.962E-03  0.962E-03
 -24.366  0.872E-03  0.872E-03
 -24.356  0.786E-03  0.786E-03
 -24.346  0.702E-03  0.702E-03
 -24.336  0.622E-03  0.622E-03
 -24.326  0.545E-03  0.545E-03
 -24.316  0.472E-03  0.472E-03
 -24.306  0.402E-03  0.402E-03
 -24.296  0.335E-03  0.335E-03
 -24.286  0.271E-03  0.271E-03
 -24.276  0.210E-03  0.210E-03
 -24.266  0.152E-03  0.152E-03
 -24.256  0.975E-04  0.975E-04
 -24.246  0.458E-04  0.458E-04
 -24.236 -0.304E-05 -0.304E-05
 -24.226 -0.490E-04 -0.490E-04
 -24.216 -0.922E-04 -0.922E-04
 -24.206 -0.133E-03 -0.133E-03
 -24.196 -0.170E-03 -0.170E-03
 -24.186 -0.206E-03 -0.206E-03
 -24.176 -0.238E-03 -0.238E-03
 -24.166 -0.269E-03 -0.269E-03
 -24.156 -0.297E-03 -0.297E-03
 -24.146 -0.322E-03 -0.322E-03
 -24.136 -0.346E-03 -0.346E-03
 -24.126 -0.367E-03 -0.367E-03
 -24.116 -0.386E-03 -0.386E-03
 -24.106 -0.404E-03 -0.404E-03
 -24.096 -0.419E-03 -0.419E-03
 -24.086 -0.433E-03 -0.433E-03
 -24.076 -0.444E-03 -0.444E-03
 -24.066 -0.455E-03 -0.455E-03
 -24.056 -0.463E-03 -0.463E-03
 -24.046 -0.470E-03 -0.470E-03
 -24.036 -0.476E-03 -0.476E-03
 -24.026 -0.480E-03 -0.480E-03
 -24.016 -0.483E-03 -0.483E-03
 -24.006 -0.485E-03 -0.485E-03
 -23.996 -0.486E-03 -0.486E-03
 -23.986 -0.486E-03 -0.486E-03
 -23.976 -0.484E-03 -0.484E-03
 -23.966 -0.482E-03 -0.482E-03
 -23.956 -0.479E-03 -0.479E-03
 -23.946 -0.475E-03 -0.475E-03
 -23.936 -0.470E-03 -0.470E-03
 -23.926 -0.465E-03 -0.465E-03
 -23.916 -0.459E-03 -0.459E-03
 -23.906 -0.453E-03 -0.453E-03
 -23.896 -0.445E-03 -0.445E-03
 -23.886 -0.438E-03 -0.438E-03
 -23.876 -0.430E-03 -0.430E-03
 -23.866 -0.422E-03 -0.422E-03
 -23.856 -0.413E-03 -0.413E-03
 -23.846 -0.404E-03 -0.404E-03
 -23.836 -0.395E-03 -0.395E-03
 -23.826 -0.386E-03 -0.386E-03
 -23.816 -0.376E-03 -0.376E-03
 -23.806 -0.366E-03 -0.366E-03
 -23.796 -0.356E-03 -0.356E-03
 -23.786 -0.347E-03 -0.347E-03
 -23.776 -0.337E-03 -0.337E-03
 -23.766 -0.327E-03 -0.327E-03
 -23.756 -0.317E-03 -0.317E-03
 -23.746 -0.307E-03 -0.307E-03
 -23.736 -0.297E-03 -0.297E-03
 -23.726 -0.287E-03 -0.287E-03
 -23.716 -0.278E-03 -0.278E-03
 -23.706 -0.268E-03 -0.268E-03
 -23.696 -0.259E-03 -0.259E-03
 -23.686 -0.249E-03 -0.249E-03
 -23.676 -0.240E-03 -0.240E-03
 -23.666 -0.231E-03 -0.231E-03
 -23.656 -0.222E-03 -0.222E-03
 -23.646 -0.214E-03 -0.214E-03
 -23.636 -0.205E-03 -0.205E-03
 -23.626 -0.197E-03 -0.197E-03
 -23.616 -0.189E-03 -0.189E-03
 -23.606 -0.181E-03 -0.181E-03
 -23.596 -0.173E-03 -0.173E-03
 -23.586 -0.166E-03 -0.166E-03
 -23.576 -0.158E-03 -0.158E-03
 -23.566 -0.151E-03 -0.151E-03
 -23.556 -0.145E-03 -0.145E-03
 -23.546 -0.138E-03 -0.138E-03
 -23.536 -0.132E-03 -0.132E-03
 -23.526 -0.125E-03 -0.125E-03
 -23.516 -0.119E-03 -0.119E-03
 -23.506 -0.114E-03 -0.114E-03
 -23.496 -0.108E-03 -0.108E-03
 -23.486 -0.103E-03 -0.103E-03
 -23.476 -0.976E-04 -0.976E-04
 -23.466 -0.927E-04 -0.927E-04
 -23.456 -0.879E-04 -0.879E-04
 -23.446 -0.834E-04 -0.834E-04
 -23.436 -0.790E-04 -0.790E-04
 -23.426 -0.748E-04 -0.748E-04
 -23.416 -0.708E-04 -0.708E-04
 -23.406 -0.670E-04 -0.670E-04
 -23.396 -0.633E-04 -0.633E-04
 -23.386 -0.598E-04 -0.598E-04
 -23.376 -0.565E-04 -0.565E-04
 -23.366 -0.533E-04 -0.533E-04
 -23.356 -0.503E-04 -0.503E-04
 -23.346 -0.474E-04 -0.474E-04
 -23.336 -0.447E-04 -0.447E-04
 -23.326 -0.421E-04 -0.421E-04
 -23.316 -0.396E-04 -0.396E-04
 -23.306 -0.372E-04 -0.372E-04
 -23.296 -0.350E-04 -0.350E-04
 -23.286 -0.329E-04 -0.329E-04
 -23.276 -0.309E-04 -0.309E-04
 -23.266 -0.290E-04 -0.290E-04
 -23.256 -0.272E-04 -0.272E-04
 -23.246 -0.255E-04 -0.255E-04
 -23.236 -0.238E-04 -0.238E-04
 -23.226 -0.223E-04 -0.223E-04
 -23.216 -0.209E-04 -0.209E-04
 -23.206 -0.195E-04 -0.195E-04
 -23.196 -0.183E-04 -0.183E-04
 -23.186 -0.171E-04 -0.171E-04
 -23.176 -0.159E-04 -0.159E-04
 -23.166 -0.149E-04 -0.149E-04
 -23.156 -0.139E-04 -0.139E-04
 -23.146 -0.129E-04 -0.129E-04
 -23.136 -0.121E-04 -0.121E-04
 -23.126 -0.112E-04 -0.112E-04
 -23.116 -0.105E-04 -0.105E-04
 -23.106 -0.973E-05 -0.973E-05
 -23.096 -0.904E-05 -0.904E-05
 -23.086 -0.840E-05 -0.840E-05
 -23.076 -0.781E-05 -0.781E-05
 -23.066 -0.725E-05 -0.725E-05
 -23.056 -0.673E-05 -0.673E-05
 -23.046 -0.624E-05 -0.624E-05
 -23.036 -0.578E-05 -0.578E-05
 -23.026 -0.536E-05 -0.536E-05
 -23.016 -0.496E-05 -0.496E-05
 -23.006 -0.459E-05 -0.459E-05
 -22.996 -0.425E-05 -0.425E-05
 -22.986 -0.393E-05 -0.393E-05
 -22.976 -0.363E-05 -0.363E-05
 -22.966 -0.335E-05 -0.335E-05
 -22.956 -0.310E-05 -0.310E-05
 -22.946 -0.286E-05 -0.286E-05
 -22.936 -0.264E-05 -0.264E-05
 -22.926 -0.243E-05 -0.243E-05
 -22.916 -0.224E-05 -0.224E-05
 -22.906 -0.206E-05 -0.206E-05
 -22.896 -0.190E-05 -0.190E-05
 -22.886 -0.175E-05 -0.175E-05
 -22.876 -0.161E-05 -0.161E-05
 -22.866 -0.148E-05 -0.148E-05
 -22.856 -0.136E-05 -0.136E-05
 -22.846 -0.125E-05 -0.125E-05
 -22.836 -0.115E-05 -0.115E-05
 -22.826 -0.105E-05 -0.105E-05
 -22.816 -0.965E-06 -0.965E-06
 -22.806 -0.885E-06 -0.885E-06
 -22.796 -0.812E-06 -0.812E-06
 -22.786 -0.744E-06 -0.744E-06
 -22.776 -0.682E-06 -0.682E-06
 -22.766 -0.625E-06 -0.625E-06
 -22.756 -0.573E-06 -0.573E-06
 -22.746 -0.525E-06 -0.525E-06
 -22.736 -0.482E-06 -0.482E-06
 -22.726 -0.442E-06 -0.442E-06
 -22.716 -0.406E-06 -0.406E-06
 -22.706 -0.372E-06 -0.372E-06
 -22.696 -0.342E-06 -0.342E-06
 -22.686 -0.315E-06 -0.315E-06
 -22.676 -0.290E-06 -0.290E-06
 -22.666 -0.268E-06 -0.268E-06
 -22.656 -0.248E-06 -0.248E-06
 -22.646 -0.230E-06 -0.230E-06
 -22.636 -0.214E-06 -0.214E-06
 -22.626 -0.200E-06 -0.200E-06
 -22.616 -0.187E-06 -0.187E-06
 -22.606 -0.176E-06 -0.176E-06
 -22.596 -0.167E-06 -0.167E-06
 -22.586 -0.159E-06 -0.159E-06
 -22.576 -0.153E-06 -0.153E-06
 -22.566 -0.148E-06 -0.148E-06
 -22.556 -0.144E-06 -0.144E-06
 -22.546 -0.141E-06 -0.141E-06
 -22.536 -0.140E-06 -0.140E-06
 -22.526 -0.140E-06 -0.140E-06
 -22.516 -0.141E-06 -0.141E-06
 -22.506 -0.143E-06 -0.143E-06
 -22.496 -0.146E-06 -0.146E-06
 -22.486 -0.150E-06 -0.150E-06
 -22.476 -0.156E-06 -0.156E-06
 -22.466 -0.163E-06 -0.163E-06
 -22.456 -0.170E-06 -0.170E-06
 -22.446 -0.180E-06 -0.180E-06
 -22.436 -0.190E-06 -0.190E-06
 -22.426 -0.201E-06 -0.201E-06
 -22.416 -0.214E-06 -0.214E-06
 -22.406 -0.229E-06 -0.229E-06
 -22.396 -0.244E-06 -0.244E-06
 -22.386 -0.262E-06 -0.262E-06
 -22.376 -0.281E-06 -0.281E-06
 -22.366 -0.301E-06 -0.301E-06
 -22.356 -0.324E-06 -0.324E-06
 -22.346 -0.348E-06 -0.348E-06
 -22.336 -0.374E-06 -0.374E-06
 -22.326 -0.402E-06 -0.402E-06
 -22.316 -0.433E-06 -0.433E-06
 -22.306 -0.466E-06 -0.466E-06
 -22.296 -0.501E-06 -0.501E-06
 -22.286 -0.539E-06 -0.539E-06
 -22.276 -0.579E-06 -0.579E-06
 -22.266 -0.623E-06 -0.623E-06
 -22.256 -0.669E-06 -0.669E-06
 -22.246 -0.719E-06 -0.719E-06
 -22.236 -0.772E-06 -0.772E-06
 -22.226 -0.829E-06 -0.829E-06
 -22.216 -0.889E-06 -0.889E-06
 -22.206 -0.954E-06 -0.954E-06
 -22.196 -0.102E-05 -0.102E-05
 -22.186 -0.110E-05 -0.110E-05
 -22.176 -0.117E-05 -0.117E-05
 -22.166 -0.126E-05 -0.126E-05
 -22.156 -0.134E-05 -0.134E-05
 -22.146 -0.144E-05 -0.144E-05
 -22.136 -0.154E-05 -0.154E-05
 -22.126 -0.164E-05 -0.164E-05
 -22.116 -0.175E-05 -0.175E-05
 -22.106 -0.187E-05 -0.187E-05
 -22.096 -0.199E-05 -0.199E-05
 -22.086 -0.213E-05 -0.213E-05
 -22.076 -0.227E-05 -0.227E-05
 -22.066 -0.241E-05 -0.241E-05
 -22.056 -0.257E-05 -0.257E-05
 -22.046 -0.273E-05 -0.273E-05
 -22.036 -0.290E-05 -0.290E-05
 -22.026 -0.308E-05 -0.308E-05
 -22.016 -0.328E-05 -0.328E-05
 -22.006 -0.348E-05 -0.348E-05
 -21.996 -0.369E-05 -0.369E-05
 -21.986 -0.391E-05 -0.391E-05
 -21.976 -0.414E-05 -0.414E-05
 -21.966 -0.438E-05 -0.438E-05
 -21.956 -0.464E-05 -0.464E-05
 -21.946 -0.491E-05 -0.491E-05
 -21.936 -0.519E-05 -0.519E-05
 -21.926 -0.548E-05 -0.548E-05
 -21.916 -0.578E-05 -0.578E-05
 -21.906 -0.610E-05 -0.610E-05
 -21.896 -0.643E-05 -0.643E-05
 -21.886 -0.678E-05 -0.678E-05
 -21.876 -0.714E-05 -0.714E-05
 -21.866 -0.751E-05 -0.751E-05
 -21.856 -0.790E-05 -0.790E-05
 -21.846 -0.831E-05 -0.831E-05
 -21.836 -0.872E-05 -0.872E-05
 -21.826 -0.916E-05 -0.916E-05
 -21.816 -0.961E-05 -0.961E-05
 -21.806 -0.101E-04 -0.101E-04
 -21.796 -0.106E-04 -0.106E-04
 -21.786 -0.111E-04 -0.111E-04
 -21.776 -0.116E-04 -0.116E-04
 -21.766 -0.121E-04 -0.121E-04
 -21.756 -0.126E-04 -0.126E-04
 -21.746 -0.132E-04 -0.132E-04
 -21.736 -0.138E-04 -0.138E-04
 -21.726 -0.144E-04 -0.144E-04
 -21.716 -0.150E-04 -0.150E-04
 -21.706 -0.156E-04 -0.156E-04
 -21.696 -0.162E-04 -0.162E-04
 -21.686 -0.168E-04 -0.168E-04
 -21.676 -0.175E-04 -0.175E-04
 -21.666 -0.182E-04 -0.182E-04
 -21.656 -0.188E-04 -0.188E-04
 -21.646 -0.195E-04 -0.195E-04
 -21.636 -0.202E-04 -0.202E-04
 -21.626 -0.209E-04 -0.209E-04
 -21.616 -0.216E-04 -0.216E-04
 -21.606 -0.223E-04 -0.223E-04
 -21.596 -0.230E-04 -0.230E-04
 -21.586 -0.238E-04 -0.238E-04
 -21.576 -0.245E-04 -0.245E-04
 -21.566 -0.252E-04 -0.252E-04
 -21.556 -0.259E-04 -0.259E-04
 -21.546 -0.266E-04 -0.266E-04
 -21.536 -0.273E-04 -0.273E-04
 -21.526 -0.280E-04 -0.280E-04
 -21.516 -0.287E-04 -0.287E-04
 -21.506 -0.293E-04 -0.293E-04
 -21.496 -0.300E-04 -0.300E-04
 -21.486 -0.306E-04 -0.306E-04
 -21.476 -0.312E-04 -0.312E-04
 -21.466 -0.318E-04 -0.318E-04
 -21.456 -0.323E-04 -0.323E-04
 -21.446 -0.328E-04 -0.328E-04
 -21.436 -0.333E-04 -0.333E-04
 -21.426 -0.337E-04 -0.337E-04
 -21.416 -0.341E-04 -0.341E-04
 -21.406 -0.344E-04 -0.344E-04
 -21.396 -0.347E-04 -0.347E-04
 -21.386 -0.349E-04 -0.349E-04
 -21.376 -0.350E-04 -0.350E-04
 -21.366 -0.351E-04 -0.351E-04
 -21.356 -0.351E-04 -0.351E-04
 -21.346 -0.350E-04 -0.350E-04
 -21.336 -0.349E-04 -0.349E-04
 -21.326 -0.347E-04 -0.347E-04
 -21.316 -0.343E-04 -0.343E-04
 -21.306 -0.339E-04 -0.339E-04
 -21.296 -0.334E-04 -0.334E-04
 -21.286 -0.327E-04 -0.327E-04
 -21.276 -0.320E-04 -0.320E-04
 -21.266 -0.311E-04 -0.311E-04
 -21.256 -0.301E-04 -0.301E-04
 -21.246 -0.290E-04 -0.290E-04
 -21.236 -0.277E-04 -0.277E-04
 -21.226 -0.263E-04 -0.263E-04
 -21.216 -0.248E-04 -0.248E-04
 -21.206 -0.231E-04 -0.231E-04
 -21.196 -0.212E-04 -0.212E-04
 -21.186 -0.192E-04 -0.192E-04
 -21.176 -0.170E-04 -0.170E-04
 -21.166 -0.147E-04 -0.147E-04
 -21.156 -0.121E-04 -0.121E-04
 -21.146 -0.939E-05 -0.939E-05
 -21.136 -0.648E-05 -0.648E-05
 -21.126 -0.337E-05 -0.337E-05
 -21.116 -0.665E-07 -0.665E-07
 -21.106  0.344E-05  0.344E-05
 -21.096  0.715E-05  0.715E-05
 -21.086  0.111E-04  0.111E-04
 -21.076  0.152E-04  0.152E-04
 -21.066  0.196E-04  0.196E-04
 -21.056  0.241E-04  0.241E-04
 -21.046  0.289E-04  0.289E-04
 -21.036  0.339E-04  0.339E-04
 -21.026  0.392E-04  0.392E-04
 -21.016  0.446E-04  0.446E-04
 -21.006  0.503E-04  0.503E-04
 -20.996  0.562E-04  0.562E-04
 -20.986  0.624E-04  0.624E-04
 -20.976  0.687E-04  0.687E-04
 -20.966  0.753E-04  0.753E-04
 -20.956  0.822E-04  0.822E-04
 -20.946  0.892E-04  0.892E-04
 -20.936  0.965E-04  0.965E-04
 -20.926  0.104E-03  0.104E-03
 -20.916  0.112E-03  0.112E-03
 -20.906  0.120E-03  0.120E-03
 -20.896  0.128E-03  0.128E-03
 -20.886  0.136E-03  0.136E-03
 -20.876  0.144E-03  0.144E-03
 -20.866  0.153E-03  0.153E-03
 -20.856  0.162E-03  0.162E-03
 -20.846  0.171E-03  0.171E-03
 -20.836  0.180E-03  0.180E-03
 -20.826  0.190E-03  0.190E-03
 -20.816  0.199E-03  0.199E-03
 -20.806  0.209E-03  0.209E-03
 -20.796  0.219E-03  0.219E-03
 -20.786  0.228E-03  0.228E-03
 -20.776  0.238E-03  0.238E-03
 -20.766  0.248E-03  0.248E-03
 -20.756  0.259E-03  0.259E-03
 -20.746  0.269E-03  0.269E-03
 -20.736  0.279E-03  0.279E-03
 -20.726  0.289E-03  0.289E-03
 -20.716  0.300E-03  0.300E-03
 -20.706  0.310E-03  0.310E-03
 -20.696  0.320E-03  0.320E-03
 -20.686  0.331E-03  0.331E-03
 -20.676  0.341E-03  0.341E-03
 -20.666  0.351E-03  0.351E-03
 -20.656  0.361E-03  0.361E-03
 -20.646  0.371E-03  0.371E-03
 -20.636  0.381E-03  0.381E-03
 -20.626  0.391E-03  0.391E-03
 -20.616  0.401E-03  0.401E-03
 -20.606  0.410E-03  0.410E-03
 -20.596  0.420E-03  0.420E-03
 -20.586  0.429E-03  0.429E-03
 -20.576  0.438E-03  0.438E-03
 -20.566  0.446E-03  0.446E-03
 -20.556  0.455E-03  0.455E-03
 -20.546  0.463E-03  0.463E-03
 -20.536  0.471E-03  0.471E-03
 -20.526  0.479E-03  0.479E-03
 -20.516  0.486E-03  0.486E-03
 -20.506  0.493E-03  0.493E-03
 -20.496  0.500E-03  0.500E-03
 -20.486  0.506E-03  0.506E-03
 -20.476  0.512E-03  0.512E-03
 -20.466  0.518E-03  0.518E-03
 -20.456  0.523E-03  0.523E-03
 -20.446  0.527E-03  0.527E-03
 -20.436  0.532E-03  0.532E-03
 -20.426  0.536E-03  0.536E-03
 -20.416  0.539E-03  0.539E-03
 -20.406  0.542E-03  0.542E-03
 -20.396  0.545E-03  0.545E-03
 -20.386  0.547E-03  0.547E-03
 -20.376  0.549E-03  0.549E-03
 -20.366  0.550E-03  0.550E-03
 -20.356  0.551E-03  0.551E-03
 -20.346  0.551E-03  0.551E-03
 -20.336  0.551E-03  0.551E-03
 -20.326  0.550E-03  0.550E-03
 -20.316  0.549E-03  0.549E-03
 -20.306  0.547E-03  0.547E-03
 -20.296  0.545E-03  0.545E-03
 -20.286  0.543E-03  0.543E-03
 -20.276  0.540E-03  0.540E-03
 -20.266  0.537E-03  0.537E-03
 -20.256  0.533E-03  0.533E-03
 -20.246  0.528E-03  0.528E-03
 -20.236  0.524E-03  0.524E-03
 -20.226  0.519E-03  0.519E-03
 -20.216  0.513E-03  0.513E-03
 -20.206  0.508E-03  0.508E-03
 -20.196  0.501E-03  0.501E-03
 -20.186  0.495E-03  0.495E-03
 -20.176  0.488E-03  0.488E-03
 -20.166  0.481E-03  0.481E-03
 -20.156  0.474E-03  0.474E-03
 -20.146  0.466E-03  0.466E-03
 -20.136  0.459E-03  0.459E-03
 -20.126  0.451E-03  0.451E-03
 -20.116  0.443E-03  0.443E-03
 -20.106  0.434E-03  0.434E-03
 -20.096  0.426E-03  0.426E-03
 -20.086  0.418E-03  0.418E-03
 -20.076  0.409E-03  0.409E-03
 -20.066  0.401E-03  0.401E-03
 -20.056  0.393E-03  0.393E-03
 -20.046  0.384E-03  0.384E-03
 -20.036  0.376E-03  0.376E-03
 -20.026  0.368E-03  0.368E-03
 -20.016  0.360E-03  0.360E-03
 -20.006  0.353E-03  0.353E-03
 -19.996  0.345E-03  0.345E-03
 -19.986  0.338E-03  0.338E-03
 -19.976  0.331E-03  0.331E-03
 -19.966  0.325E-03  0.325E-03
 -19.956  0.319E-03  0.319E-03
 -19.946  0.313E-03  0.313E-03
 -19.936  0.308E-03  0.308E-03
 -19.926  0.304E-03  0.304E-03
 -19.916  0.300E-03  0.300E-03
 -19.906  0.296E-03  0.296E-03
 -19.896  0.294E-03  0.294E-03
 -19.886  0.291E-03  0.291E-03
 -19.876  0.290E-03  0.290E-03
 -19.866  0.289E-03  0.289E-03
 -19.856  0.290E-03  0.290E-03
 -19.846  0.290E-03  0.290E-03
 -19.836  0.292E-03  0.292E-03
 -19.826  0.295E-03  0.295E-03
 -19.816  0.298E-03  0.298E-03
 -19.806  0.303E-03  0.303E-03
 -19.796  0.308E-03  0.308E-03
 -19.786  0.315E-03  0.315E-03
 -19.776  0.322E-03  0.322E-03
 -19.766  0.330E-03  0.330E-03
 -19.756  0.340E-03  0.340E-03
 -19.746  0.350E-03  0.350E-03
 -19.736  0.362E-03  0.362E-03
 -19.726  0.375E-03  0.375E-03
 -19.716  0.389E-03  0.389E-03
 -19.706  0.403E-03  0.403E-03
 -19.696  0.420E-03  0.420E-03
 -19.686  0.437E-03  0.437E-03
 -19.676  0.455E-03  0.455E-03
 -19.666  0.474E-03  0.474E-03
 -19.656  0.495E-03  0.495E-03
 -19.646  0.517E-03  0.517E-03
 -19.636  0.540E-03  0.540E-03
 -19.626  0.564E-03  0.564E-03
 -19.616  0.589E-03  0.589E-03
 -19.606  0.615E-03  0.615E-03
 -19.596  0.642E-03  0.642E-03
 -19.586  0.670E-03  0.670E-03
 -19.576  0.700E-03  0.700E-03
 -19.566  0.730E-03  0.730E-03
 -19.556  0.761E-03  0.761E-03
 -19.546  0.794E-03  0.794E-03
 -19.536  0.827E-03  0.827E-03
 -19.526  0.861E-03  0.861E-03
 -19.516  0.896E-03  0.896E-03
 -19.506  0.931E-03  0.931E-03
 -19.496  0.968E-03  0.968E-03
 -19.486  0.100E-02  0.100E-02
 -19.476  0.104E-02  0.104E-02
 -19.466  0.108E-02  0.108E-02
 -19.456  0.112E-02  0.112E-02
 -19.446  0.116E-02  0.116E-02
 -19.436  0.120E-02  0.120E-02
 -19.426  0.124E-02  0.124E-02
 -19.416  0.128E-02  0.128E-02
 -19.406  0.132E-02  0.132E-02
 -19.396  0.136E-02  0.136E-02
 -19.386  0.140E-02  0.140E-02
 -19.376  0.145E-02  0.145E-02
 -19.366  0.149E-02  0.149E-02
 -19.356  0.153E-02  0.153E-02
 -19.346  0.157E-02  0.157E-02
 -19.336  0.161E-02  0.161E-02
 -19.326  0.165E-02  0.165E-02
 -19.316  0.169E-02  0.169E-02
 -19.306  0.173E-02  0.173E-02
 -19.296  0.177E-02  0.177E-02
 -19.286  0.181E-02  0.181E-02
 -19.276  0.185E-02  0.185E-02
 -19.266  0.189E-02  0.189E-02
 -19.256  0.193E-02  0.193E-02
 -19.246  0.196E-02  0.196E-02
 -19.236  0.200E-02  0.200E-02
 -19.226  0.203E-02  0.203E-02
 -19.216  0.207E-02  0.207E-02
 -19.206  0.210E-02  0.210E-02
 -19.196  0.213E-02  0.213E-02
 -19.186  0.216E-02  0.216E-02
 -19.176  0.219E-02  0.219E-02
 -19.166  0.222E-02  0.222E-02
 -19.156  0.225E-02  0.225E-02
 -19.146  0.227E-02  0.227E-02
 -19.136  0.229E-02  0.229E-02
 -19.126  0.232E-02  0.232E-02
 -19.116  0.234E-02  0.234E-02
 -19.106  0.236E-02  0.236E-02
 -19.096  0.238E-02  0.238E-02
 -19.086  0.239E-02  0.239E-02
 -19.076  0.241E-02  0.241E-02
 -19.066  0.242E-02  0.242E-02
 -19.056  0.243E-02  0.243E-02
 -19.046  0.244E-02  0.244E-02
 -19.036  0.245E-02  0.245E-02
 -19.026  0.245E-02  0.245E-02
 -19.016  0.246E-02  0.246E-02
 -19.006  0.246E-02  0.246E-02
 -18.996  0.246E-02  0.246E-02
 -18.986  0.246E-02  0.246E-02
 -18.976  0.245E-02  0.245E-02
 -18.966  0.245E-02  0.245E-02
 -18.956  0.244E-02  0.244E-02
 -18.946  0.243E-02  0.243E-02
 -18.936  0.242E-02  0.242E-02
 -18.926  0.241E-02  0.241E-02
 -18.916  0.240E-02  0.240E-02
 -18.906  0.238E-02  0.238E-02
 -18.896  0.236E-02  0.236E-02
 -18.886  0.235E-02  0.235E-02
 -18.876  0.232E-02  0.232E-02
 -18.866  0.230E-02  0.230E-02
 -18.856  0.228E-02  0.228E-02
 -18.846  0.225E-02  0.225E-02
 -18.836  0.223E-02  0.223E-02
 -18.826  0.220E-02  0.220E-02
 -18.816  0.217E-02  0.217E-02
 -18.806  0.214E-02  0.214E-02
 -18.796  0.211E-02  0.211E-02
 -18.786  0.207E-02  0.207E-02
 -18.776  0.204E-02  0.204E-02
 -18.766  0.200E-02  0.200E-02
 -18.756  0.197E-02  0.197E-02
 -18.746  0.193E-02  0.193E-02
 -18.736  0.189E-02  0.189E-02
 -18.726  0.185E-02  0.185E-02
 -18.716  0.181E-02  0.181E-02
 -18.706  0.177E-02  0.177E-02
 -18.696  0.173E-02  0.173E-02
 -18.686  0.168E-02  0.168E-02
 -18.676  0.164E-02  0.164E-02
 -18.666  0.160E-02  0.160E-02
 -18.656  0.155E-02  0.155E-02
 -18.646  0.151E-02  0.151E-02
 -18.636  0.146E-02  0.146E-02
 -18.626  0.142E-02  0.142E-02
 -18.616  0.137E-02  0.137E-02
 -18.606  0.133E-02  0.133E-02
 -18.596  0.128E-02  0.128E-02
 -18.586  0.123E-02  0.123E-02
 -18.576  0.119E-02  0.119E-02
 -18.566  0.114E-02  0.114E-02
 -18.556  0.110E-02  0.110E-02
 -18.546  0.105E-02  0.105E-02
 -18.536  0.100E-02  0.100E-02
 -18.526  0.959E-03  0.959E-03
 -18.516  0.913E-03  0.913E-03
 -18.506  0.868E-03  0.868E-03
 -18.496  0.824E-03  0.824E-03
 -18.486  0.779E-03  0.779E-03
 -18.476  0.735E-03  0.735E-03
 -18.466  0.692E-03  0.692E-03
 -18.456  0.649E-03  0.649E-03
 -18.446  0.606E-03  0.606E-03
 -18.436  0.564E-03  0.564E-03
 -18.426  0.522E-03  0.522E-03
 -18.416  0.481E-03  0.481E-03
 -18.406  0.441E-03  0.441E-03
 -18.396  0.401E-03  0.401E-03
 -18.386  0.362E-03  0.362E-03
 -18.376  0.324E-03  0.324E-03
 -18.366  0.286E-03  0.286E-03
 -18.356  0.249E-03  0.249E-03
 -18.346  0.212E-03  0.212E-03
 -18.336  0.177E-03  0.177E-03
 -18.326  0.142E-03  0.142E-03
 -18.316  0.107E-03  0.107E-03
 -18.306  0.737E-04  0.737E-04
 -18.296  0.409E-04  0.409E-04
 -18.286  0.886E-05  0.886E-05
 -18.276 -0.224E-04 -0.224E-04
 -18.266 -0.530E-04 -0.530E-04
 -18.256 -0.827E-04 -0.827E-04
 -18.246 -0.112E-03 -0.112E-03
 -18.236 -0.140E-03 -0.140E-03
 -18.226 -0.167E-03 -0.167E-03
 -18.216 -0.194E-03 -0.194E-03
 -18.206 -0.220E-03 -0.220E-03
 -18.196 -0.245E-03 -0.245E-03
 -18.186 -0.269E-03 -0.269E-03
 -18.176 -0.293E-03 -0.293E-03
 -18.166 -0.316E-03 -0.316E-03
 -18.156 -0.338E-03 -0.338E-03
 -18.146 -0.359E-03 -0.359E-03
 -18.136 -0.379E-03 -0.379E-03
 -18.126 -0.398E-03 -0.398E-03
 -18.116 -0.417E-03 -0.417E-03
 -18.106 -0.435E-03 -0.435E-03
 -18.096 -0.451E-03 -0.451E-03
 -18.086 -0.467E-03 -0.467E-03
 -18.076 -0.482E-03 -0.482E-03
 -18.066 -0.497E-03 -0.497E-03
 -18.056 -0.510E-03 -0.510E-03
 -18.046 -0.522E-03 -0.522E-03
 -18.036 -0.533E-03 -0.533E-03
 -18.026 -0.544E-03 -0.544E-03
 -18.016 -0.553E-03 -0.553E-03
 -18.006 -0.561E-03 -0.561E-03
 -17.996 -0.568E-03 -0.568E-03
 -17.986 -0.574E-03 -0.574E-03
 -17.976 -0.579E-03 -0.579E-03
 -17.966 -0.583E-03 -0.583E-03
 -17.956 -0.585E-03 -0.585E-03
 -17.946 -0.586E-03 -0.586E-03
 -17.936 -0.586E-03 -0.586E-03
 -17.926 -0.585E-03 -0.585E-03
 -17.916 -0.582E-03 -0.582E-03
 -17.906 -0.577E-03 -0.577E-03
 -17.896 -0.571E-03 -0.571E-03
 -17.886 -0.564E-03 -0.564E-03
 -17.876 -0.555E-03 -0.555E-03
 -17.866 -0.544E-03 -0.544E-03
 -17.856 -0.532E-03 -0.532E-03
 -17.846 -0.518E-03 -0.518E-03
 -17.836 -0.502E-03 -0.502E-03
 -17.826 -0.484E-03 -0.484E-03
 -17.816 -0.464E-03 -0.464E-03
 -17.806 -0.442E-03 -0.442E-03
 -17.796 -0.418E-03 -0.418E-03
 -17.786 -0.392E-03 -0.392E-03
 -17.776 -0.363E-03 -0.363E-03
 -17.766 -0.333E-03 -0.333E-03
 -17.756 -0.300E-03 -0.300E-03
 -17.746 -0.265E-03 -0.265E-03
 -17.736 -0.227E-03 -0.227E-03
 -17.726 -0.187E-03 -0.187E-03
 -17.716 -0.144E-03 -0.144E-03
 -17.706 -0.991E-04 -0.991E-04
 -17.696 -0.511E-04 -0.511E-04
 -17.686 -0.536E-06 -0.536E-06
 -17.676  0.528E-04  0.528E-04
 -17.666  0.109E-03  0.109E-03
 -17.656  0.168E-03  0.168E-03
 -17.646  0.230E-03  0.230E-03
 -17.636  0.294E-03  0.294E-03
 -17.626  0.362E-03  0.362E-03
 -17.616  0.433E-03  0.433E-03
 -17.606  0.506E-03  0.506E-03
 -17.596  0.583E-03  0.583E-03
 -17.586  0.662E-03  0.662E-03
 -17.576  0.745E-03  0.745E-03
 -17.566  0.831E-03  0.831E-03
 -17.556  0.919E-03  0.919E-03
 -17.546  0.101E-02  0.101E-02
 -17.536  0.111E-02  0.111E-02
 -17.526  0.120E-02  0.120E-02
 -17.516  0.130E-02  0.130E-02
 -17.506  0.141E-02  0.141E-02
 -17.496  0.151E-02  0.151E-02
 -17.486  0.162E-02  0.162E-02
 -17.476  0.173E-02  0.173E-02
 -17.466  0.185E-02  0.185E-02
 -17.456  0.197E-02  0.197E-02
 -17.446  0.209E-02  0.209E-02
 -17.436  0.221E-02  0.221E-02
 -17.426  0.233E-02  0.233E-02
 -17.416  0.246E-02  0.246E-02
 -17.406  0.259E-02  0.259E-02
 -17.396  0.272E-02  0.272E-02
 -17.386  0.285E-02  0.285E-02
 -17.376  0.299E-02  0.299E-02
 -17.366  0.313E-02  0.313E-02
 -17.356  0.326E-02  0.326E-02
 -17.346  0.340E-02  0.340E-02
 -17.336  0.354E-02  0.354E-02
 -17.326  0.369E-02  0.369E-02
 -17.316  0.383E-02  0.383E-02
 -17.306  0.397E-02  0.397E-02
 -17.296  0.412E-02  0.412E-02
 -17.286  0.426E-02  0.426E-02
 -17.276  0.441E-02  0.441E-02
 -17.266  0.455E-02  0.455E-02
 -17.256  0.470E-02  0.470E-02
 -17.246  0.484E-02  0.484E-02
 -17.236  0.499E-02  0.499E-02
 -17.226  0.513E-02  0.513E-02
 -17.216  0.528E-02  0.528E-02
 -17.206  0.542E-02  0.542E-02
 -17.196  0.556E-02  0.556E-02
 -17.186  0.570E-02  0.570E-02
 -17.176  0.584E-02  0.584E-02
 -17.166  0.597E-02  0.597E-02
 -17.156  0.610E-02  0.610E-02
 -17.146  0.623E-02  0.623E-02
 -17.136  0.636E-02  0.636E-02
 -17.126  0.649E-02  0.649E-02
 -17.116  0.661E-02  0.661E-02
 -17.106  0.673E-02  0.673E-02
 -17.096  0.685E-02  0.685E-02
 -17.086  0.696E-02  0.696E-02
 -17.076  0.707E-02  0.707E-02
 -17.066  0.717E-02  0.717E-02
 -17.056  0.728E-02  0.728E-02
 -17.046  0.737E-02  0.737E-02
 -17.036  0.746E-02  0.746E-02
 -17.026  0.755E-02  0.755E-02
 -17.016  0.764E-02  0.764E-02
 -17.006  0.771E-02  0.771E-02
 -16.996  0.779E-02  0.779E-02
 -16.986  0.786E-02  0.786E-02
 -16.976  0.792E-02  0.792E-02
 -16.966  0.798E-02  0.798E-02
 -16.956  0.803E-02  0.803E-02
 -16.946  0.807E-02  0.807E-02
 -16.936  0.811E-02  0.811E-02
 -16.926  0.815E-02  0.815E-02
 -16.916  0.818E-02  0.818E-02
 -16.906  0.820E-02  0.820E-02
 -16.896  0.822E-02  0.822E-02
 -16.886  0.823E-02  0.823E-02
 -16.876  0.824E-02  0.824E-02
 -16.866  0.824E-02  0.824E-02
 -16.856  0.823E-02  0.823E-02
 -16.846  0.822E-02  0.822E-02
 -16.836  0.820E-02  0.820E-02
 -16.826  0.818E-02  0.818E-02
 -16.816  0.815E-02  0.815E-02
 -16.806  0.811E-02  0.811E-02
 -16.796  0.807E-02  0.807E-02
 -16.786  0.803E-02  0.803E-02
 -16.776  0.798E-02  0.798E-02
 -16.766  0.792E-02  0.792E-02
 -16.756  0.786E-02  0.786E-02
 -16.746  0.779E-02  0.779E-02
 -16.736  0.771E-02  0.771E-02
 -16.726  0.764E-02  0.764E-02
 -16.716  0.755E-02  0.755E-02
 -16.706  0.747E-02  0.747E-02
 -16.696  0.737E-02  0.737E-02
 -16.686  0.728E-02  0.728E-02
 -16.676  0.718E-02  0.718E-02
 -16.666  0.707E-02  0.707E-02
 -16.656  0.696E-02  0.696E-02
 -16.646  0.685E-02  0.685E-02
 -16.636  0.674E-02  0.674E-02
 -16.626  0.662E-02  0.662E-02
 -16.616  0.650E-02  0.650E-02
 -16.606  0.637E-02  0.637E-02
 -16.596  0.624E-02  0.624E-02
 -16.586  0.611E-02  0.611E-02
 -16.576  0.598E-02  0.598E-02
 -16.566  0.585E-02  0.585E-02
 -16.556  0.571E-02  0.571E-02
 -16.546  0.557E-02  0.557E-02
 -16.536  0.543E-02  0.543E-02
 -16.526  0.529E-02  0.529E-02
 -16.516  0.515E-02  0.515E-02
 -16.506  0.501E-02  0.501E-02
 -16.496  0.486E-02  0.486E-02
 -16.486  0.472E-02  0.472E-02
 -16.476  0.458E-02  0.458E-02
 -16.466  0.443E-02  0.443E-02
 -16.456  0.429E-02  0.429E-02
 -16.446  0.415E-02  0.415E-02
 -16.436  0.400E-02  0.400E-02
 -16.426  0.386E-02  0.386E-02
 -16.416  0.372E-02  0.372E-02
 -16.406  0.358E-02  0.358E-02
 -16.396  0.344E-02  0.344E-02
 -16.386  0.330E-02  0.330E-02
 -16.376  0.317E-02  0.317E-02
 -16.366  0.303E-02  0.303E-02
 -16.356  0.290E-02  0.290E-02
 -16.346  0.277E-02  0.277E-02
 -16.336  0.264E-02  0.264E-02
 -16.326  0.251E-02  0.251E-02
 -16.316  0.239E-02  0.239E-02
 -16.306  0.227E-02  0.227E-02
 -16.296  0.215E-02  0.215E-02
 -16.286  0.203E-02  0.203E-02
 -16.276  0.191E-02  0.191E-02
 -16.266  0.180E-02  0.180E-02
 -16.256  0.169E-02  0.169E-02
 -16.246  0.159E-02  0.159E-02
 -16.236  0.148E-02  0.148E-02
 -16.226  0.138E-02  0.138E-02
 -16.216  0.128E-02  0.128E-02
 -16.206  0.119E-02  0.119E-02
 -16.196  0.110E-02  0.110E-02
 -16.186  0.101E-02  0.101E-02
 -16.176  0.924E-03  0.924E-03
 -16.166  0.841E-03  0.841E-03
 -16.156  0.761E-03  0.761E-03
 -16.146  0.685E-03  0.685E-03
 -16.136  0.611E-03  0.611E-03
 -16.126  0.541E-03  0.541E-03
 -16.116  0.473E-03  0.473E-03
 -16.106  0.408E-03  0.408E-03
 -16.096  0.347E-03  0.347E-03
 -16.086  0.288E-03  0.288E-03
 -16.076  0.232E-03  0.232E-03
 -16.066  0.179E-03  0.179E-03
 -16.056  0.128E-03  0.128E-03
 -16.046  0.805E-04  0.805E-04
 -16.036  0.354E-04  0.354E-04
 -16.026 -0.706E-05 -0.706E-05
 -16.016 -0.470E-04 -0.470E-04
 -16.006 -0.845E-04 -0.845E-04
 -15.996 -0.120E-03 -0.120E-03
 -15.986 -0.152E-03 -0.152E-03
 -15.976 -0.183E-03 -0.183E-03
 -15.966 -0.211E-03 -0.211E-03
 -15.956 -0.237E-03 -0.237E-03
 -15.946 -0.261E-03 -0.261E-03
 -15.936 -0.283E-03 -0.283E-03
 -15.926 -0.304E-03 -0.304E-03
 -15.916 -0.322E-03 -0.322E-03
 -15.906 -0.338E-03 -0.338E-03
 -15.896 -0.353E-03 -0.353E-03
 -15.886 -0.366E-03 -0.366E-03
 -15.876 -0.378E-03 -0.378E-03
 -15.866 -0.388E-03 -0.388E-03
 -15.856 -0.397E-03 -0.397E-03
 -15.846 -0.405E-03 -0.405E-03
 -15.836 -0.411E-03 -0.411E-03
 -15.826 -0.416E-03 -0.416E-03
 -15.816 -0.420E-03 -0.420E-03
 -15.806 -0.423E-03 -0.423E-03
 -15.796 -0.425E-03 -0.425E-03
 -15.786 -0.425E-03 -0.425E-03
 -15.776 -0.426E-03 -0.426E-03
 -15.766 -0.425E-03 -0.425E-03
 -15.756 -0.423E-03 -0.423E-03
 -15.746 -0.421E-03 -0.421E-03
 -15.736 -0.419E-03 -0.419E-03
 -15.726 -0.415E-03 -0.415E-03
 -15.716 -0.411E-03 -0.411E-03
 -15.706 -0.407E-03 -0.407E-03
 -15.696 -0.403E-03 -0.403E-03
 -15.686 -0.398E-03 -0.398E-03
 -15.676 -0.392E-03 -0.392E-03
 -15.666 -0.387E-03 -0.387E-03
 -15.656 -0.381E-03 -0.381E-03
 -15.646 -0.375E-03 -0.375E-03
 -15.636 -0.369E-03 -0.369E-03
 -15.626 -0.362E-03 -0.362E-03
 -15.616 -0.356E-03 -0.356E-03
 -15.606 -0.350E-03 -0.350E-03
 -15.596 -0.344E-03 -0.344E-03
 -15.586 -0.337E-03 -0.337E-03
 -15.576 -0.331E-03 -0.331E-03
 -15.566 -0.325E-03 -0.325E-03
 -15.556 -0.319E-03 -0.319E-03
 -15.546 -0.313E-03 -0.313E-03
 -15.536 -0.308E-03 -0.308E-03
 -15.526 -0.302E-03 -0.302E-03
 -15.516 -0.297E-03 -0.297E-03
 -15.506 -0.292E-03 -0.292E-03
 -15.496 -0.288E-03 -0.288E-03
 -15.486 -0.283E-03 -0.283E-03
 -15.476 -0.279E-03 -0.279E-03
 -15.466 -0.275E-03 -0.275E-03
 -15.456 -0.272E-03 -0.272E-03
 -15.446 -0.269E-03 -0.269E-03
 -15.436 -0.266E-03 -0.266E-03
 -15.426 -0.264E-03 -0.264E-03
 -15.416 -0.262E-03 -0.262E-03
 -15.406 -0.260E-03 -0.260E-03
 -15.396 -0.259E-03 -0.259E-03
 -15.386 -0.258E-03 -0.258E-03
 -15.376 -0.258E-03 -0.258E-03
 -15.366 -0.258E-03 -0.258E-03
 -15.356 -0.258E-03 -0.258E-03
 -15.346 -0.259E-03 -0.259E-03
 -15.336 -0.260E-03 -0.260E-03
 -15.326 -0.262E-03 -0.262E-03
 -15.316 -0.264E-03 -0.264E-03
 -15.306 -0.267E-03 -0.267E-03
 -15.296 -0.270E-03 -0.270E-03
 -15.286 -0.273E-03 -0.273E-03
 -15.276 -0.277E-03 -0.277E-03
 -15.266 -0.281E-03 -0.281E-03
 -15.256 -0.286E-03 -0.286E-03
 -15.246 -0.291E-03 -0.291E-03
 -15.236 -0.297E-03 -0.297E-03
 -15.226 -0.302E-03 -0.302E-03
 -15.216 -0.309E-03 -0.309E-03
 -15.206 -0.315E-03 -0.315E-03
 -15.196 -0.322E-03 -0.322E-03
 -15.186 -0.330E-03 -0.330E-03
 -15.176 -0.338E-03 -0.338E-03
 -15.166 -0.346E-03 -0.346E-03
 -15.156 -0.354E-03 -0.354E-03
 -15.146 -0.363E-03 -0.363E-03
 -15.136 -0.372E-03 -0.372E-03
 -15.126 -0.381E-03 -0.381E-03
 -15.116 -0.390E-03 -0.390E-03
 -15.106 -0.400E-03 -0.400E-03
 -15.096 -0.410E-03 -0.410E-03
 -15.086 -0.420E-03 -0.420E-03
 -15.076 -0.430E-03 -0.430E-03
 -15.066 -0.440E-03 -0.440E-03
 -15.056 -0.450E-03 -0.450E-03
 -15.046 -0.460E-03 -0.460E-03
 -15.036 -0.470E-03 -0.470E-03
 -15.026 -0.480E-03 -0.480E-03
 -15.016 -0.490E-03 -0.490E-03
 -15.006 -0.500E-03 -0.500E-03
 -14.996 -0.509E-03 -0.509E-03
 -14.986 -0.519E-03 -0.519E-03
 -14.976 -0.528E-03 -0.528E-03
 -14.966 -0.537E-03 -0.537E-03
 -14.956 -0.545E-03 -0.545E-03
 -14.946 -0.553E-03 -0.553E-03
 -14.936 -0.560E-03 -0.560E-03
 -14.926 -0.567E-03 -0.567E-03
 -14.916 -0.573E-03 -0.573E-03
 -14.906 -0.578E-03 -0.578E-03
 -14.896 -0.582E-03 -0.582E-03
 -14.886 -0.586E-03 -0.586E-03
 -14.876 -0.589E-03 -0.589E-03
 -14.866 -0.590E-03 -0.590E-03
 -14.856 -0.591E-03 -0.591E-03
 -14.846 -0.590E-03 -0.590E-03
 -14.836 -0.588E-03 -0.588E-03
 -14.826 -0.585E-03 -0.585E-03
 -14.816 -0.581E-03 -0.581E-03
 -14.806 -0.574E-03 -0.574E-03
 -14.796 -0.567E-03 -0.567E-03
 -14.786 -0.557E-03 -0.557E-03
 -14.776 -0.546E-03 -0.546E-03
 -14.766 -0.533E-03 -0.533E-03
 -14.756 -0.518E-03 -0.518E-03
 -14.746 -0.501E-03 -0.501E-03
 -14.736 -0.482E-03 -0.482E-03
 -14.726 -0.461E-03 -0.461E-03
 -14.716 -0.437E-03 -0.437E-03
 -14.706 -0.411E-03 -0.411E-03
 -14.696 -0.382E-03 -0.382E-03
 -14.686 -0.351E-03 -0.351E-03
 -14.676 -0.317E-03 -0.317E-03
 -14.666 -0.280E-03 -0.280E-03
 -14.656 -0.241E-03 -0.241E-03
 -14.646 -0.198E-03 -0.198E-03
 -14.636 -0.152E-03 -0.152E-03
 -14.626 -0.104E-03 -0.104E-03
 -14.616 -0.520E-04 -0.520E-04
 -14.606  0.315E-05  0.315E-05
 -14.596  0.616E-04  0.616E-04
 -14.586  0.123E-03  0.123E-03
 -14.576  0.189E-03  0.189E-03
 -14.566  0.258E-03  0.258E-03
 -14.556  0.330E-03  0.330E-03
 -14.546  0.406E-03  0.406E-03
 -14.536  0.486E-03  0.486E-03
 -14.526  0.569E-03  0.569E-03
 -14.516  0.657E-03  0.657E-03
 -14.506  0.748E-03  0.748E-03
 -14.496  0.843E-03  0.843E-03
 -14.486  0.941E-03  0.941E-03
 -14.476  0.104E-02  0.104E-02
 -14.466  0.115E-02  0.115E-02
 -14.456  0.126E-02  0.126E-02
 -14.446  0.137E-02  0.137E-02
 -14.436  0.149E-02  0.149E-02
 -14.426  0.161E-02  0.161E-02
 -14.416  0.174E-02  0.174E-02
 -14.406  0.187E-02  0.187E-02
 -14.396  0.200E-02  0.200E-02
 -14.386  0.214E-02  0.214E-02
 -14.376  0.228E-02  0.228E-02
 -14.366  0.242E-02  0.242E-02
 -14.356  0.257E-02  0.257E-02
 -14.346  0.272E-02  0.272E-02
 -14.336  0.287E-02  0.287E-02
 -14.326  0.303E-02  0.303E-02
 -14.316  0.319E-02  0.319E-02
 -14.306  0.335E-02  0.335E-02
 -14.296  0.352E-02  0.352E-02
 -14.286  0.369E-02  0.369E-02
 -14.276  0.386E-02  0.386E-02
 -14.266  0.403E-02  0.403E-02
 -14.256  0.420E-02  0.420E-02
 -14.246  0.438E-02  0.438E-02
 -14.236  0.456E-02  0.456E-02
 -14.226  0.474E-02  0.474E-02
 -14.216  0.492E-02  0.492E-02
 -14.206  0.510E-02  0.510E-02
 -14.196  0.529E-02  0.529E-02
 -14.186  0.547E-02  0.547E-02
 -14.176  0.566E-02  0.566E-02
 -14.166  0.584E-02  0.584E-02
 -14.156  0.603E-02  0.603E-02
 -14.146  0.621E-02  0.621E-02
 -14.136  0.640E-02  0.640E-02
 -14.126  0.658E-02  0.658E-02
 -14.116  0.676E-02  0.676E-02
 -14.106  0.695E-02  0.695E-02
 -14.096  0.713E-02  0.713E-02
 -14.086  0.731E-02  0.731E-02
 -14.076  0.749E-02  0.749E-02
 -14.066  0.766E-02  0.766E-02
 -14.056  0.784E-02  0.784E-02
 -14.046  0.801E-02  0.801E-02
 -14.036  0.818E-02  0.818E-02
 -14.026  0.834E-02  0.834E-02
 -14.016  0.850E-02  0.850E-02
 -14.006  0.866E-02  0.866E-02
 -13.996  0.882E-02  0.882E-02
 -13.986  0.897E-02  0.897E-02
 -13.976  0.911E-02  0.911E-02
 -13.966  0.926E-02  0.926E-02
 -13.956  0.940E-02  0.940E-02
 -13.946  0.953E-02  0.953E-02
 -13.936  0.966E-02  0.966E-02
 -13.926  0.978E-02  0.978E-02
 -13.916  0.990E-02  0.990E-02
 -13.906  0.100E-01  0.100E-01
 -13.896  0.101E-01  0.101E-01
 -13.886  0.102E-01  0.102E-01
 -13.876  0.103E-01  0.103E-01
 -13.866  0.104E-01  0.104E-01
 -13.856  0.105E-01  0.105E-01
 -13.846  0.106E-01  0.106E-01
 -13.836  0.106E-01  0.106E-01
 -13.826  0.107E-01  0.107E-01
 -13.816  0.108E-01  0.108E-01
 -13.806  0.108E-01  0.108E-01
 -13.796  0.109E-01  0.109E-01
 -13.786  0.109E-01  0.109E-01
 -13.776  0.109E-01  0.109E-01
 -13.766  0.109E-01  0.109E-01
 -13.756  0.110E-01  0.110E-01
 -13.746  0.110E-01  0.110E-01
 -13.736  0.110E-01  0.110E-01
 -13.726  0.110E-01  0.110E-01
 -13.716  0.110E-01  0.110E-01
 -13.706  0.110E-01  0.110E-01
 -13.696  0.109E-01  0.109E-01
 -13.686  0.109E-01  0.109E-01
 -13.676  0.109E-01  0.109E-01
 -13.666  0.108E-01  0.108E-01
 -13.656  0.108E-01  0.108E-01
 -13.646  0.107E-01  0.107E-01
 -13.636  0.107E-01  0.107E-01
 -13.626  0.106E-01  0.106E-01
 -13.616  0.105E-01  0.105E-01
 -13.606  0.105E-01  0.105E-01
 -13.596  0.104E-01  0.104E-01
 -13.586  0.103E-01  0.103E-01
 -13.576  0.102E-01  0.102E-01
 -13.566  0.101E-01  0.101E-01
 -13.556  0.100E-01  0.100E-01
 -13.546  0.991E-02  0.991E-02
 -13.536  0.980E-02  0.980E-02
 -13.526  0.969E-02  0.969E-02
 -13.516  0.957E-02  0.957E-02
 -13.506  0.945E-02  0.945E-02
 -13.496  0.933E-02  0.933E-02
 -13.486  0.920E-02  0.920E-02
 -13.476  0.907E-02  0.907E-02
 -13.466  0.894E-02  0.894E-02
 -13.456  0.881E-02  0.881E-02
 -13.446  0.867E-02  0.867E-02
 -13.436  0.853E-02  0.853E-02
 -13.426  0.839E-02  0.839E-02
 -13.416  0.825E-02  0.825E-02
 -13.406  0.810E-02  0.810E-02
 -13.396  0.796E-02  0.796E-02
 -13.386  0.781E-02  0.781E-02
 -13.376  0.767E-02  0.767E-02
 -13.366  0.752E-02  0.752E-02
 -13.356  0.737E-02  0.737E-02
 -13.346  0.722E-02  0.722E-02
 -13.336  0.707E-02  0.707E-02
 -13.326  0.692E-02  0.692E-02
 -13.316  0.678E-02  0.678E-02
 -13.306  0.663E-02  0.663E-02
 -13.296  0.648E-02  0.648E-02
 -13.286  0.633E-02  0.633E-02
 -13.276  0.619E-02  0.619E-02
 -13.266  0.604E-02  0.604E-02
 -13.256  0.590E-02  0.590E-02
 -13.246  0.576E-02  0.576E-02
 -13.236  0.562E-02  0.562E-02
 -13.226  0.548E-02  0.548E-02
 -13.216  0.534E-02  0.534E-02
 -13.206  0.520E-02  0.520E-02
 -13.196  0.507E-02  0.507E-02
 -13.186  0.494E-02  0.494E-02
 -13.176  0.481E-02  0.481E-02
 -13.166  0.468E-02  0.468E-02
 -13.156  0.455E-02  0.455E-02
 -13.146  0.443E-02  0.443E-02
 -13.136  0.430E-02  0.430E-02
 -13.126  0.418E-02  0.418E-02
 -13.116  0.407E-02  0.407E-02
 -13.106  0.395E-02  0.395E-02
 -13.096  0.384E-02  0.384E-02
 -13.086  0.372E-02  0.372E-02
 -13.076  0.362E-02  0.362E-02
 -13.066  0.351E-02  0.351E-02
 -13.056  0.340E-02  0.340E-02
 -13.046  0.330E-02  0.330E-02
 -13.036  0.320E-02  0.320E-02
 -13.026  0.310E-02  0.310E-02
 -13.016  0.301E-02  0.301E-02
 -13.006  0.292E-02  0.292E-02
 -12.996  0.283E-02  0.283E-02
 -12.986  0.274E-02  0.274E-02
 -12.976  0.265E-02  0.265E-02
 -12.966  0.256E-02  0.256E-02
 -12.956  0.248E-02  0.248E-02
 -12.946  0.240E-02  0.240E-02
 -12.936  0.232E-02  0.232E-02
 -12.926  0.225E-02  0.225E-02
 -12.916  0.217E-02  0.217E-02
 -12.906  0.210E-02  0.210E-02
 -12.896  0.203E-02  0.203E-02
 -12.886  0.196E-02  0.196E-02
 -12.876  0.189E-02  0.189E-02
 -12.866  0.182E-02  0.182E-02
 -12.856  0.176E-02  0.176E-02
 -12.846  0.169E-02  0.169E-02
 -12.836  0.163E-02  0.163E-02
 -12.826  0.157E-02  0.157E-02
 -12.816  0.151E-02  0.151E-02
 -12.806  0.145E-02  0.145E-02
 -12.796  0.140E-02  0.140E-02
 -12.786  0.134E-02  0.134E-02
 -12.776  0.129E-02  0.129E-02
 -12.766  0.123E-02  0.123E-02
 -12.756  0.118E-02  0.118E-02
 -12.746  0.113E-02  0.113E-02
 -12.736  0.108E-02  0.108E-02
 -12.726  0.103E-02  0.103E-02
 -12.716  0.978E-03  0.978E-03
 -12.706  0.930E-03  0.930E-03
 -12.696  0.882E-03  0.882E-03
 -12.686  0.836E-03  0.836E-03
 -12.676  0.790E-03  0.790E-03
 -12.666  0.744E-03  0.744E-03
 -12.656  0.699E-03  0.699E-03
 -12.646  0.655E-03  0.655E-03
 -12.636  0.612E-03  0.612E-03
 -12.626  0.569E-03  0.569E-03
 -12.616  0.526E-03  0.526E-03
 -12.606  0.484E-03  0.484E-03
 -12.596  0.443E-03  0.443E-03
 -12.586  0.402E-03  0.402E-03
 -12.576  0.361E-03  0.361E-03
 -12.566  0.321E-03  0.321E-03
 -12.556  0.282E-03  0.282E-03
 -12.546  0.243E-03  0.243E-03
 -12.536  0.204E-03  0.204E-03
 -12.526  0.166E-03  0.166E-03
 -12.516  0.129E-03  0.129E-03
 -12.506  0.919E-04  0.919E-04
 -12.496  0.554E-04  0.554E-04
 -12.486  0.194E-04  0.194E-04
 -12.476 -0.161E-04 -0.161E-04
 -12.466 -0.510E-04 -0.510E-04
 -12.456 -0.853E-04 -0.853E-04
 -12.446 -0.119E-03 -0.119E-03
 -12.436 -0.152E-03 -0.152E-03
 -12.426 -0.184E-03 -0.184E-03
 -12.416 -0.216E-03 -0.216E-03
 -12.406 -0.247E-03 -0.247E-03
 -12.396 -0.277E-03 -0.277E-03
 -12.386 -0.307E-03 -0.307E-03
 -12.376 -0.335E-03 -0.335E-03
 -12.366 -0.363E-03 -0.363E-03
 -12.356 -0.390E-03 -0.390E-03
 -12.346 -0.416E-03 -0.416E-03
 -12.336 -0.441E-03 -0.441E-03
 -12.326 -0.464E-03 -0.464E-03
 -12.316 -0.487E-03 -0.487E-03
 -12.306 -0.509E-03 -0.509E-03
 -12.296 -0.529E-03 -0.529E-03
 -12.286 -0.548E-03 -0.548E-03
 -12.276 -0.565E-03 -0.565E-03
 -12.266 -0.581E-03 -0.581E-03
 -12.256 -0.596E-03 -0.596E-03
 -12.246 -0.609E-03 -0.609E-03
 -12.236 -0.621E-03 -0.621E-03
 -12.226 -0.630E-03 -0.630E-03
 -12.216 -0.638E-03 -0.638E-03
 -12.206 -0.645E-03 -0.645E-03
 -12.196 -0.649E-03 -0.649E-03
 -12.186 -0.651E-03 -0.651E-03
 -12.176 -0.651E-03 -0.651E-03
 -12.166 -0.649E-03 -0.649E-03
 -12.156 -0.645E-03 -0.645E-03
 -12.146 -0.639E-03 -0.639E-03
 -12.136 -0.630E-03 -0.630E-03
 -12.126 -0.618E-03 -0.618E-03
 -12.116 -0.604E-03 -0.604E-03
 -12.106 -0.588E-03 -0.588E-03
 -12.096 -0.569E-03 -0.569E-03
 -12.086 -0.547E-03 -0.547E-03
 -12.076 -0.522E-03 -0.522E-03
 -12.066 -0.494E-03 -0.494E-03
 -12.056 -0.463E-03 -0.463E-03
 -12.046 -0.429E-03 -0.429E-03
 -12.036 -0.392E-03 -0.392E-03
 -12.026 -0.352E-03 -0.352E-03
 -12.016 -0.308E-03 -0.308E-03
 -12.006 -0.261E-03 -0.261E-03
 -11.996 -0.211E-03 -0.211E-03
 -11.986 -0.157E-03 -0.157E-03
 -11.976 -0.995E-04 -0.995E-04
 -11.966 -0.384E-04 -0.384E-04
 -11.956  0.264E-04  0.264E-04
 -11.946  0.949E-04  0.949E-04
 -11.936  0.167E-03  0.167E-03
 -11.926  0.243E-03  0.243E-03
 -11.916  0.323E-03  0.323E-03
 -11.906  0.407E-03  0.407E-03
 -11.896  0.494E-03  0.494E-03
 -11.886  0.586E-03  0.586E-03
 -11.876  0.681E-03  0.681E-03
 -11.866  0.781E-03  0.781E-03
 -11.856  0.884E-03  0.884E-03
 -11.846  0.991E-03  0.991E-03
 -11.836  0.110E-02  0.110E-02
 -11.826  0.122E-02  0.122E-02
 -11.816  0.134E-02  0.134E-02
 -11.806  0.146E-02  0.146E-02
 -11.796  0.158E-02  0.158E-02
 -11.786  0.171E-02  0.171E-02
 -11.776  0.185E-02  0.185E-02
 -11.766  0.199E-02  0.199E-02
 -11.756  0.213E-02  0.213E-02
 -11.746  0.227E-02  0.227E-02
 -11.736  0.242E-02  0.242E-02
 -11.726  0.257E-02  0.257E-02
 -11.716  0.272E-02  0.272E-02
 -11.706  0.288E-02  0.288E-02
 -11.696  0.304E-02  0.304E-02
 -11.686  0.320E-02  0.320E-02
 -11.676  0.337E-02  0.337E-02
 -11.666  0.353E-02  0.353E-02
 -11.656  0.370E-02  0.370E-02
 -11.646  0.388E-02  0.388E-02
 -11.636  0.405E-02  0.405E-02
 -11.626  0.423E-02  0.423E-02
 -11.616  0.440E-02  0.440E-02
 -11.606  0.458E-02  0.458E-02
 -11.596  0.476E-02  0.476E-02
 -11.586  0.494E-02  0.494E-02
 -11.576  0.512E-02  0.512E-02
 -11.566  0.531E-02  0.531E-02
 -11.556  0.549E-02  0.549E-02
 -11.546  0.567E-02  0.567E-02
 -11.536  0.585E-02  0.585E-02
 -11.526  0.604E-02  0.604E-02
 -11.516  0.622E-02  0.622E-02
 -11.506  0.640E-02  0.640E-02
 -11.496  0.658E-02  0.658E-02
 -11.486  0.676E-02  0.676E-02
 -11.476  0.694E-02  0.694E-02
 -11.466  0.711E-02  0.711E-02
 -11.456  0.728E-02  0.728E-02
 -11.446  0.746E-02  0.746E-02
 -11.436  0.762E-02  0.762E-02
 -11.426  0.779E-02  0.779E-02
 -11.416  0.795E-02  0.795E-02
 -11.406  0.811E-02  0.811E-02
 -11.396  0.827E-02  0.827E-02
 -11.386  0.842E-02  0.842E-02
 -11.376  0.857E-02  0.857E-02
 -11.366  0.871E-02  0.871E-02
 -11.356  0.885E-02  0.885E-02
 -11.346  0.899E-02  0.899E-02
 -11.336  0.912E-02  0.912E-02
 -11.326  0.925E-02  0.925E-02
 -11.316  0.937E-02  0.937E-02
 -11.306  0.948E-02  0.948E-02
 -11.296  0.959E-02  0.959E-02
 -11.286  0.970E-02  0.970E-02
 -11.276  0.979E-02  0.979E-02
 -11.266  0.989E-02  0.989E-02
 -11.256  0.997E-02  0.997E-02
 -11.246  0.101E-01  0.101E-01
 -11.236  0.101E-01  0.101E-01
 -11.226  0.102E-01  0.102E-01
 -11.216  0.103E-01  0.103E-01
 -11.206  0.103E-01  0.103E-01
 -11.196  0.104E-01  0.104E-01
 -11.186  0.104E-01  0.104E-01
 -11.176  0.104E-01  0.104E-01
 -11.166  0.105E-01  0.105E-01
 -11.156  0.105E-01  0.105E-01
 -11.146  0.105E-01  0.105E-01
 -11.136  0.105E-01  0.105E-01
 -11.126  0.105E-01  0.105E-01
 -11.116  0.105E-01  0.105E-01
 -11.106  0.105E-01  0.105E-01
 -11.096  0.104E-01  0.104E-01
 -11.086  0.104E-01  0.104E-01
 -11.076  0.104E-01  0.104E-01
 -11.066  0.103E-01  0.103E-01
 -11.056  0.103E-01  0.103E-01
 -11.046  0.102E-01  0.102E-01
 -11.036  0.101E-01  0.101E-01
 -11.026  0.101E-01  0.101E-01
 -11.016  0.999E-02  0.999E-02
 -11.006  0.991E-02  0.991E-02
 -10.996  0.981E-02  0.981E-02
 -10.986  0.971E-02  0.971E-02
 -10.976  0.961E-02  0.961E-02
 -10.966  0.950E-02  0.950E-02
 -10.956  0.938E-02  0.938E-02
 -10.946  0.926E-02  0.926E-02
 -10.936  0.913E-02  0.913E-02
 -10.926  0.899E-02  0.899E-02
 -10.916  0.885E-02  0.885E-02
 -10.906  0.870E-02  0.870E-02
 -10.896  0.855E-02  0.855E-02
 -10.886  0.839E-02  0.839E-02
 -10.876  0.823E-02  0.823E-02
 -10.866  0.806E-02  0.806E-02
 -10.856  0.789E-02  0.789E-02
 -10.846  0.771E-02  0.771E-02
 -10.836  0.753E-02  0.753E-02
 -10.826  0.735E-02  0.735E-02
 -10.816  0.715E-02  0.715E-02
 -10.806  0.696E-02  0.696E-02
 -10.796  0.676E-02  0.676E-02
 -10.786  0.656E-02  0.656E-02
 -10.776  0.635E-02  0.635E-02
 -10.766  0.614E-02  0.614E-02
 -10.756  0.593E-02  0.593E-02
 -10.746  0.571E-02  0.571E-02
 -10.736  0.549E-02  0.549E-02
 -10.726  0.527E-02  0.527E-02
 -10.716  0.505E-02  0.505E-02
 -10.706  0.482E-02  0.482E-02
 -10.696  0.459E-02  0.459E-02
 -10.686  0.435E-02  0.435E-02
 -10.676  0.412E-02  0.412E-02
 -10.666  0.388E-02  0.388E-02
 -10.656  0.365E-02  0.365E-02
 -10.646  0.341E-02  0.341E-02
 -10.636  0.317E-02  0.317E-02
 -10.626  0.292E-02  0.292E-02
 -10.616  0.268E-02  0.268E-02
 -10.606  0.244E-02  0.244E-02
 -10.596  0.220E-02  0.220E-02
 -10.586  0.195E-02  0.195E-02
 -10.576  0.171E-02  0.171E-02
 -10.566  0.147E-02  0.147E-02
 -10.556  0.123E-02  0.123E-02
 -10.546  0.988E-03  0.988E-03
 -10.536  0.749E-03  0.749E-03
 -10.526  0.513E-03  0.513E-03
 -10.516  0.280E-03  0.280E-03
 -10.506  0.490E-04  0.490E-04
 -10.496 -0.179E-03 -0.179E-03
 -10.486 -0.403E-03 -0.403E-03
 -10.476 -0.622E-03 -0.622E-03
 -10.466 -0.837E-03 -0.837E-03
 -10.456 -0.105E-02 -0.105E-02
 -10.446 -0.125E-02 -0.125E-02
 -10.436 -0.145E-02 -0.145E-02
 -10.426 -0.164E-02 -0.164E-02
 -10.416 -0.182E-02 -0.182E-02
 -10.406 -0.200E-02 -0.200E-02
 -10.396 -0.217E-02 -0.217E-02
 -10.386 -0.233E-02 -0.233E-02
 -10.376 -0.247E-02 -0.247E-02
 -10.366 -0.261E-02 -0.261E-02
 -10.356 -0.273E-02 -0.273E-02
 -10.346 -0.285E-02 -0.285E-02
 -10.336 -0.295E-02 -0.295E-02
 -10.326 -0.303E-02 -0.303E-02
 -10.316 -0.310E-02 -0.310E-02
 -10.306 -0.316E-02 -0.316E-02
 -10.296 -0.320E-02 -0.320E-02
 -10.286 -0.322E-02 -0.322E-02
 -10.276 -0.322E-02 -0.322E-02
 -10.266 -0.321E-02 -0.321E-02
 -10.256 -0.317E-02 -0.317E-02
 -10.246 -0.311E-02 -0.311E-02
 -10.236 -0.303E-02 -0.303E-02
 -10.226 -0.293E-02 -0.293E-02
 -10.216 -0.280E-02 -0.280E-02
 -10.206 -0.265E-02 -0.265E-02
 -10.196 -0.247E-02 -0.247E-02
 -10.186 -0.227E-02 -0.227E-02
 -10.176 -0.203E-02 -0.203E-02
 -10.166 -0.177E-02 -0.177E-02
 -10.156 -0.148E-02 -0.148E-02
 -10.146 -0.115E-02 -0.115E-02
 -10.136 -0.797E-03 -0.797E-03
 -10.126 -0.408E-03 -0.408E-03
 -10.116  0.145E-04  0.145E-04
 -10.106  0.472E-03  0.472E-03
 -10.096  0.965E-03  0.965E-03
 -10.086  0.149E-02  0.149E-02
 -10.076  0.206E-02  0.206E-02
 -10.066  0.267E-02  0.267E-02
 -10.056  0.331E-02  0.331E-02
 -10.046  0.399E-02  0.399E-02
 -10.036  0.472E-02  0.472E-02
 -10.026  0.548E-02  0.548E-02
 -10.016  0.629E-02  0.629E-02
 -10.006  0.713E-02  0.713E-02
  -9.996  0.802E-02  0.802E-02
  -9.986  0.896E-02  0.896E-02
  -9.976  0.993E-02  0.993E-02
  -9.966  0.109E-01  0.109E-01
  -9.956  0.120E-01  0.120E-01
  -9.946  0.131E-01  0.131E-01
  -9.936  0.143E-01  0.143E-01
  -9.926  0.155E-01  0.155E-01
  -9.916  0.167E-01  0.167E-01
  -9.906  0.180E-01  0.180E-01
  -9.896  0.193E-01  0.193E-01
  -9.886  0.206E-01  0.206E-01
  -9.876  0.220E-01  0.220E-01
  -9.866  0.235E-01  0.235E-01
  -9.856  0.250E-01  0.250E-01
  -9.846  0.265E-01  0.265E-01
  -9.836  0.281E-01  0.281E-01
  -9.826  0.297E-01  0.297E-01
  -9.816  0.313E-01  0.313E-01
  -9.806  0.330E-01  0.330E-01
  -9.796  0.347E-01  0.347E-01
  -9.786  0.364E-01  0.364E-01
  -9.776  0.382E-01  0.382E-01
  -9.766  0.400E-01  0.400E-01
  -9.756  0.418E-01  0.418E-01
  -9.746  0.437E-01  0.437E-01
  -9.736  0.455E-01  0.455E-01
  -9.726  0.474E-01  0.474E-01
  -9.716  0.494E-01  0.494E-01
  -9.706  0.513E-01  0.513E-01
  -9.696  0.532E-01  0.532E-01
  -9.686  0.552E-01  0.552E-01
  -9.676  0.572E-01  0.572E-01
  -9.666  0.592E-01  0.592E-01
  -9.656  0.612E-01  0.612E-01
  -9.646  0.632E-01  0.632E-01
  -9.636  0.652E-01  0.652E-01
  -9.626  0.672E-01  0.672E-01
  -9.616  0.692E-01  0.692E-01
  -9.606  0.711E-01  0.711E-01
  -9.596  0.731E-01  0.731E-01
  -9.586  0.751E-01  0.751E-01
  -9.576  0.770E-01  0.770E-01
  -9.566  0.790E-01  0.790E-01
  -9.556  0.809E-01  0.809E-01
  -9.546  0.828E-01  0.828E-01
  -9.536  0.846E-01  0.846E-01
  -9.526  0.865E-01  0.865E-01
  -9.516  0.883E-01  0.883E-01
  -9.506  0.900E-01  0.900E-01
  -9.496  0.918E-01  0.918E-01
  -9.486  0.935E-01  0.935E-01
  -9.476  0.951E-01  0.951E-01
  -9.466  0.967E-01  0.967E-01
  -9.456  0.983E-01  0.983E-01
  -9.446  0.998E-01  0.998E-01
  -9.436  0.101E+00  0.101E+00
  -9.426  0.103E+00  0.103E+00
  -9.416  0.104E+00  0.104E+00
  -9.406  0.105E+00  0.105E+00
  -9.396  0.106E+00  0.106E+00
  -9.386  0.108E+00  0.108E+00
  -9.376  0.109E+00  0.109E+00
  -9.366  0.110E+00  0.110E+00
  -9.356  0.111E+00  0.111E+00
  -9.346  0.112E+00  0.112E+00
  -9.336  0.112E+00  0.112E+00
  -9.326  0.113E+00  0.113E+00
  -9.316  0.114E+00  0.114E+00
  -9.306  0.114E+00  0.114E+00
  -9.296  0.115E+00  0.115E+00
  -9.286  0.115E+00  0.115E+00
  -9.276  0.116E+00  0.116E+00
  -9.266  0.116E+00  0.116E+00
  -9.256  0.116E+00  0.116E+00
  -9.246  0.116E+00  0.116E+00
  -9.236  0.116E+00  0.116E+00
  -9.226  0.116E+00  0.116E+00
  -9.216  0.116E+00  0.116E+00
  -9.206  0.116E+00  0.116E+00
  -9.196  0.116E+00  0.116E+00
  -9.186  0.116E+00  0.116E+00
  -9.176  0.115E+00  0.115E+00
  -9.166  0.115E+00  0.115E+00
  -9.156  0.114E+00  0.114E+00
  -9.146  0.114E+00  0.114E+00
  -9.136  0.113E+00  0.113E+00
  -9.126  0.112E+00  0.112E+00
  -9.116  0.112E+00  0.112E+00
  -9.106  0.111E+00  0.111E+00
  -9.096  0.110E+00  0.110E+00
  -9.086  0.109E+00  0.109E+00
  -9.076  0.108E+00  0.108E+00
  -9.066  0.107E+00  0.107E+00
  -9.056  0.106E+00  0.106E+00
  -9.046  0.105E+00  0.105E+00
  -9.036  0.104E+00  0.104E+00
  -9.026  0.102E+00  0.102E+00
  -9.016  0.101E+00  0.101E+00
  -9.006  0.998E-01  0.998E-01
  -8.996  0.985E-01  0.985E-01
  -8.986  0.971E-01  0.971E-01
  -8.976  0.958E-01  0.958E-01
  -8.966  0.944E-01  0.944E-01
  -8.956  0.930E-01  0.930E-01
  -8.946  0.916E-01  0.916E-01
  -8.936  0.902E-01  0.902E-01
  -8.926  0.888E-01  0.888E-01
  -8.916  0.874E-01  0.874E-01
  -8.906  0.860E-01  0.860E-01
  -8.896  0.846E-01  0.846E-01
  -8.886  0.832E-01  0.832E-01
  -8.876  0.818E-01  0.818E-01
  -8.866  0.805E-01  0.805E-01
  -8.856  0.792E-01  0.792E-01
  -8.846  0.778E-01  0.778E-01
  -8.836  0.766E-01  0.766E-01
  -8.826  0.753E-01  0.753E-01
  -8.816  0.741E-01  0.741E-01
  -8.806  0.730E-01  0.730E-01
  -8.796  0.718E-01  0.718E-01
  -8.786  0.707E-01  0.707E-01
  -8.776  0.697E-01  0.697E-01
  -8.766  0.687E-01  0.687E-01
  -8.756  0.678E-01  0.678E-01
  -8.746  0.670E-01  0.670E-01
  -8.736  0.662E-01  0.662E-01
  -8.726  0.654E-01  0.654E-01
  -8.716  0.648E-01  0.648E-01
  -8.706  0.642E-01  0.642E-01
  -8.696  0.636E-01  0.636E-01
  -8.686  0.632E-01  0.632E-01
  -8.676  0.628E-01  0.628E-01
  -8.666  0.625E-01  0.625E-01
  -8.656  0.623E-01  0.623E-01
  -8.646  0.622E-01  0.622E-01
  -8.636  0.621E-01  0.621E-01
  -8.626  0.622E-01  0.622E-01
  -8.616  0.623E-01  0.623E-01
  -8.606  0.625E-01  0.625E-01
  -8.596  0.628E-01  0.628E-01
  -8.586  0.632E-01  0.632E-01
  -8.576  0.637E-01  0.637E-01
  -8.566  0.643E-01  0.643E-01
  -8.556  0.650E-01  0.650E-01
  -8.546  0.657E-01  0.657E-01
  -8.536  0.666E-01  0.666E-01
  -8.526  0.675E-01  0.675E-01
  -8.516  0.686E-01  0.686E-01
  -8.506  0.697E-01  0.697E-01
  -8.496  0.710E-01  0.710E-01
  -8.486  0.723E-01  0.723E-01
  -8.476  0.737E-01  0.737E-01
  -8.466  0.752E-01  0.752E-01
  -8.456  0.768E-01  0.768E-01
  -8.446  0.785E-01  0.785E-01
  -8.436  0.803E-01  0.803E-01
  -8.426  0.821E-01  0.821E-01
  -8.416  0.841E-01  0.841E-01
  -8.406  0.861E-01  0.861E-01
  -8.396  0.882E-01  0.882E-01
  -8.386  0.904E-01  0.904E-01
  -8.376  0.926E-01  0.926E-01
  -8.366  0.950E-01  0.950E-01
  -8.356  0.973E-01  0.973E-01
  -8.346  0.998E-01  0.998E-01
  -8.336  0.102E+00  0.102E+00
  -8.326  0.105E+00  0.105E+00
  -8.316  0.108E+00  0.108E+00
  -8.306  0.110E+00  0.110E+00
  -8.296  0.113E+00  0.113E+00
  -8.286  0.116E+00  0.116E+00
  -8.276  0.119E+00  0.119E+00
  -8.266  0.121E+00  0.121E+00
  -8.256  0.124E+00  0.124E+00
  -8.246  0.127E+00  0.127E+00
  -8.236  0.130E+00  0.130E+00
  -8.226  0.133E+00  0.133E+00
  -8.216  0.136E+00  0.136E+00
  -8.206  0.139E+00  0.139E+00
  -8.196  0.142E+00  0.142E+00
  -8.186  0.145E+00  0.145E+00
  -8.176  0.148E+00  0.148E+00
  -8.166  0.151E+00  0.151E+00
  -8.156  0.154E+00  0.154E+00
  -8.146  0.157E+00  0.157E+00
  -8.136  0.160E+00  0.160E+00
  -8.126  0.163E+00  0.163E+00
  -8.116  0.166E+00  0.166E+00
  -8.106  0.169E+00  0.169E+00
  -8.096  0.172E+00  0.172E+00
  -8.086  0.175E+00  0.175E+00
  -8.076  0.178E+00  0.178E+00
  -8.066  0.180E+00  0.180E+00
  -8.056  0.183E+00  0.183E+00
  -8.046  0.186E+00  0.186E+00
  -8.036  0.188E+00  0.188E+00
  -8.026  0.191E+00  0.191E+00
  -8.016  0.193E+00  0.193E+00
  -8.006  0.195E+00  0.195E+00
  -7.996  0.198E+00  0.198E+00
  -7.986  0.200E+00  0.200E+00
  -7.976  0.202E+00  0.202E+00
  -7.966  0.204E+00  0.204E+00
  -7.956  0.206E+00  0.206E+00
  -7.946  0.207E+00  0.207E+00
  -7.936  0.209E+00  0.209E+00
  -7.926  0.211E+00  0.211E+00
  -7.916  0.212E+00  0.212E+00
  -7.906  0.213E+00  0.213E+00
  -7.896  0.215E+00  0.215E+00
  -7.886  0.216E+00  0.216E+00
  -7.876  0.217E+00  0.217E+00
  -7.866  0.217E+00  0.217E+00
  -7.856  0.218E+00  0.218E+00
  -7.846  0.219E+00  0.219E+00
  -7.836  0.219E+00  0.219E+00
  -7.826  0.220E+00  0.220E+00
  -7.816  0.220E+00  0.220E+00
  -7.806  0.220E+00  0.220E+00
  -7.796  0.220E+00  0.220E+00
  -7.786  0.220E+00  0.220E+00
  -7.776  0.219E+00  0.219E+00
  -7.766  0.219E+00  0.219E+00
  -7.756  0.218E+00  0.218E+00
  -7.746  0.217E+00  0.217E+00
  -7.736  0.217E+00  0.217E+00
  -7.726  0.216E+00  0.216E+00
  -7.716  0.215E+00  0.215E+00
  -7.706  0.213E+00  0.213E+00
  -7.696  0.212E+00  0.212E+00
  -7.686  0.211E+00  0.211E+00
  -7.676  0.209E+00  0.209E+00
  -7.666  0.207E+00  0.207E+00
  -7.656  0.205E+00  0.205E+00
  -7.646  0.203E+00  0.203E+00
  -7.636  0.201E+00  0.201E+00
  -7.626  0.199E+00  0.199E+00
  -7.616  0.197E+00  0.197E+00
  -7.606  0.195E+00  0.195E+00
  -7.596  0.192E+00  0.192E+00
  -7.586  0.190E+00  0.190E+00
  -7.576  0.187E+00  0.187E+00
  -7.566  0.184E+00  0.184E+00
  -7.556  0.182E+00  0.182E+00
  -7.546  0.179E+00  0.179E+00
  -7.536  0.176E+00  0.176E+00
  -7.526  0.173E+00  0.173E+00
  -7.516  0.170E+00  0.170E+00
  -7.506  0.167E+00  0.167E+00
  -7.496  0.164E+00  0.164E+00
  -7.486  0.160E+00  0.160E+00
  -7.476  0.157E+00  0.157E+00
  -7.466  0.154E+00  0.154E+00
  -7.456  0.151E+00  0.151E+00
  -7.446  0.147E+00  0.147E+00
  -7.436  0.144E+00  0.144E+00
  -7.426  0.141E+00  0.141E+00
  -7.416  0.137E+00  0.137E+00
  -7.406  0.134E+00  0.134E+00
  -7.396  0.130E+00  0.130E+00
  -7.386  0.127E+00  0.127E+00
  -7.376  0.124E+00  0.124E+00
  -7.366  0.120E+00  0.120E+00
  -7.356  0.117E+00  0.117E+00
  -7.346  0.113E+00  0.113E+00
  -7.336  0.110E+00  0.110E+00
  -7.326  0.107E+00  0.107E+00
  -7.316  0.103E+00  0.103E+00
  -7.306  0.100E+00  0.100E+00
  -7.296  0.969E-01  0.969E-01
  -7.286  0.937E-01  0.937E-01
  -7.276  0.906E-01  0.906E-01
  -7.266  0.875E-01  0.875E-01
  -7.256  0.844E-01  0.844E-01
  -7.246  0.814E-01  0.814E-01
  -7.236  0.784E-01  0.784E-01
  -7.226  0.755E-01  0.755E-01
  -7.216  0.726E-01  0.726E-01
  -7.206  0.698E-01  0.698E-01
  -7.196  0.671E-01  0.671E-01
  -7.186  0.644E-01  0.644E-01
  -7.176  0.618E-01  0.618E-01
  -7.166  0.592E-01  0.592E-01
  -7.156  0.568E-01  0.568E-01
  -7.146  0.543E-01  0.543E-01
  -7.136  0.520E-01  0.520E-01
  -7.126  0.497E-01  0.497E-01
  -7.116  0.475E-01  0.475E-01
  -7.106  0.453E-01  0.453E-01
  -7.096  0.432E-01  0.432E-01
  -7.086  0.412E-01  0.412E-01
  -7.076  0.393E-01  0.393E-01
  -7.066  0.374E-01  0.374E-01
  -7.056  0.356E-01  0.356E-01
  -7.046  0.339E-01  0.339E-01
  -7.036  0.322E-01  0.322E-01
  -7.026  0.306E-01  0.306E-01
  -7.016  0.291E-01  0.291E-01
  -7.006  0.276E-01  0.276E-01
  -6.996  0.262E-01  0.262E-01
  -6.986  0.248E-01  0.248E-01
  -6.976  0.235E-01  0.235E-01
  -6.966  0.223E-01  0.223E-01
  -6.956  0.211E-01  0.211E-01
  -6.946  0.200E-01  0.200E-01
  -6.936  0.190E-01  0.190E-01
  -6.926  0.180E-01  0.180E-01
  -6.916  0.170E-01  0.170E-01
  -6.906  0.162E-01  0.162E-01
  -6.896  0.153E-01  0.153E-01
  -6.886  0.145E-01  0.145E-01
  -6.876  0.138E-01  0.138E-01
  -6.866  0.131E-01  0.131E-01
  -6.856  0.124E-01  0.124E-01
  -6.846  0.118E-01  0.118E-01
  -6.836  0.112E-01  0.112E-01
  -6.826  0.107E-01  0.107E-01
  -6.816  0.102E-01  0.102E-01
  -6.806  0.970E-02  0.970E-02
  -6.796  0.926E-02  0.926E-02
  -6.786  0.885E-02  0.885E-02
  -6.776  0.848E-02  0.848E-02
  -6.766  0.813E-02  0.813E-02
  -6.756  0.780E-02  0.780E-02
  -6.746  0.750E-02  0.750E-02
  -6.736  0.723E-02  0.723E-02
  -6.726  0.697E-02  0.697E-02
  -6.716  0.674E-02  0.674E-02
  -6.706  0.652E-02  0.652E-02
  -6.696  0.632E-02  0.632E-02
  -6.686  0.614E-02  0.614E-02
  -6.676  0.597E-02  0.597E-02
  -6.666  0.581E-02  0.581E-02
  -6.656  0.567E-02  0.567E-02
  -6.646  0.554E-02  0.554E-02
  -6.636  0.542E-02  0.542E-02
  -6.626  0.530E-02  0.530E-02
  -6.616  0.520E-02  0.520E-02
  -6.606  0.510E-02  0.510E-02
  -6.596  0.501E-02  0.501E-02
  -6.586  0.493E-02  0.493E-02
  -6.576  0.485E-02  0.485E-02
  -6.566  0.478E-02  0.478E-02
  -6.556  0.471E-02  0.471E-02
  -6.546  0.465E-02  0.465E-02
  -6.536  0.458E-02  0.458E-02
  -6.526  0.453E-02  0.453E-02
  -6.516  0.447E-02  0.447E-02
  -6.506  0.442E-02  0.442E-02
  -6.496  0.437E-02  0.437E-02
  -6.486  0.433E-02  0.433E-02
  -6.476  0.428E-02  0.428E-02
  -6.466  0.424E-02  0.424E-02
  -6.456  0.421E-02  0.421E-02
  -6.446  0.417E-02  0.417E-02
  -6.436  0.415E-02  0.415E-02
  -6.426  0.412E-02  0.412E-02
  -6.416  0.410E-02  0.410E-02
  -6.406  0.409E-02  0.409E-02
  -6.396  0.408E-02  0.408E-02
  -6.386  0.407E-02  0.407E-02
  -6.376  0.408E-02  0.408E-02
  -6.366  0.409E-02  0.409E-02
  -6.356  0.411E-02  0.411E-02
  -6.346  0.414E-02  0.414E-02
  -6.336  0.418E-02  0.418E-02
  -6.326  0.423E-02  0.423E-02
  -6.316  0.429E-02  0.429E-02
  -6.306  0.437E-02  0.437E-02
  -6.296  0.445E-02  0.445E-02
  -6.286  0.456E-02  0.456E-02
  -6.276  0.468E-02  0.468E-02
  -6.266  0.482E-02  0.482E-02
  -6.256  0.497E-02  0.497E-02
  -6.246  0.515E-02  0.515E-02
  -6.236  0.534E-02  0.534E-02
  -6.226  0.556E-02  0.556E-02
  -6.216  0.580E-02  0.580E-02
  -6.206  0.607E-02  0.607E-02
  -6.196  0.636E-02  0.636E-02
  -6.186  0.668E-02  0.668E-02
  -6.176  0.703E-02  0.703E-02
  -6.166  0.741E-02  0.741E-02
  -6.156  0.781E-02  0.781E-02
  -6.146  0.825E-02  0.825E-02
  -6.136  0.873E-02  0.873E-02
  -6.126  0.924E-02  0.924E-02
  -6.116  0.978E-02  0.978E-02
  -6.106  0.104E-01  0.104E-01
  -6.096  0.110E-01  0.110E-01
  -6.086  0.116E-01  0.116E-01
  -6.076  0.123E-01  0.123E-01
  -6.066  0.131E-01  0.131E-01
  -6.056  0.139E-01  0.139E-01
  -6.046  0.147E-01  0.147E-01
  -6.036  0.156E-01  0.156E-01
  -6.026  0.165E-01  0.165E-01
  -6.016  0.175E-01  0.175E-01
  -6.006  0.185E-01  0.185E-01
  -5.996  0.195E-01  0.195E-01
  -5.986  0.207E-01  0.207E-01
  -5.976  0.218E-01  0.218E-01
  -5.966  0.230E-01  0.230E-01
  -5.956  0.243E-01  0.243E-01
  -5.946  0.256E-01  0.256E-01
  -5.936  0.270E-01  0.270E-01
  -5.926  0.284E-01  0.284E-01
  -5.916  0.298E-01  0.298E-01
  -5.906  0.313E-01  0.313E-01
  -5.896  0.329E-01  0.329E-01
  -5.886  0.345E-01  0.345E-01
  -5.876  0.362E-01  0.362E-01
  -5.866  0.379E-01  0.379E-01
  -5.856  0.397E-01  0.397E-01
  -5.846  0.415E-01  0.415E-01
  -5.836  0.433E-01  0.433E-01
  -5.826  0.452E-01  0.452E-01
  -5.816  0.472E-01  0.472E-01
  -5.806  0.492E-01  0.492E-01
  -5.796  0.512E-01  0.512E-01
  -5.786  0.533E-01  0.533E-01
  -5.776  0.554E-01  0.554E-01
  -5.766  0.575E-01  0.575E-01
  -5.756  0.597E-01  0.597E-01
  -5.746  0.619E-01  0.619E-01
  -5.736  0.642E-01  0.642E-01
  -5.726  0.665E-01  0.665E-01
  -5.716  0.688E-01  0.688E-01
  -5.706  0.711E-01  0.711E-01
  -5.696  0.735E-01  0.735E-01
  -5.686  0.759E-01  0.759E-01
  -5.676  0.783E-01  0.783E-01
  -5.666  0.807E-01  0.807E-01
  -5.656  0.831E-01  0.831E-01
  -5.646  0.855E-01  0.855E-01
  -5.636  0.880E-01  0.880E-01
  -5.626  0.904E-01  0.904E-01
  -5.616  0.929E-01  0.929E-01
  -5.606  0.953E-01  0.953E-01
  -5.596  0.977E-01  0.977E-01
  -5.586  0.100E+00  0.100E+00
  -5.576  0.103E+00  0.103E+00
  -5.566  0.105E+00  0.105E+00
  -5.556  0.107E+00  0.107E+00
  -5.546  0.110E+00  0.110E+00
  -5.536  0.112E+00  0.112E+00
  -5.526  0.114E+00  0.114E+00
  -5.516  0.117E+00  0.117E+00
  -5.506  0.119E+00  0.119E+00
  -5.496  0.121E+00  0.121E+00
  -5.486  0.123E+00  0.123E+00
  -5.476  0.125E+00  0.125E+00
  -5.466  0.127E+00  0.127E+00
  -5.456  0.129E+00  0.129E+00
  -5.446  0.131E+00  0.131E+00
  -5.436  0.133E+00  0.133E+00
  -5.426  0.135E+00  0.135E+00
  -5.416  0.137E+00  0.137E+00
  -5.406  0.138E+00  0.138E+00
  -5.396  0.140E+00  0.140E+00
  -5.386  0.142E+00  0.142E+00
  -5.376  0.143E+00  0.143E+00
  -5.366  0.144E+00  0.144E+00
  -5.356  0.146E+00  0.146E+00
  -5.346  0.147E+00  0.147E+00
  -5.336  0.148E+00  0.148E+00
  -5.326  0.149E+00  0.149E+00
  -5.316  0.150E+00  0.150E+00
  -5.306  0.151E+00  0.151E+00
  -5.296  0.152E+00  0.152E+00
  -5.286  0.153E+00  0.153E+00
  -5.276  0.153E+00  0.153E+00
  -5.266  0.154E+00  0.154E+00
  -5.256  0.154E+00  0.154E+00
  -5.246  0.155E+00  0.155E+00
  -5.236  0.155E+00  0.155E+00
  -5.226  0.155E+00  0.155E+00
  -5.216  0.155E+00  0.155E+00
  -5.206  0.155E+00  0.155E+00
  -5.196  0.155E+00  0.155E+00
  -5.186  0.155E+00  0.155E+00
  -5.176  0.154E+00  0.154E+00
  -5.166  0.154E+00  0.154E+00
  -5.156  0.154E+00  0.154E+00
  -5.146  0.153E+00  0.153E+00
  -5.136  0.152E+00  0.152E+00
  -5.126  0.152E+00  0.152E+00
  -5.116  0.151E+00  0.151E+00
  -5.106  0.150E+00  0.150E+00
  -5.096  0.149E+00  0.149E+00
  -5.086  0.148E+00  0.148E+00
  -5.076  0.147E+00  0.147E+00
  -5.066  0.145E+00  0.145E+00
  -5.056  0.144E+00  0.144E+00
  -5.046  0.143E+00  0.143E+00
  -5.036  0.141E+00  0.141E+00
  -5.026  0.140E+00  0.140E+00
  -5.016  0.138E+00  0.138E+00
  -5.006  0.137E+00  0.137E+00
  -4.996  0.135E+00  0.135E+00
  -4.986  0.133E+00  0.133E+00
  -4.976  0.132E+00  0.132E+00
  -4.966  0.130E+00  0.130E+00
  -4.956  0.128E+00  0.128E+00
  -4.946  0.126E+00  0.126E+00
  -4.936  0.124E+00  0.124E+00
  -4.926  0.122E+00  0.122E+00
  -4.916  0.120E+00  0.120E+00
  -4.906  0.118E+00  0.118E+00
  -4.896  0.116E+00  0.116E+00
  -4.886  0.114E+00  0.114E+00
  -4.876  0.112E+00  0.112E+00
  -4.866  0.110E+00  0.110E+00
  -4.856  0.108E+00  0.108E+00
  -4.846  0.106E+00  0.106E+00
  -4.836  0.104E+00  0.104E+00
  -4.826  0.101E+00  0.101E+00
  -4.816  0.993E-01  0.993E-01
  -4.806  0.972E-01  0.972E-01
  -4.796  0.951E-01  0.951E-01
  -4.786  0.930E-01  0.930E-01
  -4.776  0.909E-01  0.909E-01
  -4.766  0.888E-01  0.888E-01
  -4.756  0.867E-01  0.867E-01
  -4.746  0.847E-01  0.847E-01
  -4.736  0.826E-01  0.826E-01
  -4.726  0.806E-01  0.806E-01
  -4.716  0.786E-01  0.786E-01
  -4.706  0.766E-01  0.766E-01
  -4.696  0.747E-01  0.747E-01
  -4.686  0.728E-01  0.728E-01
  -4.676  0.709E-01  0.709E-01
  -4.666  0.691E-01  0.691E-01
  -4.656  0.673E-01  0.673E-01
  -4.646  0.655E-01  0.655E-01
  -4.636  0.637E-01  0.637E-01
  -4.626  0.620E-01  0.620E-01
  -4.616  0.604E-01  0.604E-01
  -4.606  0.587E-01  0.587E-01
  -4.596  0.571E-01  0.571E-01
  -4.586  0.556E-01  0.556E-01
  -4.576  0.540E-01  0.540E-01
  -4.566  0.526E-01  0.526E-01
  -4.556  0.511E-01  0.511E-01
  -4.546  0.497E-01  0.497E-01
  -4.536  0.484E-01  0.484E-01
  -4.526  0.471E-01  0.471E-01
  -4.516  0.458E-01  0.458E-01
  -4.506  0.446E-01  0.446E-01
  -4.496  0.434E-01  0.434E-01
  -4.486  0.422E-01  0.422E-01
  -4.476  0.411E-01  0.411E-01
  -4.466  0.401E-01  0.401E-01
  -4.456  0.390E-01  0.390E-01
  -4.446  0.380E-01  0.380E-01
  -4.436  0.371E-01  0.371E-01
  -4.426  0.362E-01  0.362E-01
  -4.416  0.353E-01  0.353E-01
  -4.406  0.345E-01  0.345E-01
  -4.396  0.337E-01  0.337E-01
  -4.386  0.329E-01  0.329E-01
  -4.376  0.322E-01  0.322E-01
  -4.366  0.315E-01  0.315E-01
  -4.356  0.308E-01  0.308E-01
  -4.346  0.302E-01  0.302E-01
  -4.336  0.296E-01  0.296E-01
  -4.326  0.290E-01  0.290E-01
  -4.316  0.285E-01  0.285E-01
  -4.306  0.280E-01  0.280E-01
  -4.296  0.275E-01  0.275E-01
  -4.286  0.271E-01  0.271E-01
  -4.276  0.267E-01  0.267E-01
  -4.266  0.263E-01  0.263E-01
  -4.256  0.260E-01  0.260E-01
  -4.246  0.256E-01  0.256E-01
  -4.236  0.253E-01  0.253E-01
  -4.226  0.251E-01  0.251E-01
  -4.216  0.248E-01  0.248E-01
  -4.206  0.246E-01  0.246E-01
  -4.196  0.244E-01  0.244E-01
  -4.186  0.242E-01  0.242E-01
  -4.176  0.241E-01  0.241E-01
  -4.166  0.239E-01  0.239E-01
  -4.156  0.238E-01  0.238E-01
  -4.146  0.237E-01  0.237E-01
  -4.136  0.237E-01  0.237E-01
  -4.126  0.236E-01  0.236E-01
  -4.116  0.236E-01  0.236E-01
  -4.106  0.236E-01  0.236E-01
  -4.096  0.236E-01  0.236E-01
  -4.086  0.237E-01  0.237E-01
  -4.076  0.237E-01  0.237E-01
  -4.066  0.238E-01  0.238E-01
  -4.056  0.239E-01  0.239E-01
  -4.046  0.240E-01  0.240E-01
  -4.036  0.242E-01  0.242E-01
  -4.026  0.243E-01  0.243E-01
  -4.016  0.245E-01  0.245E-01
  -4.006  0.247E-01  0.247E-01
  -3.996  0.249E-01  0.249E-01
  -3.986  0.251E-01  0.251E-01
  -3.976  0.254E-01  0.254E-01
  -3.966  0.257E-01  0.257E-01
  -3.956  0.259E-01  0.259E-01
  -3.946  0.262E-01  0.262E-01
  -3.936  0.266E-01  0.266E-01
  -3.926  0.269E-01  0.269E-01
  -3.916  0.273E-01  0.273E-01
  -3.906  0.276E-01  0.276E-01
  -3.896  0.280E-01  0.280E-01
  -3.886  0.284E-01  0.284E-01
  -3.876  0.289E-01  0.289E-01
  -3.866  0.293E-01  0.293E-01
  -3.856  0.298E-01  0.298E-01
  -3.846  0.302E-01  0.302E-01
  -3.836  0.307E-01  0.307E-01
  -3.826  0.312E-01  0.312E-01
  -3.816  0.318E-01  0.318E-01
  -3.806  0.323E-01  0.323E-01
  -3.796  0.328E-01  0.328E-01
  -3.786  0.334E-01  0.334E-01
  -3.776  0.340E-01  0.340E-01
  -3.766  0.346E-01  0.346E-01
  -3.756  0.352E-01  0.352E-01
  -3.746  0.358E-01  0.358E-01
  -3.736  0.364E-01  0.364E-01
  -3.726  0.371E-01  0.371E-01
  -3.716  0.377E-01  0.377E-01
  -3.706  0.384E-01  0.384E-01
  -3.696  0.391E-01  0.391E-01
  -3.686  0.398E-01  0.398E-01
  -3.676  0.405E-01  0.405E-01
  -3.666  0.412E-01  0.412E-01
  -3.656  0.419E-01  0.419E-01
  -3.646  0.426E-01  0.426E-01
  -3.636  0.433E-01  0.433E-01
  -3.626  0.441E-01  0.441E-01
  -3.616  0.448E-01  0.448E-01
  -3.606  0.455E-01  0.455E-01
  -3.596  0.463E-01  0.463E-01
  -3.586  0.470E-01  0.470E-01
  -3.576  0.478E-01  0.478E-01
  -3.566  0.485E-01  0.485E-01
  -3.556  0.493E-01  0.493E-01
  -3.546  0.500E-01  0.500E-01
  -3.536  0.507E-01  0.507E-01
  -3.526  0.515E-01  0.515E-01
  -3.516  0.522E-01  0.522E-01
  -3.506  0.529E-01  0.529E-01
  -3.496  0.537E-01  0.537E-01
  -3.486  0.544E-01  0.544E-01
  -3.476  0.551E-01  0.551E-01
  -3.466  0.558E-01  0.558E-01
  -3.456  0.565E-01  0.565E-01
  -3.446  0.572E-01  0.572E-01
  -3.436  0.578E-01  0.578E-01
  -3.426  0.585E-01  0.585E-01
  -3.416  0.591E-01  0.591E-01
  -3.406  0.597E-01  0.597E-01
  -3.396  0.604E-01  0.604E-01
  -3.386  0.609E-01  0.609E-01
  -3.376  0.615E-01  0.615E-01
  -3.366  0.621E-01  0.621E-01
  -3.356  0.626E-01  0.626E-01
  -3.346  0.631E-01  0.631E-01
  -3.336  0.636E-01  0.636E-01
  -3.326  0.641E-01  0.641E-01
  -3.316  0.646E-01  0.646E-01
  -3.306  0.650E-01  0.650E-01
  -3.296  0.654E-01  0.654E-01
  -3.286  0.658E-01  0.658E-01
  -3.276  0.661E-01  0.661E-01
  -3.266  0.665E-01  0.665E-01
  -3.256  0.668E-01  0.668E-01
  -3.246  0.670E-01  0.670E-01
  -3.236  0.673E-01  0.673E-01
  -3.226  0.675E-01  0.675E-01
  -3.216  0.677E-01  0.677E-01
  -3.206  0.679E-01  0.679E-01
  -3.196  0.680E-01  0.680E-01
  -3.186  0.681E-01  0.681E-01
  -3.176  0.682E-01  0.682E-01
  -3.166  0.682E-01  0.682E-01
  -3.156  0.683E-01  0.683E-01
  -3.146  0.683E-01  0.683E-01
  -3.136  0.682E-01  0.682E-01
  -3.126  0.681E-01  0.681E-01
  -3.116  0.680E-01  0.680E-01
  -3.106  0.679E-01  0.679E-01
  -3.096  0.677E-01  0.677E-01
  -3.086  0.675E-01  0.675E-01
  -3.076  0.673E-01  0.673E-01
  -3.066  0.671E-01  0.671E-01
  -3.056  0.668E-01  0.668E-01
  -3.046  0.665E-01  0.665E-01
  -3.036  0.661E-01  0.661E-01
  -3.026  0.658E-01  0.658E-01
  -3.016  0.654E-01  0.654E-01
  -3.006  0.650E-01  0.650E-01
  -2.996  0.645E-01  0.645E-01
  -2.986  0.641E-01  0.641E-01
  -2.976  0.636E-01  0.636E-01
  -2.966  0.630E-01  0.630E-01
  -2.956  0.625E-01  0.625E-01
  -2.946  0.619E-01  0.619E-01
  -2.936  0.614E-01  0.614E-01
  -2.926  0.608E-01  0.608E-01
  -2.916  0.601E-01  0.601E-01
  -2.906  0.595E-01  0.595E-01
  -2.896  0.588E-01  0.588E-01
  -2.886  0.582E-01  0.582E-01
  -2.876  0.575E-01  0.575E-01
  -2.866  0.568E-01  0.568E-01
  -2.856  0.560E-01  0.560E-01
  -2.846  0.553E-01  0.553E-01
  -2.836  0.546E-01  0.546E-01
  -2.826  0.538E-01  0.538E-01
  -2.816  0.531E-01  0.531E-01
  -2.806  0.523E-01  0.523E-01
  -2.796  0.515E-01  0.515E-01
  -2.786  0.508E-01  0.508E-01
  -2.776  0.500E-01  0.500E-01
  -2.766  0.492E-01  0.492E-01
  -2.756  0.485E-01  0.485E-01
  -2.746  0.477E-01  0.477E-01
  -2.736  0.470E-01  0.470E-01
  -2.726  0.462E-01  0.462E-01
  -2.716  0.455E-01  0.455E-01
  -2.706  0.447E-01  0.447E-01
  -2.696  0.440E-01  0.440E-01
  -2.686  0.433E-01  0.433E-01
  -2.676  0.426E-01  0.426E-01
  -2.666  0.419E-01  0.419E-01
  -2.656  0.412E-01  0.412E-01
  -2.646  0.406E-01  0.406E-01
  -2.636  0.400E-01  0.400E-01
  -2.626  0.394E-01  0.394E-01
  -2.616  0.388E-01  0.388E-01
  -2.606  0.383E-01  0.383E-01
  -2.596  0.377E-01  0.377E-01
  -2.586  0.372E-01  0.372E-01
  -2.576  0.368E-01  0.368E-01
  -2.566  0.363E-01  0.363E-01
  -2.556  0.359E-01  0.359E-01
  -2.546  0.356E-01  0.356E-01
  -2.536  0.353E-01  0.353E-01
  -2.526  0.350E-01  0.350E-01
  -2.516  0.347E-01  0.347E-01
  -2.506  0.345E-01  0.345E-01
  -2.496  0.344E-01  0.344E-01
  -2.486  0.342E-01  0.342E-01
  -2.476  0.342E-01  0.342E-01
  -2.466  0.341E-01  0.341E-01
  -2.456  0.342E-01  0.342E-01
  -2.446  0.342E-01  0.342E-01
  -2.436  0.343E-01  0.343E-01
  -2.426  0.345E-01  0.345E-01
  -2.416  0.347E-01  0.347E-01
  -2.406  0.350E-01  0.350E-01
  -2.396  0.353E-01  0.353E-01
  -2.386  0.357E-01  0.357E-01
  -2.376  0.362E-01  0.362E-01
  -2.366  0.367E-01  0.367E-01
  -2.356  0.372E-01  0.372E-01
  -2.346  0.378E-01  0.378E-01
  -2.336  0.385E-01  0.385E-01
  -2.326  0.392E-01  0.392E-01
  -2.316  0.400E-01  0.400E-01
  -2.306  0.408E-01  0.408E-01
  -2.296  0.417E-01  0.417E-01
  -2.286  0.427E-01  0.427E-01
  -2.276  0.437E-01  0.437E-01
  -2.266  0.448E-01  0.448E-01
  -2.256  0.459E-01  0.459E-01
  -2.246  0.471E-01  0.471E-01
  -2.236  0.483E-01  0.483E-01
  -2.226  0.496E-01  0.496E-01
  -2.216  0.510E-01  0.510E-01
  -2.206  0.524E-01  0.524E-01
  -2.196  0.539E-01  0.539E-01
  -2.186  0.554E-01  0.554E-01
  -2.176  0.570E-01  0.570E-01
  -2.166  0.586E-01  0.586E-01
  -2.156  0.603E-01  0.603E-01
  -2.146  0.620E-01  0.620E-01
  -2.136  0.638E-01  0.638E-01
  -2.126  0.656E-01  0.656E-01
  -2.116  0.674E-01  0.674E-01
  -2.106  0.693E-01  0.693E-01
  -2.096  0.713E-01  0.713E-01
  -2.086  0.733E-01  0.733E-01
  -2.076  0.753E-01  0.753E-01
  -2.066  0.774E-01  0.774E-01
  -2.056  0.794E-01  0.794E-01
  -2.046  0.816E-01  0.816E-01
  -2.036  0.837E-01  0.837E-01
  -2.026  0.859E-01  0.859E-01
  -2.016  0.881E-01  0.881E-01
  -2.006  0.903E-01  0.903E-01
  -1.996  0.926E-01  0.926E-01
  -1.986  0.948E-01  0.948E-01
  -1.976  0.971E-01  0.971E-01
  -1.966  0.994E-01  0.994E-01
  -1.956  0.102E+00  0.102E+00
  -1.946  0.104E+00  0.104E+00
  -1.936  0.106E+00  0.106E+00
  -1.926  0.109E+00  0.109E+00
  -1.916  0.111E+00  0.111E+00
  -1.906  0.113E+00  0.113E+00
  -1.896  0.115E+00  0.115E+00
  -1.886  0.118E+00  0.118E+00
  -1.876  0.120E+00  0.120E+00
  -1.866  0.122E+00  0.122E+00
  -1.856  0.124E+00  0.124E+00
  -1.846  0.126E+00  0.126E+00
  -1.836  0.129E+00  0.129E+00
  -1.826  0.131E+00  0.131E+00
  -1.816  0.133E+00  0.133E+00
  -1.806  0.135E+00  0.135E+00
  -1.796  0.137E+00  0.137E+00
  -1.786  0.139E+00  0.139E+00
  -1.776  0.141E+00  0.141E+00
  -1.766  0.142E+00  0.142E+00
  -1.756  0.144E+00  0.144E+00
  -1.746  0.146E+00  0.146E+00
  -1.736  0.148E+00  0.148E+00
  -1.726  0.149E+00  0.149E+00
  -1.716  0.151E+00  0.151E+00
  -1.706  0.152E+00  0.152E+00
  -1.696  0.154E+00  0.154E+00
  -1.686  0.155E+00  0.155E+00
  -1.676  0.156E+00  0.156E+00
  -1.666  0.157E+00  0.157E+00
  -1.656  0.158E+00  0.158E+00
  -1.646  0.159E+00  0.159E+00
  -1.636  0.160E+00  0.160E+00
  -1.626  0.161E+00  0.161E+00
  -1.616  0.162E+00  0.162E+00
  -1.606  0.163E+00  0.163E+00
  -1.596  0.163E+00  0.163E+00
  -1.586  0.164E+00  0.164E+00
  -1.576  0.164E+00  0.164E+00
  -1.566  0.164E+00  0.164E+00
  -1.556  0.165E+00  0.165E+00
  -1.546  0.165E+00  0.165E+00
  -1.536  0.165E+00  0.165E+00
  -1.526  0.165E+00  0.165E+00
  -1.516  0.165E+00  0.165E+00
  -1.506  0.164E+00  0.164E+00
  -1.496  0.164E+00  0.164E+00
  -1.486  0.164E+00  0.164E+00
  -1.476  0.163E+00  0.163E+00
  -1.466  0.162E+00  0.162E+00
  -1.456  0.162E+00  0.162E+00
  -1.446  0.161E+00  0.161E+00
  -1.436  0.160E+00  0.160E+00
  -1.426  0.159E+00  0.159E+00
  -1.416  0.158E+00  0.158E+00
  -1.406  0.157E+00  0.157E+00
  -1.396  0.155E+00  0.155E+00
  -1.386  0.154E+00  0.154E+00
  -1.376  0.153E+00  0.153E+00
  -1.366  0.151E+00  0.151E+00
  -1.356  0.150E+00  0.150E+00
  -1.346  0.148E+00  0.148E+00
  -1.336  0.146E+00  0.146E+00
  -1.326  0.145E+00  0.145E+00
  -1.316  0.143E+00  0.143E+00
  -1.306  0.141E+00  0.141E+00
  -1.296  0.139E+00  0.139E+00
  -1.286  0.137E+00  0.137E+00
  -1.276  0.135E+00  0.135E+00
  -1.266  0.132E+00  0.132E+00
  -1.256  0.130E+00  0.130E+00
  -1.246  0.128E+00  0.128E+00
  -1.236  0.126E+00  0.126E+00
  -1.226  0.123E+00  0.123E+00
  -1.216  0.121E+00  0.121E+00
  -1.206  0.119E+00  0.119E+00
  -1.196  0.116E+00  0.116E+00
  -1.186  0.114E+00  0.114E+00
  -1.176  0.111E+00  0.111E+00
  -1.166  0.109E+00  0.109E+00
  -1.156  0.106E+00  0.106E+00
  -1.146  0.104E+00  0.104E+00
  -1.136  0.101E+00  0.101E+00
  -1.126  0.984E-01  0.984E-01
  -1.116  0.959E-01  0.959E-01
  -1.106  0.933E-01  0.933E-01
  -1.096  0.907E-01  0.907E-01
  -1.086  0.881E-01  0.881E-01
  -1.076  0.855E-01  0.855E-01
  -1.066  0.829E-01  0.829E-01
  -1.056  0.804E-01  0.804E-01
  -1.046  0.778E-01  0.778E-01
  -1.036  0.753E-01  0.753E-01
  -1.026  0.727E-01  0.727E-01
  -1.016  0.702E-01  0.702E-01
  -1.006  0.678E-01  0.678E-01
  -0.996  0.653E-01  0.653E-01
  -0.986  0.629E-01  0.629E-01
  -0.976  0.605E-01  0.605E-01
  -0.966  0.582E-01  0.582E-01
  -0.956  0.558E-01  0.558E-01
  -0.946  0.536E-01  0.536E-01
  -0.936  0.513E-01  0.513E-01
  -0.926  0.491E-01  0.491E-01
  -0.916  0.469E-01  0.469E-01
  -0.906  0.448E-01  0.448E-01
  -0.896  0.428E-01  0.428E-01
  -0.886  0.407E-01  0.407E-01
  -0.876  0.387E-01  0.387E-01
  -0.866  0.368E-01  0.368E-01
  -0.856  0.349E-01  0.349E-01
  -0.846  0.331E-01  0.331E-01
  -0.836  0.313E-01  0.313E-01
  -0.826  0.296E-01  0.296E-01
  -0.816  0.279E-01  0.279E-01
  -0.806  0.263E-01  0.263E-01
  -0.796  0.247E-01  0.247E-01
  -0.786  0.232E-01  0.232E-01
  -0.776  0.217E-01  0.217E-01
  -0.766  0.203E-01  0.203E-01
  -0.756  0.190E-01  0.190E-01
  -0.746  0.177E-01  0.177E-01
  -0.736  0.165E-01  0.165E-01
  -0.726  0.153E-01  0.153E-01
  -0.716  0.141E-01  0.141E-01
  -0.706  0.131E-01  0.131E-01
  -0.696  0.120E-01  0.120E-01
  -0.686  0.111E-01  0.111E-01
  -0.676  0.101E-01  0.101E-01
  -0.666  0.928E-02  0.928E-02
  -0.656  0.847E-02  0.847E-02
  -0.646  0.771E-02  0.771E-02
  -0.636  0.700E-02  0.700E-02
  -0.626  0.634E-02  0.634E-02
  -0.616  0.573E-02  0.573E-02
  -0.606  0.517E-02  0.517E-02
  -0.596  0.465E-02  0.465E-02
  -0.586  0.418E-02  0.418E-02
  -0.576  0.376E-02  0.376E-02
  -0.566  0.339E-02  0.339E-02
  -0.556  0.305E-02  0.305E-02
  -0.546  0.276E-02  0.276E-02
  -0.536  0.252E-02  0.252E-02
  -0.526  0.231E-02  0.231E-02
  -0.516  0.214E-02  0.214E-02
  -0.506  0.202E-02  0.202E-02
  -0.496  0.193E-02  0.193E-02
  -0.486  0.187E-02  0.187E-02
  -0.476  0.186E-02  0.186E-02
  -0.466  0.188E-02  0.188E-02
  -0.456  0.193E-02  0.193E-02
  -0.446  0.201E-02  0.201E-02
  -0.436  0.212E-02  0.212E-02
  -0.426  0.227E-02  0.227E-02
  -0.416  0.244E-02  0.244E-02
  -0.406  0.265E-02  0.265E-02
  -0.396  0.288E-02  0.288E-02
  -0.386  0.313E-02  0.313E-02
  -0.376  0.341E-02  0.341E-02
  -0.366  0.371E-02  0.371E-02
  -0.356  0.404E-02  0.404E-02
  -0.346  0.439E-02  0.439E-02
  -0.336  0.475E-02  0.475E-02
  -0.326  0.514E-02  0.514E-02
  -0.316  0.555E-02  0.555E-02
  -0.306  0.597E-02  0.597E-02
  -0.296  0.641E-02  0.641E-02
  -0.286  0.687E-02  0.687E-02
  -0.276  0.734E-02  0.734E-02
  -0.266  0.783E-02  0.783E-02
  -0.256  0.833E-02  0.833E-02
  -0.246  0.884E-02  0.884E-02
  -0.236  0.936E-02  0.936E-02
  -0.226  0.989E-02  0.989E-02
  -0.216  0.104E-01  0.104E-01
  -0.206  0.110E-01  0.110E-01
  -0.196  0.116E-01  0.116E-01
  -0.186  0.121E-01  0.121E-01
  -0.176  0.127E-01  0.127E-01
  -0.166  0.133E-01  0.133E-01
  -0.156  0.139E-01  0.139E-01
  -0.146  0.145E-01  0.145E-01
  -0.136  0.151E-01  0.151E-01
  -0.126  0.157E-01  0.157E-01
  -0.116  0.163E-01  0.163E-01
  -0.106  0.169E-01  0.169E-01
  -0.096  0.175E-01  0.175E-01
  -0.086  0.181E-01  0.181E-01
  -0.076  0.188E-01  0.188E-01
  -0.066  0.194E-01  0.194E-01
  -0.056  0.200E-01  0.200E-01
  -0.046  0.207E-01  0.207E-01
  -0.036  0.213E-01  0.213E-01
  -0.026  0.219E-01  0.219E-01
  -0.016  0.226E-01  0.226E-01
  -0.006  0.232E-01  0.232E-01
   0.004  0.239E-01  0.239E-01
   0.014  0.245E-01  0.245E-01
   0.024  0.251E-01  0.251E-01
   0.034  0.258E-01  0.258E-01
   0.044  0.265E-01  0.265E-01
   0.054  0.271E-01  0.271E-01
   0.064  0.278E-01  0.278E-01
   0.074  0.285E-01  0.285E-01
   0.084  0.291E-01  0.291E-01
   0.094  0.298E-01  0.298E-01
   0.104  0.305E-01  0.305E-01
   0.114  0.312E-01  0.312E-01
   0.124  0.319E-01  0.319E-01
   0.134  0.326E-01  0.326E-01
   0.144  0.333E-01  0.333E-01
   0.154  0.340E-01  0.340E-01
   0.164  0.347E-01  0.347E-01
   0.174  0.355E-01  0.355E-01
   0.184  0.362E-01  0.362E-01
   0.194  0.370E-01  0.370E-01
   0.204  0.378E-01  0.378E-01
   0.214  0.385E-01  0.385E-01
   0.224  0.393E-01  0.393E-01
   0.234  0.402E-01  0.402E-01
   0.244  0.410E-01  0.410E-01
   0.254  0.418E-01  0.418E-01
   0.264  0.427E-01  0.427E-01
   0.274  0.436E-01  0.436E-01
   0.284  0.445E-01  0.445E-01
   0.294  0.454E-01  0.454E-01
   0.304  0.463E-01  0.463E-01
   0.314  0.473E-01  0.473E-01
   0.324  0.483E-01  0.483E-01
   0.334  0.493E-01  0.493E-01
   0.344  0.503E-01  0.503E-01
   0.354  0.513E-01  0.513E-01
   0.364  0.524E-01  0.524E-01
   0.374  0.535E-01  0.535E-01
   0.384  0.547E-01  0.547E-01
   0.394  0.558E-01  0.558E-01
   0.404  0.570E-01  0.570E-01
   0.414  0.582E-01  0.582E-01
   0.424  0.595E-01  0.595E-01
   0.434  0.608E-01  0.608E-01
   0.444  0.621E-01  0.621E-01
   0.454  0.634E-01  0.634E-01
   0.464  0.648E-01  0.648E-01
   0.474  0.662E-01  0.662E-01
   0.484  0.677E-01  0.677E-01
   0.494  0.692E-01  0.692E-01
   0.504  0.707E-01  0.707E-01
   0.514  0.722E-01  0.722E-01
   0.524  0.738E-01  0.738E-01
   0.534  0.754E-01  0.754E-01
   0.544  0.771E-01  0.771E-01
   0.554  0.788E-01  0.788E-01
   0.564  0.805E-01  0.805E-01
   0.574  0.823E-01  0.823E-01
   0.584  0.841E-01  0.841E-01
   0.594  0.859E-01  0.859E-01
   0.604  0.878E-01  0.878E-01
   0.614  0.897E-01  0.897E-01
   0.624  0.917E-01  0.917E-01
   0.634  0.936E-01  0.936E-01
   0.644  0.957E-01  0.957E-01
   0.654  0.977E-01  0.977E-01
   0.664  0.998E-01  0.998E-01
   0.674  0.102E+00  0.102E+00
   0.684  0.104E+00  0.104E+00
   0.694  0.106E+00  0.106E+00
   0.704  0.108E+00  0.108E+00
   0.714  0.111E+00  0.111E+00
   0.724  0.113E+00  0.113E+00
   0.734  0.115E+00  0.115E+00
   0.744  0.118E+00  0.118E+00
   0.754  0.120E+00  0.120E+00
   0.764  0.122E+00  0.122E+00
   0.774  0.125E+00  0.125E+00
   0.784  0.127E+00  0.127E+00
   0.794  0.129E+00  0.129E+00
   0.804  0.132E+00  0.132E+00
   0.814  0.134E+00  0.134E+00
   0.824  0.137E+00  0.137E+00
   0.834  0.139E+00  0.139E+00
   0.844  0.142E+00  0.142E+00
   0.854  0.144E+00  0.144E+00
   0.864  0.147E+00  0.147E+00
   0.874  0.149E+00  0.149E+00
   0.884  0.152E+00  0.152E+00
   0.894  0.154E+00  0.154E+00
   0.904  0.157E+00  0.157E+00
   0.914  0.159E+00  0.159E+00
   0.924  0.162E+00  0.162E+00
   0.934  0.164E+00  0.164E+00
   0.944  0.167E+00  0.167E+00
   0.954  0.169E+00  0.169E+00
   0.964  0.172E+00  0.172E+00
   0.974  0.174E+00  0.174E+00
   0.984  0.176E+00  0.176E+00
   0.994  0.179E+00  0.179E+00
   1.004  0.181E+00  0.181E+00
   1.014  0.183E+00  0.183E+00
   1.024  0.186E+00  0.186E+00
   1.034  0.188E+00  0.188E+00
   1.044  0.190E+00  0.190E+00
   1.054  0.192E+00  0.192E+00
   1.064  0.194E+00  0.194E+00
   1.074  0.197E+00  0.197E+00
   1.084  0.199E+00  0.199E+00
   1.094  0.201E+00  0.201E+00
   1.104  0.203E+00  0.203E+00
   1.114  0.204E+00  0.204E+00
   1.124  0.206E+00  0.206E+00
   1.134  0.208E+00  0.208E+00
   1.144  0.210E+00  0.210E+00
   1.154  0.211E+00  0.211E+00
   1.164  0.213E+00  0.213E+00
   1.174  0.214E+00  0.214E+00
   1.184  0.216E+00  0.216E+00
   1.194  0.217E+00  0.217E+00
   1.204  0.218E+00  0.218E+00
   1.214  0.220E+00  0.220E+00
   1.224  0.221E+00  0.221E+00
   1.234  0.222E+00  0.222E+00
   1.244  0.223E+00  0.223E+00
   1.254  0.224E+00  0.224E+00
   1.264  0.225E+00  0.225E+00
   1.274  0.225E+00  0.225E+00
   1.284  0.226E+00  0.226E+00
   1.294  0.226E+00  0.226E+00
   1.304  0.227E+00  0.227E+00
   1.314  0.227E+00  0.227E+00
   1.324  0.227E+00  0.227E+00
   1.334  0.228E+00  0.228E+00
   1.344  0.228E+00  0.228E+00
   1.354  0.228E+00  0.228E+00
   1.364  0.228E+00  0.228E+00
   1.374  0.227E+00  0.227E+00
   1.384  0.227E+00  0.227E+00
   1.394  0.227E+00  0.227E+00
   1.404  0.226E+00  0.226E+00
   1.414  0.226E+00  0.226E+00
   1.424  0.225E+00  0.225E+00
   1.434  0.224E+00  0.224E+00
   1.444  0.224E+00  0.224E+00
   1.454  0.223E+00  0.223E+00
   1.464  0.222E+00  0.222E+00
   1.474  0.220E+00  0.220E+00
   1.484  0.219E+00  0.219E+00
   1.494  0.218E+00  0.218E+00
   1.504  0.217E+00  0.217E+00
   1.514  0.215E+00  0.215E+00
   1.524  0.214E+00  0.214E+00
   1.534  0.212E+00  0.212E+00
   1.544  0.210E+00  0.210E+00
   1.554  0.209E+00  0.209E+00
   1.564  0.207E+00  0.207E+00
   1.574  0.205E+00  0.205E+00
   1.584  0.203E+00  0.203E+00
   1.594  0.201E+00  0.201E+00
   1.604  0.199E+00  0.199E+00
   1.614  0.197E+00  0.197E+00
   1.624  0.194E+00  0.194E+00
   1.634  0.192E+00  0.192E+00
   1.644  0.190E+00  0.190E+00
   1.654  0.187E+00  0.187E+00
   1.664  0.185E+00  0.185E+00
   1.674  0.182E+00  0.182E+00
   1.684  0.180E+00  0.180E+00
   1.694  0.177E+00  0.177E+00
   1.704  0.175E+00  0.175E+00
   1.714  0.172E+00  0.172E+00
   1.724  0.169E+00  0.169E+00
   1.734  0.167E+00  0.167E+00
   1.744  0.164E+00  0.164E+00
   1.754  0.161E+00  0.161E+00
   1.764  0.159E+00  0.159E+00
   1.774  0.156E+00  0.156E+00
   1.784  0.153E+00  0.153E+00
   1.794  0.150E+00  0.150E+00
   1.804  0.148E+00  0.148E+00
   1.814  0.145E+00  0.145E+00
   1.824  0.142E+00  0.142E+00
   1.834  0.139E+00  0.139E+00
   1.844  0.137E+00  0.137E+00
   1.854  0.134E+00  0.134E+00
   1.864  0.131E+00  0.131E+00
   1.874  0.129E+00  0.129E+00
   1.884  0.126E+00  0.126E+00
   1.894  0.123E+00  0.123E+00
   1.904  0.121E+00  0.121E+00
   1.914  0.118E+00  0.118E+00
   1.924  0.116E+00  0.116E+00
   1.934  0.113E+00  0.113E+00
   1.944  0.111E+00  0.111E+00
   1.954  0.109E+00  0.109E+00
   1.964  0.106E+00  0.106E+00
   1.974  0.104E+00  0.104E+00
   1.984  0.102E+00  0.102E+00
   1.994  0.998E-01  0.998E-01
   2.004  0.977E-01  0.977E-01
   2.014  0.957E-01  0.957E-01
   2.024  0.938E-01  0.938E-01
   2.034  0.919E-01  0.919E-01
   2.044  0.901E-01  0.901E-01
   2.054  0.884E-01  0.884E-01
   2.064  0.867E-01  0.867E-01
   2.074  0.851E-01  0.851E-01
   2.084  0.836E-01  0.836E-01
   2.094  0.822E-01  0.822E-01
   2.104  0.809E-01  0.809E-01
   2.114  0.796E-01  0.796E-01
   2.124  0.784E-01  0.784E-01
   2.134  0.773E-01  0.773E-01
   2.144  0.763E-01  0.763E-01
   2.154  0.754E-01  0.754E-01
   2.164  0.745E-01  0.745E-01
   2.174  0.738E-01  0.738E-01
   2.184  0.731E-01  0.731E-01
   2.194  0.725E-01  0.725E-01
   2.204  0.720E-01  0.720E-01
   2.214  0.716E-01  0.716E-01
   2.224  0.713E-01  0.713E-01
   2.234  0.711E-01  0.711E-01
   2.244  0.710E-01  0.710E-01
   2.254  0.709E-01  0.709E-01
   2.264  0.709E-01  0.709E-01
   2.274  0.711E-01  0.711E-01
   2.284  0.713E-01  0.713E-01
   2.294  0.716E-01  0.716E-01
   2.304  0.719E-01  0.719E-01
   2.314  0.724E-01  0.724E-01
   2.324  0.729E-01  0.729E-01
   2.334  0.736E-01  0.736E-01
   2.344  0.743E-01  0.743E-01
   2.354  0.751E-01  0.751E-01
   2.364  0.759E-01  0.759E-01
   2.374  0.768E-01  0.768E-01
   2.384  0.778E-01  0.778E-01
   2.394  0.789E-01  0.789E-01
   2.404  0.801E-01  0.801E-01
   2.414  0.813E-01  0.813E-01
   2.424  0.825E-01  0.825E-01
   2.434  0.839E-01  0.839E-01
   2.444  0.852E-01  0.852E-01
   2.454  0.867E-01  0.867E-01
   2.464  0.882E-01  0.882E-01
   2.474  0.897E-01  0.897E-01
   2.484  0.913E-01  0.913E-01
   2.494  0.930E-01  0.930E-01
   2.504  0.947E-01  0.947E-01
   2.514  0.964E-01  0.964E-01
   2.524  0.982E-01  0.982E-01
   2.534  0.100E+00  0.100E+00
   2.544  0.102E+00  0.102E+00
   2.554  0.104E+00  0.104E+00
   2.564  0.106E+00  0.106E+00
   2.574  0.107E+00  0.107E+00
   2.584  0.109E+00  0.109E+00
   2.594  0.111E+00  0.111E+00
   2.604  0.113E+00  0.113E+00
   2.614  0.115E+00  0.115E+00
   2.624  0.117E+00  0.117E+00
   2.634  0.119E+00  0.119E+00
   2.644  0.121E+00  0.121E+00
   2.654  0.123E+00  0.123E+00
   2.664  0.125E+00  0.125E+00
   2.674  0.127E+00  0.127E+00
   2.684  0.129E+00  0.129E+00
   2.694  0.130E+00  0.130E+00
   2.704  0.132E+00  0.132E+00
   2.714  0.134E+00  0.134E+00
   2.724  0.136E+00  0.136E+00
   2.734  0.138E+00  0.138E+00
   2.744  0.139E+00  0.139E+00
   2.754  0.141E+00  0.141E+00
   2.764  0.143E+00  0.143E+00
   2.774  0.144E+00  0.144E+00
   2.784  0.146E+00  0.146E+00
   2.794  0.147E+00  0.147E+00
   2.804  0.149E+00  0.149E+00
   2.814  0.150E+00  0.150E+00
   2.824  0.151E+00  0.151E+00
   2.834  0.152E+00  0.152E+00
   2.844  0.154E+00  0.154E+00
   2.854  0.155E+00  0.155E+00
   2.864  0.156E+00  0.156E+00
   2.874  0.157E+00  0.157E+00
   2.884  0.158E+00  0.158E+00
   2.894  0.158E+00  0.158E+00
   2.904  0.159E+00  0.159E+00
   2.914  0.160E+00  0.160E+00
   2.924  0.160E+00  0.160E+00
   2.934  0.161E+00  0.161E+00
   2.944  0.161E+00  0.161E+00
   2.954  0.161E+00  0.161E+00
   2.964  0.162E+00  0.162E+00
   2.974  0.162E+00  0.162E+00
   2.984  0.162E+00  0.162E+00
   2.994  0.162E+00  0.162E+00
   3.004  0.161E+00  0.161E+00
   3.014  0.161E+00  0.161E+00
   3.024  0.161E+00  0.161E+00
   3.034  0.160E+00  0.160E+00
   3.044  0.160E+00  0.160E+00
   3.054  0.159E+00  0.159E+00
   3.064  0.159E+00  0.159E+00
   3.074  0.158E+00  0.158E+00
   3.084  0.157E+00  0.157E+00
   3.094  0.156E+00  0.156E+00
   3.104  0.155E+00  0.155E+00
   3.114  0.154E+00  0.154E+00
   3.124  0.153E+00  0.153E+00
   3.134  0.151E+00  0.151E+00
   3.144  0.150E+00  0.150E+00
   3.154  0.149E+00  0.149E+00
   3.164  0.147E+00  0.147E+00
   3.174  0.145E+00  0.145E+00
   3.184  0.144E+00  0.144E+00
   3.194  0.142E+00  0.142E+00
   3.204  0.140E+00  0.140E+00
   3.214  0.138E+00  0.138E+00
   3.224  0.136E+00  0.136E+00
   3.234  0.134E+00  0.134E+00
   3.244  0.132E+00  0.132E+00
   3.254  0.130E+00  0.130E+00
   3.264  0.128E+00  0.128E+00
   3.274  0.126E+00  0.126E+00
   3.284  0.124E+00  0.124E+00
   3.294  0.121E+00  0.121E+00
   3.304  0.119E+00  0.119E+00
   3.314  0.117E+00  0.117E+00
   3.324  0.114E+00  0.114E+00
   3.334  0.112E+00  0.112E+00
   3.344  0.109E+00  0.109E+00
   3.354  0.107E+00  0.107E+00
   3.364  0.104E+00  0.104E+00
   3.374  0.102E+00  0.102E+00
   3.384  0.991E-01  0.991E-01
   3.394  0.966E-01  0.966E-01
   3.404  0.940E-01  0.940E-01
   3.414  0.914E-01  0.914E-01
   3.424  0.888E-01  0.888E-01
   3.434  0.862E-01  0.862E-01
   3.444  0.836E-01  0.836E-01
   3.454  0.811E-01  0.811E-01
   3.464  0.785E-01  0.785E-01
   3.474  0.759E-01  0.759E-01
   3.484  0.734E-01  0.734E-01
   3.494  0.708E-01  0.708E-01
   3.504  0.683E-01  0.683E-01
   3.514  0.658E-01  0.658E-01
   3.524  0.633E-01  0.633E-01
   3.534  0.609E-01  0.609E-01
   3.544  0.585E-01  0.585E-01
   3.554  0.561E-01  0.561E-01
   3.564  0.537E-01  0.537E-01
   3.574  0.514E-01  0.514E-01
   3.584  0.491E-01  0.491E-01
   3.594  0.468E-01  0.468E-01
   3.604  0.446E-01  0.446E-01
   3.614  0.425E-01  0.425E-01
   3.624  0.403E-01  0.403E-01
   3.634  0.382E-01  0.382E-01
   3.644  0.362E-01  0.362E-01
   3.654  0.342E-01  0.342E-01
   3.664  0.322E-01  0.322E-01
   3.674  0.303E-01  0.303E-01
   3.684  0.285E-01  0.285E-01
   3.694  0.266E-01  0.266E-01
   3.704  0.249E-01  0.249E-01
   3.714  0.232E-01  0.232E-01
   3.724  0.215E-01  0.215E-01
   3.734  0.199E-01  0.199E-01
   3.744  0.183E-01  0.183E-01
   3.754  0.168E-01  0.168E-01
   3.764  0.154E-01  0.154E-01
   3.774  0.140E-01  0.140E-01
   3.784  0.126E-01  0.126E-01
   3.794  0.113E-01  0.113E-01
   3.804  0.101E-01  0.101E-01
   3.814  0.886E-02  0.886E-02
   3.824  0.771E-02  0.771E-02
   3.834  0.661E-02  0.661E-02
   3.844  0.555E-02  0.555E-02
   3.854  0.455E-02  0.455E-02
   3.864  0.359E-02  0.359E-02
   3.874  0.268E-02  0.268E-02
   3.884  0.182E-02  0.182E-02
   3.894  0.996E-03  0.996E-03
   3.904  0.221E-03  0.221E-03
   3.914 -0.510E-03 -0.510E-03
   3.924 -0.120E-02 -0.120E-02
   3.934 -0.185E-02 -0.185E-02
   3.944 -0.245E-02 -0.245E-02
   3.954 -0.302E-02 -0.302E-02
   3.964 -0.355E-02 -0.355E-02
   3.974 -0.404E-02 -0.404E-02
   3.984 -0.449E-02 -0.449E-02
   3.994 -0.491E-02 -0.491E-02
   4.004 -0.530E-02 -0.530E-02
   4.014 -0.565E-02 -0.565E-02
   4.024 -0.597E-02 -0.597E-02
   4.034 -0.626E-02 -0.626E-02
   4.044 -0.652E-02 -0.652E-02
   4.054 -0.676E-02 -0.676E-02
   4.064 -0.696E-02 -0.696E-02
   4.074 -0.714E-02 -0.714E-02
   4.084 -0.730E-02 -0.730E-02
   4.094 -0.743E-02 -0.743E-02
   4.104 -0.754E-02 -0.754E-02
   4.114 -0.762E-02 -0.762E-02
   4.124 -0.769E-02 -0.769E-02
   4.134 -0.774E-02 -0.774E-02
   4.144 -0.777E-02 -0.777E-02
   4.154 -0.778E-02 -0.778E-02
   4.164 -0.778E-02 -0.778E-02
   4.174 -0.776E-02 -0.776E-02
   4.184 -0.773E-02 -0.773E-02
   4.194 -0.768E-02 -0.768E-02
   4.204 -0.762E-02 -0.762E-02
   4.214 -0.755E-02 -0.755E-02
   4.224 -0.747E-02 -0.747E-02
   4.234 -0.738E-02 -0.738E-02
   4.244 -0.729E-02 -0.729E-02
   4.254 -0.718E-02 -0.718E-02
   4.264 -0.706E-02 -0.706E-02
   4.274 -0.694E-02 -0.694E-02
   4.284 -0.682E-02 -0.682E-02
   4.294 -0.669E-02 -0.669E-02
   4.304 -0.655E-02 -0.655E-02
   4.314 -0.641E-02 -0.641E-02
   4.324 -0.626E-02 -0.626E-02
   4.334 -0.612E-02 -0.612E-02
   4.344 -0.597E-02 -0.597E-02
   4.354 -0.582E-02 -0.582E-02
   4.364 -0.566E-02 -0.566E-02
   4.374 -0.551E-02 -0.551E-02
   4.384 -0.536E-02 -0.536E-02
   4.394 -0.520E-02 -0.520E-02
   4.404 -0.505E-02 -0.505E-02
   4.414 -0.489E-02 -0.489E-02
   4.424 -0.474E-02 -0.474E-02
   4.434 -0.459E-02 -0.459E-02
   4.444 -0.444E-02 -0.444E-02
   4.454 -0.429E-02 -0.429E-02
   4.464 -0.414E-02 -0.414E-02
   4.474 -0.399E-02 -0.399E-02
   4.484 -0.385E-02 -0.385E-02
   4.494 -0.371E-02 -0.371E-02
   4.504 -0.357E-02 -0.357E-02
   4.514 -0.344E-02 -0.344E-02
   4.524 -0.331E-02 -0.331E-02
   4.534 -0.318E-02 -0.318E-02
   4.544 -0.305E-02 -0.305E-02
   4.554 -0.293E-02 -0.293E-02
   4.564 -0.280E-02 -0.280E-02
   4.574 -0.269E-02 -0.269E-02
   4.584 -0.257E-02 -0.257E-02
   4.594 -0.246E-02 -0.246E-02
   4.604 -0.236E-02 -0.236E-02
   4.614 -0.225E-02 -0.225E-02
   4.624 -0.215E-02 -0.215E-02
   4.634 -0.205E-02 -0.205E-02
   4.644 -0.196E-02 -0.196E-02
   4.654 -0.187E-02 -0.187E-02
   4.664 -0.178E-02 -0.178E-02
   4.674 -0.169E-02 -0.169E-02
   4.684 -0.161E-02 -0.161E-02
   4.694 -0.153E-02 -0.153E-02
   4.704 -0.146E-02 -0.146E-02
   4.714 -0.138E-02 -0.138E-02
   4.724 -0.131E-02 -0.131E-02
   4.734 -0.125E-02 -0.125E-02
   4.744 -0.118E-02 -0.118E-02
   4.754 -0.112E-02 -0.112E-02
   4.764 -0.106E-02 -0.106E-02
   4.774 -0.100E-02 -0.100E-02
   4.784 -0.950E-03 -0.950E-03
   4.794 -0.898E-03 -0.898E-03
   4.804 -0.849E-03 -0.849E-03
   4.814 -0.801E-03 -0.801E-03
   4.824 -0.756E-03 -0.756E-03
   4.834 -0.714E-03 -0.714E-03
   4.844 -0.673E-03 -0.673E-03
   4.854 -0.634E-03 -0.634E-03
   4.864 -0.597E-03 -0.597E-03
   4.874 -0.562E-03 -0.562E-03
   4.884 -0.529E-03 -0.529E-03
   4.894 -0.498E-03 -0.498E-03
   4.904 -0.468E-03 -0.468E-03
   4.914 -0.439E-03 -0.439E-03
   4.924 -0.412E-03 -0.412E-03
   4.934 -0.387E-03 -0.387E-03
   4.944 -0.363E-03 -0.363E-03
   4.954 -0.340E-03 -0.340E-03
   4.964 -0.319E-03 -0.319E-03
   4.974 -0.299E-03 -0.299E-03
   4.984 -0.279E-03 -0.279E-03
   4.994 -0.261E-03 -0.261E-03
   5.004 -0.244E-03 -0.244E-03
   5.014 -0.228E-03 -0.228E-03
   5.024 -0.213E-03 -0.213E-03
   5.034 -0.199E-03 -0.199E-03
   5.044 -0.186E-03 -0.186E-03
   5.054 -0.173E-03 -0.173E-03
   5.064 -0.161E-03 -0.161E-03
   5.074 -0.150E-03 -0.150E-03
   5.084 -0.140E-03 -0.140E-03
   5.094 -0.130E-03 -0.130E-03
   5.104 -0.121E-03 -0.121E-03
   5.114 -0.113E-03 -0.113E-03
   5.124 -0.105E-03 -0.105E-03
   5.134 -0.973E-04 -0.973E-04
   5.144 -0.904E-04 -0.904E-04
   5.154 -0.838E-04 -0.838E-04
   5.164 -0.778E-04 -0.778E-04
   5.174 -0.721E-04 -0.721E-04
   5.184 -0.668E-04 -0.668E-04
   5.194 -0.618E-04 -0.618E-04
   5.204 -0.572E-04 -0.572E-04
   5.214 -0.530E-04 -0.530E-04
   5.224 -0.490E-04 -0.490E-04
   5.234 -0.453E-04 -0.453E-04
   5.244 -0.418E-04 -0.418E-04
   5.254 -0.386E-04 -0.386E-04
   5.264 -0.356E-04 -0.356E-04
   5.274 -0.329E-04 -0.329E-04
   5.284 -0.303E-04 -0.303E-04
   5.294 -0.279E-04 -0.279E-04
