# E (eV)   ldos(E)   pdos(E)   
 -27.116 -0.268E-08 -0.268E-08
 -27.106 -0.289E-08 -0.289E-08
 -27.096 -0.312E-08 -0.312E-08
 -27.086 -0.336E-08 -0.336E-08
 -27.076 -0.363E-08 -0.363E-08
 -27.066 -0.390E-08 -0.390E-08
 -27.056 -0.420E-08 -0.420E-08
 -27.046 -0.452E-08 -0.452E-08
 -27.036 -0.487E-08 -0.487E-08
 -27.026 -0.523E-08 -0.523E-08
 -27.016 -0.562E-08 -0.562E-08
 -27.006 -0.603E-08 -0.603E-08
 -26.996 -0.647E-08 -0.647E-08
 -26.986 -0.695E-08 -0.695E-08
 -26.976 -0.745E-08 -0.745E-08
 -26.966 -0.798E-08 -0.798E-08
 -26.956 -0.854E-08 -0.854E-08
 -26.946 -0.915E-08 -0.915E-08
 -26.936 -0.978E-08 -0.978E-08
 -26.926 -0.105E-07 -0.105E-07
 -26.916 -0.112E-07 -0.112E-07
 -26.906 -0.119E-07 -0.119E-07
 -26.896 -0.127E-07 -0.127E-07
 -26.886 -0.136E-07 -0.136E-07
 -26.876 -0.145E-07 -0.145E-07
 -26.866 -0.155E-07 -0.155E-07
 -26.856 -0.165E-07 -0.165E-07
 -26.846 -0.175E-07 -0.175E-07
 -26.836 -0.186E-07 -0.186E-07
 -26.826 -0.198E-07 -0.198E-07
 -26.816 -0.211E-07 -0.211E-07
 -26.806 -0.224E-07 -0.224E-07
 -26.796 -0.238E-07 -0.238E-07
 -26.786 -0.252E-07 -0.252E-07
 -26.776 -0.267E-07 -0.267E-07
 -26.766 -0.283E-07 -0.283E-07
 -26.756 -0.300E-07 -0.300E-07
 -26.746 -0.317E-07 -0.317E-07
 -26.736 -0.336E-07 -0.336E-07
 -26.726 -0.355E-07 -0.355E-07
 -26.716 -0.375E-07 -0.375E-07
 -26.706 -0.396E-07 -0.396E-07
 -26.696 -0.418E-07 -0.418E-07
 -26.686 -0.441E-07 -0.441E-07
 -26.676 -0.465E-07 -0.465E-07
 -26.666 -0.489E-07 -0.489E-07
 -26.656 -0.515E-07 -0.515E-07
 -26.646 -0.542E-07 -0.542E-07
 -26.636 -0.570E-07 -0.570E-07
 -26.626 -0.599E-07 -0.599E-07
 -26.616 -0.629E-07 -0.629E-07
 -26.606 -0.660E-07 -0.660E-07
 -26.596 -0.692E-07 -0.692E-07
 -26.586 -0.725E-07 -0.725E-07
 -26.576 -0.759E-07 -0.759E-07
 -26.566 -0.795E-07 -0.795E-07
 -26.556 -0.831E-07 -0.831E-07
 -26.546 -0.869E-07 -0.869E-07
 -26.536 -0.907E-07 -0.907E-07
 -26.526 -0.947E-07 -0.947E-07
 -26.516 -0.988E-07 -0.988E-07
 -26.506 -0.103E-06 -0.103E-06
 -26.496 -0.107E-06 -0.107E-06
 -26.486 -0.112E-06 -0.112E-06
 -26.476 -0.116E-06 -0.116E-06
 -26.466 -0.121E-06 -0.121E-06
 -26.456 -0.125E-06 -0.125E-06
 -26.446 -0.130E-06 -0.130E-06
 -26.436 -0.135E-06 -0.135E-06
 -26.426 -0.139E-06 -0.139E-06
 -26.416 -0.144E-06 -0.144E-06
 -26.406 -0.149E-06 -0.149E-06
 -26.396 -0.154E-06 -0.154E-06
 -26.386 -0.159E-06 -0.159E-06
 -26.376 -0.164E-06 -0.164E-06
 -26.366 -0.169E-06 -0.169E-06
 -26.356 -0.174E-06 -0.174E-06
 -26.346 -0.179E-06 -0.179E-06
 -26.336 -0.184E-06 -0.184E-06
 -26.326 -0.189E-06 -0.189E-06
 -26.316 -0.194E-06 -0.194E-06
 -26.306 -0.199E-06 -0.199E-06
 -26.296 -0.203E-06 -0.203E-06
 -26.286 -0.208E-06 -0.208E-06
 -26.276 -0.212E-06 -0.212E-06
 -26.266 -0.216E-06 -0.216E-06
 -26.256 -0.220E-06 -0.220E-06
 -26.246 -0.224E-06 -0.224E-06
 -26.236 -0.228E-06 -0.228E-06
 -26.226 -0.231E-06 -0.231E-06
 -26.216 -0.234E-06 -0.234E-06
 -26.206 -0.237E-06 -0.237E-06
 -26.196 -0.239E-06 -0.239E-06
 -26.186 -0.241E-06 -0.241E-06
 -26.176 -0.243E-06 -0.243E-06
 -26.166 -0.244E-06 -0.244E-06
 -26.156 -0.245E-06 -0.245E-06
 -26.146 -0.245E-06 -0.245E-06
 -26.136 -0.245E-06 -0.245E-06
 -26.126 -0.244E-06 -0.244E-06
 -26.116 -0.243E-06 -0.243E-06
 -26.106 -0.240E-06 -0.240E-06
 -26.096 -0.238E-06 -0.238E-06
 -26.086 -0.234E-06 -0.234E-06
 -26.076 -0.230E-06 -0.230E-06
 -26.066 -0.225E-06 -0.225E-06
 -26.056 -0.219E-06 -0.219E-06
 -26.046 -0.212E-06 -0.212E-06
 -26.036 -0.205E-06 -0.205E-06
 -26.026 -0.196E-06 -0.196E-06
 -26.016 -0.186E-06 -0.186E-06
 -26.006 -0.176E-06 -0.176E-06
 -25.996 -0.164E-06 -0.164E-06
 -25.986 -0.151E-06 -0.151E-06
 -25.976 -0.137E-06 -0.137E-06
 -25.966 -0.122E-06 -0.122E-06
 -25.956 -0.106E-06 -0.106E-06
 -25.946 -0.881E-07 -0.881E-07
 -25.936 -0.692E-07 -0.692E-07
 -25.926 -0.490E-07 -0.490E-07
 -25.916 -0.273E-07 -0.273E-07
 -25.906 -0.432E-08 -0.432E-08
 -25.896  0.201E-07  0.201E-07
 -25.886  0.461E-07  0.461E-07
 -25.876  0.735E-07  0.735E-07
 -25.866  0.102E-06  0.102E-06
 -25.856  0.133E-06  0.133E-06
 -25.846  0.165E-06  0.165E-06
 -25.836  0.199E-06  0.199E-06
 -25.826  0.234E-06  0.234E-06
 -25.816  0.271E-06  0.271E-06
 -25.806  0.309E-06  0.309E-06
 -25.796  0.349E-06  0.349E-06
 -25.786  0.391E-06  0.391E-06
 -25.776  0.435E-06  0.435E-06
 -25.766  0.480E-06  0.480E-06
 -25.756  0.527E-06  0.527E-06
 -25.746  0.575E-06  0.575E-06
 -25.736  0.626E-06  0.626E-06
 -25.726  0.677E-06  0.677E-06
 -25.716  0.731E-06  0.731E-06
 -25.706  0.786E-06  0.786E-06
 -25.696  0.842E-06  0.842E-06
 -25.686  0.901E-06  0.901E-06
 -25.676  0.960E-06  0.960E-06
 -25.666  0.102E-05  0.102E-05
 -25.656  0.108E-05  0.108E-05
 -25.646  0.115E-05  0.115E-05
 -25.636  0.121E-05  0.121E-05
 -25.626  0.128E-05  0.128E-05
 -25.616  0.135E-05  0.135E-05
 -25.606  0.142E-05  0.142E-05
 -25.596  0.149E-05  0.149E-05
 -25.586  0.156E-05  0.156E-05
 -25.576  0.163E-05  0.163E-05
 -25.566  0.171E-05  0.171E-05
 -25.556  0.178E-05  0.178E-05
 -25.546  0.186E-05  0.186E-05
 -25.536  0.193E-05  0.193E-05
 -25.526  0.201E-05  0.201E-05
 -25.516  0.209E-05  0.209E-05
 -25.506  0.217E-05  0.217E-05
 -25.496  0.224E-05  0.224E-05
 -25.486  0.232E-05  0.232E-05
 -25.476  0.240E-05  0.240E-05
 -25.466  0.248E-05  0.248E-05
 -25.456  0.256E-05  0.256E-05
 -25.446  0.264E-05  0.264E-05
 -25.436  0.272E-05  0.272E-05
 -25.426  0.279E-05  0.279E-05
 -25.416  0.287E-05  0.287E-05
 -25.406  0.295E-05  0.295E-05
 -25.396  0.302E-05  0.302E-05
 -25.386  0.310E-05  0.310E-05
 -25.376  0.317E-05  0.317E-05
 -25.366  0.325E-05  0.325E-05
 -25.356  0.332E-05  0.332E-05
 -25.346  0.339E-05  0.339E-05
 -25.336  0.346E-05  0.346E-05
 -25.326  0.353E-05  0.353E-05
 -25.316  0.360E-05  0.360E-05
 -25.306  0.366E-05  0.366E-05
 -25.296  0.372E-05  0.372E-05
 -25.286  0.378E-05  0.378E-05
 -25.276  0.384E-05  0.384E-05
 -25.266  0.390E-05  0.390E-05
 -25.256  0.396E-05  0.396E-05
 -25.246  0.401E-05  0.401E-05
 -25.236  0.406E-05  0.406E-05
 -25.226  0.411E-05  0.411E-05
 -25.216  0.415E-05  0.415E-05
 -25.206  0.419E-05  0.419E-05
 -25.196  0.423E-05  0.423E-05
 -25.186  0.427E-05  0.427E-05
 -25.176  0.431E-05  0.431E-05
 -25.166  0.434E-05  0.434E-05
 -25.156  0.437E-05  0.437E-05
 -25.146  0.439E-05  0.439E-05
 -25.136  0.441E-05  0.441E-05
 -25.126  0.443E-05  0.443E-05
 -25.116  0.445E-05  0.445E-05
 -25.106  0.446E-05  0.446E-05
 -25.096  0.447E-05  0.447E-05
 -25.086  0.448E-05  0.448E-05
 -25.076  0.448E-05  0.448E-05
 -25.066  0.448E-05  0.448E-05
 -25.056  0.448E-05  0.448E-05
 -25.046  0.447E-05  0.447E-05
 -25.036  0.446E-05  0.446E-05
 -25.026  0.445E-05  0.445E-05
 -25.016  0.443E-05  0.443E-05
 -25.006  0.441E-05  0.441E-05
 -24.996  0.439E-05  0.439E-05
 -24.986  0.437E-05  0.437E-05
 -24.976  0.434E-05  0.434E-05
 -24.966  0.431E-05  0.431E-05
 -24.956  0.427E-05  0.427E-05
 -24.946  0.423E-05  0.423E-05
 -24.936  0.419E-05  0.419E-05
 -24.926  0.415E-05  0.415E-05
 -24.916  0.411E-05  0.411E-05
 -24.906  0.406E-05  0.406E-05
 -24.896  0.401E-05  0.401E-05
 -24.886  0.396E-05  0.396E-05
 -24.876  0.390E-05  0.390E-05
 -24.866  0.384E-05  0.384E-05
 -24.856  0.378E-05  0.378E-05
 -24.846  0.372E-05  0.372E-05
 -24.836  0.366E-05  0.366E-05
 -24.826  0.360E-05  0.360E-05
 -24.816  0.353E-05  0.353E-05
 -24.806  0.346E-05  0.346E-05
 -24.796  0.339E-05  0.339E-05
 -24.786  0.332E-05  0.332E-05
 -24.776  0.325E-05  0.325E-05
 -24.766  0.317E-05  0.317E-05
 -24.756  0.310E-05  0.310E-05
 -24.746  0.302E-05  0.302E-05
 -24.736  0.295E-05  0.295E-05
 -24.726  0.287E-05  0.287E-05
 -24.716  0.279E-05  0.279E-05
 -24.706  0.272E-05  0.272E-05
 -24.696  0.264E-05  0.264E-05
 -24.686  0.256E-05  0.256E-05
 -24.676  0.248E-05  0.248E-05
 -24.666  0.240E-05  0.240E-05
 -24.656  0.232E-05  0.232E-05
 -24.646  0.224E-05  0.224E-05
 -24.636  0.217E-05  0.217E-05
 -24.626  0.209E-05  0.209E-05
 -24.616  0.201E-05  0.201E-05
 -24.606  0.193E-05  0.193E-05
 -24.596  0.186E-05  0.186E-05
 -24.586  0.178E-05  0.178E-05
 -24.576  0.171E-05  0.171E-05
 -24.566  0.163E-05  0.163E-05
 -24.556  0.156E-05  0.156E-05
 -24.546  0.149E-05  0.149E-05
 -24.536  0.142E-05  0.142E-05
 -24.526  0.135E-05  0.135E-05
 -24.516  0.128E-05  0.128E-05
 -24.506  0.121E-05  0.121E-05
 -24.496  0.115E-05  0.115E-05
 -24.486  0.108E-05  0.108E-05
 -24.476  0.102E-05  0.102E-05
 -24.466  0.960E-06  0.960E-06
 -24.456  0.901E-06  0.901E-06
 -24.446  0.842E-06  0.842E-06
 -24.436  0.786E-06  0.786E-06
 -24.426  0.731E-06  0.731E-06
 -24.416  0.677E-06  0.677E-06
 -24.406  0.625E-06  0.625E-06
 -24.396  0.575E-06  0.575E-06
 -24.386  0.527E-06  0.527E-06
 -24.376  0.480E-06  0.480E-06
 -24.366  0.435E-06  0.435E-06
 -24.356  0.391E-06  0.391E-06
 -24.346  0.349E-06  0.349E-06
 -24.336  0.309E-06  0.309E-06
 -24.326  0.271E-06  0.271E-06
 -24.316  0.234E-06  0.234E-06
 -24.306  0.199E-06  0.199E-06
 -24.296  0.165E-06  0.165E-06
 -24.286  0.133E-06  0.133E-06
 -24.276  0.102E-06  0.102E-06
 -24.266  0.735E-07  0.735E-07
 -24.256  0.461E-07  0.461E-07
 -24.246  0.201E-07  0.201E-07
 -24.236 -0.432E-08 -0.432E-08
 -24.226 -0.273E-07 -0.273E-07
 -24.216 -0.490E-07 -0.490E-07
 -24.206 -0.692E-07 -0.692E-07
 -24.196 -0.881E-07 -0.881E-07
 -24.186 -0.106E-06 -0.106E-06
 -24.176 -0.122E-06 -0.122E-06
 -24.166 -0.137E-06 -0.137E-06
 -24.156 -0.151E-06 -0.151E-06
 -24.146 -0.164E-06 -0.164E-06
 -24.136 -0.176E-06 -0.176E-06
 -24.126 -0.186E-06 -0.186E-06
 -24.116 -0.196E-06 -0.196E-06
 -24.106 -0.205E-06 -0.205E-06
 -24.096 -0.212E-06 -0.212E-06
 -24.086 -0.219E-06 -0.219E-06
 -24.076 -0.225E-06 -0.225E-06
 -24.066 -0.230E-06 -0.230E-06
 -24.056 -0.234E-06 -0.234E-06
 -24.046 -0.238E-06 -0.238E-06
 -24.036 -0.240E-06 -0.240E-06
 -24.026 -0.243E-06 -0.243E-06
 -24.016 -0.244E-06 -0.244E-06
 -24.006 -0.245E-06 -0.245E-06
 -23.996 -0.245E-06 -0.245E-06
 -23.986 -0.245E-06 -0.245E-06
 -23.976 -0.244E-06 -0.244E-06
 -23.966 -0.243E-06 -0.243E-06
 -23.956 -0.241E-06 -0.241E-06
 -23.946 -0.239E-06 -0.239E-06
 -23.936 -0.237E-06 -0.237E-06
 -23.926 -0.234E-06 -0.234E-06
 -23.916 -0.231E-06 -0.231E-06
 -23.906 -0.228E-06 -0.228E-06
 -23.896 -0.224E-06 -0.224E-06
 -23.886 -0.220E-06 -0.220E-06
 -23.876 -0.216E-06 -0.216E-06
 -23.866 -0.212E-06 -0.212E-06
 -23.856 -0.208E-06 -0.208E-06
 -23.846 -0.203E-06 -0.203E-06
 -23.836 -0.199E-06 -0.199E-06
 -23.826 -0.194E-06 -0.194E-06
 -23.816 -0.189E-06 -0.189E-06
 -23.806 -0.184E-06 -0.184E-06
 -23.796 -0.179E-06 -0.179E-06
 -23.786 -0.174E-06 -0.174E-06
 -23.776 -0.169E-06 -0.169E-06
 -23.766 -0.164E-06 -0.164E-06
 -23.756 -0.159E-06 -0.159E-06
 -23.746 -0.154E-06 -0.154E-06
 -23.736 -0.149E-06 -0.149E-06
 -23.726 -0.144E-06 -0.144E-06
 -23.716 -0.139E-06 -0.139E-06
 -23.706 -0.135E-06 -0.135E-06
 -23.696 -0.130E-06 -0.130E-06
 -23.686 -0.125E-06 -0.125E-06
 -23.676 -0.121E-06 -0.121E-06
 -23.666 -0.116E-06 -0.116E-06
 -23.656 -0.112E-06 -0.112E-06
 -23.646 -0.107E-06 -0.107E-06
 -23.636 -0.103E-06 -0.103E-06
 -23.626 -0.988E-07 -0.988E-07
 -23.616 -0.947E-07 -0.947E-07
 -23.606 -0.907E-07 -0.907E-07
 -23.596 -0.869E-07 -0.869E-07
 -23.586 -0.831E-07 -0.831E-07
 -23.576 -0.795E-07 -0.795E-07
 -23.566 -0.759E-07 -0.759E-07
 -23.556 -0.725E-07 -0.725E-07
 -23.546 -0.692E-07 -0.692E-07
 -23.536 -0.660E-07 -0.660E-07
 -23.526 -0.629E-07 -0.629E-07
 -23.516 -0.599E-07 -0.599E-07
 -23.506 -0.570E-07 -0.570E-07
 -23.496 -0.542E-07 -0.542E-07
 -23.486 -0.515E-07 -0.515E-07
 -23.476 -0.489E-07 -0.489E-07
 -23.466 -0.465E-07 -0.465E-07
 -23.456 -0.441E-07 -0.441E-07
 -23.446 -0.418E-07 -0.418E-07
 -23.436 -0.396E-07 -0.396E-07
 -23.426 -0.375E-07 -0.375E-07
 -23.416 -0.355E-07 -0.355E-07
 -23.406 -0.336E-07 -0.336E-07
 -23.396 -0.317E-07 -0.317E-07
 -23.386 -0.300E-07 -0.300E-07
 -23.376 -0.283E-07 -0.283E-07
 -23.366 -0.267E-07 -0.267E-07
 -23.356 -0.252E-07 -0.252E-07
 -23.346 -0.238E-07 -0.238E-07
 -23.336 -0.224E-07 -0.224E-07
 -23.326 -0.211E-07 -0.211E-07
 -23.316 -0.198E-07 -0.198E-07
 -23.306 -0.186E-07 -0.186E-07
 -23.296 -0.175E-07 -0.175E-07
 -23.286 -0.165E-07 -0.165E-07
 -23.276 -0.155E-07 -0.155E-07
 -23.266 -0.145E-07 -0.145E-07
 -23.256 -0.136E-07 -0.136E-07
 -23.246 -0.127E-07 -0.127E-07
 -23.236 -0.119E-07 -0.119E-07
 -23.226 -0.112E-07 -0.112E-07
 -23.216 -0.105E-07 -0.105E-07
 -23.206 -0.978E-08 -0.978E-08
 -23.196 -0.915E-08 -0.915E-08
 -23.186 -0.854E-08 -0.854E-08
 -23.176 -0.798E-08 -0.798E-08
 -23.166 -0.745E-08 -0.745E-08
 -23.156 -0.695E-08 -0.695E-08
 -23.146 -0.648E-08 -0.648E-08
 -23.136 -0.603E-08 -0.603E-08
 -23.126 -0.562E-08 -0.562E-08
 -23.116 -0.523E-08 -0.523E-08
 -23.106 -0.487E-08 -0.487E-08
 -23.096 -0.453E-08 -0.453E-08
 -23.086 -0.421E-08 -0.421E-08
 -23.076 -0.391E-08 -0.391E-08
 -23.066 -0.363E-08 -0.363E-08
 -23.056 -0.337E-08 -0.337E-08
 -23.046 -0.312E-08 -0.312E-08
 -23.036 -0.290E-08 -0.290E-08
 -23.026 -0.268E-08 -0.268E-08
 -23.016 -0.249E-08 -0.249E-08
 -23.006 -0.230E-08 -0.230E-08
 -22.996 -0.213E-08 -0.213E-08
 -22.986 -0.197E-08 -0.197E-08
 -22.976 -0.182E-08 -0.182E-08
 -22.966 -0.168E-08 -0.168E-08
 -22.956 -0.156E-08 -0.156E-08
 -22.946 -0.144E-08 -0.144E-08
 -22.936 -0.133E-08 -0.133E-08
 -22.926 -0.123E-08 -0.123E-08
 -22.916 -0.113E-08 -0.113E-08
 -22.906 -0.105E-08 -0.105E-08
 -22.896 -0.965E-09 -0.965E-09
 -22.886 -0.891E-09 -0.891E-09
 -22.876 -0.823E-09 -0.823E-09
 -22.866 -0.761E-09 -0.761E-09
 -22.856 -0.703E-09 -0.703E-09
 -22.846 -0.651E-09 -0.651E-09
 -22.836 -0.603E-09 -0.603E-09
 -22.826 -0.559E-09 -0.559E-09
 -22.816 -0.519E-09 -0.519E-09
 -22.806 -0.483E-09 -0.483E-09
 -22.796 -0.451E-09 -0.451E-09
 -22.786 -0.422E-09 -0.422E-09
 -22.776 -0.397E-09 -0.397E-09
 -22.766 -0.374E-09 -0.374E-09
 -22.756 -0.354E-09 -0.354E-09
 -22.746 -0.337E-09 -0.337E-09
 -22.736 -0.323E-09 -0.323E-09
 -22.726 -0.312E-09 -0.312E-09
 -22.716 -0.303E-09 -0.303E-09
 -22.706 -0.296E-09 -0.296E-09
 -22.696 -0.292E-09 -0.292E-09
 -22.686 -0.290E-09 -0.290E-09
 -22.676 -0.291E-09 -0.291E-09
 -22.666 -0.294E-09 -0.294E-09
 -22.656 -0.300E-09 -0.300E-09
 -22.646 -0.308E-09 -0.308E-09
 -22.636 -0.319E-09 -0.319E-09
 -22.626 -0.332E-09 -0.332E-09
 -22.616 -0.348E-09 -0.348E-09
 -22.606 -0.367E-09 -0.367E-09
 -22.596 -0.389E-09 -0.389E-09
 -22.586 -0.414E-09 -0.414E-09
 -22.576 -0.442E-09 -0.442E-09
 -22.566 -0.473E-09 -0.473E-09
 -22.556 -0.508E-09 -0.508E-09
 -22.546 -0.546E-09 -0.546E-09
 -22.536 -0.589E-09 -0.589E-09
 -22.526 -0.636E-09 -0.636E-09
 -22.516 -0.688E-09 -0.688E-09
 -22.506 -0.744E-09 -0.744E-09
 -22.496 -0.805E-09 -0.805E-09
 -22.486 -0.872E-09 -0.872E-09
 -22.476 -0.945E-09 -0.945E-09
 -22.466 -0.102E-08 -0.102E-08
 -22.456 -0.111E-08 -0.111E-08
 -22.446 -0.120E-08 -0.120E-08
 -22.436 -0.130E-08 -0.130E-08
 -22.426 -0.141E-08 -0.141E-08
 -22.416 -0.153E-08 -0.153E-08
 -22.406 -0.166E-08 -0.166E-08
 -22.396 -0.179E-08 -0.179E-08
 -22.386 -0.194E-08 -0.194E-08
 -22.376 -0.210E-08 -0.210E-08
 -22.366 -0.227E-08 -0.227E-08
 -22.356 -0.245E-08 -0.245E-08
 -22.346 -0.265E-08 -0.265E-08
 -22.336 -0.286E-08 -0.286E-08
 -22.326 -0.309E-08 -0.309E-08
 -22.316 -0.333E-08 -0.333E-08
 -22.306 -0.360E-08 -0.360E-08
 -22.296 -0.388E-08 -0.388E-08
 -22.286 -0.418E-08 -0.418E-08
 -22.276 -0.450E-08 -0.450E-08
 -22.266 -0.484E-08 -0.484E-08
 -22.256 -0.521E-08 -0.521E-08
 -22.246 -0.560E-08 -0.560E-08
 -22.236 -0.602E-08 -0.602E-08
 -22.226 -0.646E-08 -0.646E-08
 -22.216 -0.694E-08 -0.694E-08
 -22.206 -0.744E-08 -0.744E-08
 -22.196 -0.798E-08 -0.798E-08
 -22.186 -0.855E-08 -0.855E-08
 -22.176 -0.916E-08 -0.916E-08
 -22.166 -0.981E-08 -0.981E-08
 -22.156 -0.105E-07 -0.105E-07
 -22.146 -0.112E-07 -0.112E-07
 -22.136 -0.120E-07 -0.120E-07
 -22.126 -0.128E-07 -0.128E-07
 -22.116 -0.137E-07 -0.137E-07
 -22.106 -0.146E-07 -0.146E-07
 -22.096 -0.156E-07 -0.156E-07
 -22.086 -0.166E-07 -0.166E-07
 -22.076 -0.177E-07 -0.177E-07
 -22.066 -0.189E-07 -0.189E-07
 -22.056 -0.201E-07 -0.201E-07
 -22.046 -0.213E-07 -0.213E-07
 -22.036 -0.227E-07 -0.227E-07
 -22.026 -0.241E-07 -0.241E-07
 -22.016 -0.256E-07 -0.256E-07
 -22.006 -0.272E-07 -0.272E-07
 -21.996 -0.288E-07 -0.288E-07
 -21.986 -0.306E-07 -0.306E-07
 -21.976 -0.324E-07 -0.324E-07
 -21.966 -0.343E-07 -0.343E-07
 -21.956 -0.363E-07 -0.363E-07
 -21.946 -0.384E-07 -0.384E-07
 -21.936 -0.405E-07 -0.405E-07
 -21.926 -0.428E-07 -0.428E-07
 -21.916 -0.452E-07 -0.452E-07
 -21.906 -0.477E-07 -0.477E-07
 -21.896 -0.503E-07 -0.503E-07
 -21.886 -0.530E-07 -0.530E-07
 -21.876 -0.558E-07 -0.558E-07
 -21.866 -0.587E-07 -0.587E-07
 -21.856 -0.618E-07 -0.618E-07
 -21.846 -0.649E-07 -0.649E-07
 -21.836 -0.682E-07 -0.682E-07
 -21.826 -0.716E-07 -0.716E-07
 -21.816 -0.751E-07 -0.751E-07
 -21.806 -0.788E-07 -0.788E-07
 -21.796 -0.825E-07 -0.825E-07
 -21.786 -0.864E-07 -0.864E-07
 -21.776 -0.904E-07 -0.904E-07
 -21.766 -0.945E-07 -0.945E-07
 -21.756 -0.987E-07 -0.987E-07
 -21.746 -0.103E-06 -0.103E-06
 -21.736 -0.108E-06 -0.108E-06
 -21.726 -0.112E-06 -0.112E-06
 -21.716 -0.117E-06 -0.117E-06
 -21.706 -0.122E-06 -0.122E-06
 -21.696 -0.127E-06 -0.127E-06
 -21.686 -0.132E-06 -0.132E-06
 -21.676 -0.137E-06 -0.137E-06
 -21.666 -0.142E-06 -0.142E-06
 -21.656 -0.147E-06 -0.147E-06
 -21.646 -0.153E-06 -0.153E-06
 -21.636 -0.158E-06 -0.158E-06
 -21.626 -0.163E-06 -0.163E-06
 -21.616 -0.169E-06 -0.169E-06
 -21.606 -0.175E-06 -0.175E-06
 -21.596 -0.180E-06 -0.180E-06
 -21.586 -0.186E-06 -0.186E-06
 -21.576 -0.191E-06 -0.191E-06
 -21.566 -0.197E-06 -0.197E-06
 -21.556 -0.202E-06 -0.202E-06
 -21.546 -0.208E-06 -0.208E-06
 -21.536 -0.213E-06 -0.213E-06
 -21.526 -0.219E-06 -0.219E-06
 -21.516 -0.224E-06 -0.224E-06
 -21.506 -0.229E-06 -0.229E-06
 -21.496 -0.234E-06 -0.234E-06
 -21.486 -0.239E-06 -0.239E-06
 -21.476 -0.244E-06 -0.244E-06
 -21.466 -0.248E-06 -0.248E-06
 -21.456 -0.252E-06 -0.252E-06
 -21.446 -0.256E-06 -0.256E-06
 -21.436 -0.260E-06 -0.260E-06
 -21.426 -0.263E-06 -0.263E-06
 -21.416 -0.266E-06 -0.266E-06
 -21.406 -0.268E-06 -0.268E-06
 -21.396 -0.270E-06 -0.270E-06
 -21.386 -0.272E-06 -0.272E-06
 -21.376 -0.273E-06 -0.273E-06
 -21.366 -0.274E-06 -0.274E-06
 -21.356 -0.274E-06 -0.274E-06
 -21.346 -0.273E-06 -0.273E-06
 -21.336 -0.272E-06 -0.272E-06
 -21.326 -0.270E-06 -0.270E-06
 -21.316 -0.267E-06 -0.267E-06
 -21.306 -0.264E-06 -0.264E-06
 -21.296 -0.260E-06 -0.260E-06
 -21.286 -0.255E-06 -0.255E-06
 -21.276 -0.249E-06 -0.249E-06
 -21.266 -0.242E-06 -0.242E-06
 -21.256 -0.234E-06 -0.234E-06
 -21.246 -0.225E-06 -0.225E-06
 -21.236 -0.215E-06 -0.215E-06
 -21.226 -0.204E-06 -0.204E-06
 -21.216 -0.191E-06 -0.191E-06
 -21.206 -0.178E-06 -0.178E-06
 -21.196 -0.163E-06 -0.163E-06
 -21.186 -0.147E-06 -0.147E-06
 -21.176 -0.130E-06 -0.130E-06
 -21.166 -0.111E-06 -0.111E-06
 -21.156 -0.905E-07 -0.905E-07
 -21.146 -0.689E-07 -0.689E-07
 -21.136 -0.457E-07 -0.457E-07
 -21.126 -0.210E-07 -0.210E-07
 -21.116  0.529E-08  0.529E-08
 -21.106  0.332E-07  0.332E-07
 -21.096  0.627E-07  0.627E-07
 -21.086  0.939E-07  0.939E-07
 -21.076  0.127E-06  0.127E-06
 -21.066  0.161E-06  0.161E-06
 -21.056  0.198E-06  0.198E-06
 -21.046  0.236E-06  0.236E-06
 -21.036  0.276E-06  0.276E-06
 -21.026  0.318E-06  0.318E-06
 -21.016  0.361E-06  0.361E-06
 -21.006  0.407E-06  0.407E-06
 -20.996  0.454E-06  0.454E-06
 -20.986  0.503E-06  0.503E-06
 -20.976  0.554E-06  0.554E-06
 -20.966  0.607E-06  0.607E-06
 -20.956  0.662E-06  0.662E-06
 -20.946  0.718E-06  0.718E-06
 -20.936  0.776E-06  0.776E-06
 -20.926  0.837E-06  0.837E-06
 -20.916  0.898E-06  0.898E-06
 -20.906  0.962E-06  0.962E-06
 -20.896  0.103E-05  0.103E-05
 -20.886  0.109E-05  0.109E-05
 -20.876  0.116E-05  0.116E-05
 -20.866  0.123E-05  0.123E-05
 -20.856  0.131E-05  0.131E-05
 -20.846  0.138E-05  0.138E-05
 -20.836  0.145E-05  0.145E-05
 -20.826  0.153E-05  0.153E-05
 -20.816  0.161E-05  0.161E-05
 -20.806  0.169E-05  0.169E-05
 -20.796  0.177E-05  0.177E-05
 -20.786  0.185E-05  0.185E-05
 -20.776  0.193E-05  0.193E-05
 -20.766  0.201E-05  0.201E-05
 -20.756  0.209E-05  0.209E-05
 -20.746  0.218E-05  0.218E-05
 -20.736  0.226E-05  0.226E-05
 -20.726  0.235E-05  0.235E-05
 -20.716  0.244E-05  0.244E-05
 -20.706  0.252E-05  0.252E-05
 -20.696  0.261E-05  0.261E-05
 -20.686  0.270E-05  0.270E-05
 -20.676  0.278E-05  0.278E-05
 -20.666  0.287E-05  0.287E-05
 -20.656  0.295E-05  0.295E-05
 -20.646  0.304E-05  0.304E-05
 -20.636  0.313E-05  0.313E-05
 -20.626  0.321E-05  0.321E-05
 -20.616  0.329E-05  0.329E-05
 -20.606  0.338E-05  0.338E-05
 -20.596  0.346E-05  0.346E-05
 -20.586  0.354E-05  0.354E-05
 -20.576  0.362E-05  0.362E-05
 -20.566  0.370E-05  0.370E-05
 -20.556  0.378E-05  0.378E-05
 -20.546  0.385E-05  0.385E-05
 -20.536  0.392E-05  0.392E-05
 -20.526  0.400E-05  0.400E-05
 -20.516  0.407E-05  0.407E-05
 -20.506  0.413E-05  0.413E-05
 -20.496  0.420E-05  0.420E-05
 -20.486  0.426E-05  0.426E-05
 -20.476  0.432E-05  0.432E-05
 -20.466  0.438E-05  0.438E-05
 -20.456  0.443E-05  0.443E-05
 -20.446  0.448E-05  0.448E-05
 -20.436  0.453E-05  0.453E-05
 -20.426  0.458E-05  0.458E-05
 -20.416  0.462E-05  0.462E-05
 -20.406  0.466E-05  0.466E-05
 -20.396  0.470E-05  0.470E-05
 -20.386  0.473E-05  0.473E-05
 -20.376  0.476E-05  0.476E-05
 -20.366  0.479E-05  0.479E-05
 -20.356  0.482E-05  0.482E-05
 -20.346  0.484E-05  0.484E-05
 -20.336  0.485E-05  0.485E-05
 -20.326  0.486E-05  0.486E-05
 -20.316  0.487E-05  0.487E-05
 -20.306  0.488E-05  0.488E-05
 -20.296  0.488E-05  0.488E-05
 -20.286  0.488E-05  0.488E-05
 -20.276  0.488E-05  0.488E-05
 -20.266  0.487E-05  0.487E-05
 -20.256  0.486E-05  0.486E-05
 -20.246  0.484E-05  0.484E-05
 -20.236  0.482E-05  0.482E-05
 -20.226  0.480E-05  0.480E-05
 -20.216  0.477E-05  0.477E-05
 -20.206  0.474E-05  0.474E-05
 -20.196  0.471E-05  0.471E-05
 -20.186  0.467E-05  0.467E-05
 -20.176  0.464E-05  0.464E-05
 -20.166  0.459E-05  0.459E-05
 -20.156  0.455E-05  0.455E-05
 -20.146  0.450E-05  0.450E-05
 -20.136  0.445E-05  0.445E-05
 -20.126  0.440E-05  0.440E-05
 -20.116  0.434E-05  0.434E-05
 -20.106  0.428E-05  0.428E-05
 -20.096  0.422E-05  0.422E-05
 -20.086  0.416E-05  0.416E-05
 -20.076  0.410E-05  0.410E-05
 -20.066  0.403E-05  0.403E-05
 -20.056  0.396E-05  0.396E-05
 -20.046  0.389E-05  0.389E-05
 -20.036  0.382E-05  0.382E-05
 -20.026  0.374E-05  0.374E-05
 -20.016  0.367E-05  0.367E-05
 -20.006  0.359E-05  0.359E-05
 -19.996  0.352E-05  0.352E-05
 -19.986  0.344E-05  0.344E-05
 -19.976  0.336E-05  0.336E-05
 -19.966  0.328E-05  0.328E-05
 -19.956  0.321E-05  0.321E-05
 -19.946  0.313E-05  0.313E-05
 -19.936  0.305E-05  0.305E-05
 -19.926  0.297E-05  0.297E-05
 -19.916  0.289E-05  0.289E-05
 -19.906  0.281E-05  0.281E-05
 -19.896  0.274E-05  0.274E-05
 -19.886  0.266E-05  0.266E-05
 -19.876  0.258E-05  0.258E-05
 -19.866  0.251E-05  0.251E-05
 -19.856  0.244E-05  0.244E-05
 -19.846  0.236E-05  0.236E-05
 -19.836  0.229E-05  0.229E-05
 -19.826  0.222E-05  0.222E-05
 -19.816  0.216E-05  0.216E-05
 -19.806  0.209E-05  0.209E-05
 -19.796  0.203E-05  0.203E-05
 -19.786  0.196E-05  0.196E-05
 -19.776  0.191E-05  0.191E-05
 -19.766  0.185E-05  0.185E-05
 -19.756  0.179E-05  0.179E-05
 -19.746  0.174E-05  0.174E-05
 -19.736  0.169E-05  0.169E-05
 -19.726  0.164E-05  0.164E-05
 -19.716  0.160E-05  0.160E-05
 -19.706  0.155E-05  0.155E-05
 -19.696  0.151E-05  0.151E-05
 -19.686  0.148E-05  0.148E-05
 -19.676  0.144E-05  0.144E-05
 -19.666  0.141E-05  0.141E-05
 -19.656  0.138E-05  0.138E-05
 -19.646  0.136E-05  0.136E-05
 -19.636  0.133E-05  0.133E-05
 -19.626  0.131E-05  0.131E-05
 -19.616  0.130E-05  0.130E-05
 -19.606  0.128E-05  0.128E-05
 -19.596  0.127E-05  0.127E-05
 -19.586  0.126E-05  0.126E-05
 -19.576  0.126E-05  0.126E-05
 -19.566  0.125E-05  0.125E-05
 -19.556  0.125E-05  0.125E-05
 -19.546  0.126E-05  0.126E-05
 -19.536  0.126E-05  0.126E-05
 -19.526  0.127E-05  0.127E-05
 -19.516  0.128E-05  0.128E-05
 -19.506  0.129E-05  0.129E-05
 -19.496  0.131E-05  0.131E-05
 -19.486  0.133E-05  0.133E-05
 -19.476  0.135E-05  0.135E-05
 -19.466  0.137E-05  0.137E-05
 -19.456  0.139E-05  0.139E-05
 -19.446  0.142E-05  0.142E-05
 -19.436  0.145E-05  0.145E-05
 -19.426  0.148E-05  0.148E-05
 -19.416  0.151E-05  0.151E-05
 -19.406  0.154E-05  0.154E-05
 -19.396  0.158E-05  0.158E-05
 -19.386  0.162E-05  0.162E-05
 -19.376  0.165E-05  0.165E-05
 -19.366  0.169E-05  0.169E-05
 -19.356  0.173E-05  0.173E-05
 -19.346  0.177E-05  0.177E-05
 -19.336  0.181E-05  0.181E-05
 -19.326  0.185E-05  0.185E-05
 -19.316  0.190E-05  0.190E-05
 -19.306  0.194E-05  0.194E-05
 -19.296  0.198E-05  0.198E-05
 -19.286  0.203E-05  0.203E-05
 -19.276  0.207E-05  0.207E-05
 -19.266  0.211E-05  0.211E-05
 -19.256  0.216E-05  0.216E-05
 -19.246  0.220E-05  0.220E-05
 -19.236  0.224E-05  0.224E-05
 -19.226  0.228E-05  0.228E-05
 -19.216  0.232E-05  0.232E-05
 -19.206  0.236E-05  0.236E-05
 -19.196  0.240E-05  0.240E-05
 -19.186  0.244E-05  0.244E-05
 -19.176  0.248E-05  0.248E-05
 -19.166  0.252E-05  0.252E-05
 -19.156  0.255E-05  0.255E-05
 -19.146  0.258E-05  0.258E-05
 -19.136  0.262E-05  0.262E-05
 -19.126  0.265E-05  0.265E-05
 -19.116  0.268E-05  0.268E-05
 -19.106  0.270E-05  0.270E-05
 -19.096  0.273E-05  0.273E-05
 -19.086  0.275E-05  0.275E-05
 -19.076  0.277E-05  0.277E-05
 -19.066  0.279E-05  0.279E-05
 -19.056  0.281E-05  0.281E-05
 -19.046  0.283E-05  0.283E-05
 -19.036  0.284E-05  0.284E-05
 -19.026  0.285E-05  0.285E-05
 -19.016  0.286E-05  0.286E-05
 -19.006  0.287E-05  0.287E-05
 -18.996  0.287E-05  0.287E-05
 -18.986  0.288E-05  0.288E-05
 -18.976  0.288E-05  0.288E-05
 -18.966  0.288E-05  0.288E-05
 -18.956  0.287E-05  0.287E-05
 -18.946  0.287E-05  0.287E-05
 -18.936  0.286E-05  0.286E-05
 -18.926  0.285E-05  0.285E-05
 -18.916  0.284E-05  0.284E-05
 -18.906  0.282E-05  0.282E-05
 -18.896  0.280E-05  0.280E-05
 -18.886  0.279E-05  0.279E-05
 -18.876  0.276E-05  0.276E-05
 -18.866  0.274E-05  0.274E-05
 -18.856  0.272E-05  0.272E-05
 -18.846  0.269E-05  0.269E-05
 -18.836  0.266E-05  0.266E-05
 -18.826  0.263E-05  0.263E-05
 -18.816  0.260E-05  0.260E-05
 -18.806  0.256E-05  0.256E-05
 -18.796  0.253E-05  0.253E-05
 -18.786  0.249E-05  0.249E-05
 -18.776  0.245E-05  0.245E-05
 -18.766  0.241E-05  0.241E-05
 -18.756  0.237E-05  0.237E-05
 -18.746  0.233E-05  0.233E-05
 -18.736  0.228E-05  0.228E-05
 -18.726  0.224E-05  0.224E-05
 -18.716  0.219E-05  0.219E-05
 -18.706  0.214E-05  0.214E-05
 -18.696  0.209E-05  0.209E-05
 -18.686  0.204E-05  0.204E-05
 -18.676  0.199E-05  0.199E-05
 -18.666  0.194E-05  0.194E-05
 -18.656  0.189E-05  0.189E-05
 -18.646  0.184E-05  0.184E-05
 -18.636  0.179E-05  0.179E-05
 -18.626  0.173E-05  0.173E-05
 -18.616  0.168E-05  0.168E-05
 -18.606  0.163E-05  0.163E-05
 -18.596  0.157E-05  0.157E-05
 -18.586  0.152E-05  0.152E-05
 -18.576  0.147E-05  0.147E-05
 -18.566  0.141E-05  0.141E-05
 -18.556  0.136E-05  0.136E-05
 -18.546  0.130E-05  0.130E-05
 -18.536  0.125E-05  0.125E-05
 -18.526  0.120E-05  0.120E-05
 -18.516  0.115E-05  0.115E-05
 -18.506  0.109E-05  0.109E-05
 -18.496  0.104E-05  0.104E-05
 -18.486  0.989E-06  0.989E-06
 -18.476  0.938E-06  0.938E-06
 -18.466  0.888E-06  0.888E-06
 -18.456  0.838E-06  0.838E-06
 -18.446  0.789E-06  0.789E-06
 -18.436  0.741E-06  0.741E-06
 -18.426  0.693E-06  0.693E-06
 -18.416  0.646E-06  0.646E-06
 -18.406  0.600E-06  0.600E-06
 -18.396  0.555E-06  0.555E-06
 -18.386  0.510E-06  0.510E-06
 -18.376  0.467E-06  0.467E-06
 -18.366  0.424E-06  0.424E-06
 -18.356  0.382E-06  0.382E-06
 -18.346  0.342E-06  0.342E-06
 -18.336  0.302E-06  0.302E-06
 -18.326  0.263E-06  0.263E-06
 -18.316  0.225E-06  0.225E-06
 -18.306  0.188E-06  0.188E-06
 -18.296  0.152E-06  0.152E-06
 -18.286  0.117E-06  0.117E-06
 -18.276  0.836E-07  0.836E-07
 -18.266  0.507E-07  0.507E-07
 -18.256  0.188E-07  0.188E-07
 -18.246 -0.120E-07 -0.120E-07
 -18.236 -0.419E-07 -0.419E-07
 -18.226 -0.708E-07 -0.708E-07
 -18.216 -0.986E-07 -0.986E-07
 -18.206 -0.125E-06 -0.125E-06
 -18.196 -0.151E-06 -0.151E-06
 -18.186 -0.176E-06 -0.176E-06
 -18.176 -0.200E-06 -0.200E-06
 -18.166 -0.223E-06 -0.223E-06
 -18.156 -0.245E-06 -0.245E-06
 -18.146 -0.266E-06 -0.266E-06
 -18.136 -0.286E-06 -0.286E-06
 -18.126 -0.305E-06 -0.305E-06
 -18.116 -0.323E-06 -0.323E-06
 -18.106 -0.340E-06 -0.340E-06
 -18.096 -0.356E-06 -0.356E-06
 -18.086 -0.372E-06 -0.372E-06
 -18.076 -0.386E-06 -0.386E-06
 -18.066 -0.399E-06 -0.399E-06
 -18.056 -0.412E-06 -0.412E-06
 -18.046 -0.423E-06 -0.423E-06
 -18.036 -0.433E-06 -0.433E-06
 -18.026 -0.443E-06 -0.443E-06
 -18.016 -0.451E-06 -0.451E-06
 -18.006 -0.459E-06 -0.459E-06
 -17.996 -0.466E-06 -0.466E-06
 -17.986 -0.471E-06 -0.471E-06
 -17.976 -0.476E-06 -0.476E-06
 -17.966 -0.479E-06 -0.479E-06
 -17.956 -0.482E-06 -0.482E-06
 -17.946 -0.483E-06 -0.483E-06
 -17.936 -0.484E-06 -0.484E-06
 -17.926 -0.483E-06 -0.483E-06
 -17.916 -0.481E-06 -0.481E-06
 -17.906 -0.479E-06 -0.479E-06
 -17.896 -0.474E-06 -0.474E-06
 -17.886 -0.469E-06 -0.469E-06
 -17.876 -0.463E-06 -0.463E-06
 -17.866 -0.455E-06 -0.455E-06
 -17.856 -0.446E-06 -0.446E-06
 -17.846 -0.436E-06 -0.436E-06
 -17.836 -0.425E-06 -0.425E-06
 -17.826 -0.412E-06 -0.412E-06
 -17.816 -0.398E-06 -0.398E-06
 -17.806 -0.382E-06 -0.382E-06
 -17.796 -0.365E-06 -0.365E-06
 -17.786 -0.347E-06 -0.347E-06
 -17.776 -0.326E-06 -0.326E-06
 -17.766 -0.305E-06 -0.305E-06
 -17.756 -0.282E-06 -0.282E-06
 -17.746 -0.257E-06 -0.257E-06
 -17.736 -0.231E-06 -0.231E-06
 -17.726 -0.202E-06 -0.202E-06
 -17.716 -0.173E-06 -0.173E-06
 -17.706 -0.141E-06 -0.141E-06
 -17.696 -0.108E-06 -0.108E-06
 -17.686 -0.728E-07 -0.728E-07
 -17.676 -0.358E-07 -0.358E-07
 -17.666  0.293E-08  0.293E-08
 -17.656  0.436E-07  0.436E-07
 -17.646  0.861E-07  0.861E-07
 -17.636  0.131E-06  0.131E-06
 -17.626  0.177E-06  0.177E-06
 -17.616  0.225E-06  0.225E-06
 -17.606  0.276E-06  0.276E-06
 -17.596  0.328E-06  0.328E-06
 -17.586  0.382E-06  0.382E-06
 -17.576  0.439E-06  0.439E-06
 -17.566  0.497E-06  0.497E-06
 -17.556  0.557E-06  0.557E-06
 -17.546  0.619E-06  0.619E-06
 -17.536  0.683E-06  0.683E-06
 -17.526  0.749E-06  0.749E-06
 -17.516  0.818E-06  0.818E-06
 -17.506  0.887E-06  0.887E-06
 -17.496  0.959E-06  0.959E-06
 -17.486  0.103E-05  0.103E-05
 -17.476  0.111E-05  0.111E-05
 -17.466  0.119E-05  0.119E-05
 -17.456  0.126E-05  0.126E-05
 -17.446  0.135E-05  0.135E-05
 -17.436  0.143E-05  0.143E-05
 -17.426  0.151E-05  0.151E-05
 -17.416  0.160E-05  0.160E-05
 -17.406  0.168E-05  0.168E-05
 -17.396  0.177E-05  0.177E-05
 -17.386  0.186E-05  0.186E-05
 -17.376  0.195E-05  0.195E-05
 -17.366  0.205E-05  0.205E-05
 -17.356  0.214E-05  0.214E-05
 -17.346  0.223E-05  0.223E-05
 -17.336  0.233E-05  0.233E-05
 -17.326  0.242E-05  0.242E-05
 -17.316  0.252E-05  0.252E-05
 -17.306  0.262E-05  0.262E-05
 -17.296  0.272E-05  0.272E-05
 -17.286  0.281E-05  0.281E-05
 -17.276  0.291E-05  0.291E-05
 -17.266  0.301E-05  0.301E-05
 -17.256  0.311E-05  0.311E-05
 -17.246  0.321E-05  0.321E-05
 -17.236  0.331E-05  0.331E-05
 -17.226  0.340E-05  0.340E-05
 -17.216  0.350E-05  0.350E-05
 -17.206  0.360E-05  0.360E-05
 -17.196  0.369E-05  0.369E-05
 -17.186  0.379E-05  0.379E-05
 -17.176  0.388E-05  0.388E-05
 -17.166  0.398E-05  0.398E-05
 -17.156  0.407E-05  0.407E-05
 -17.146  0.416E-05  0.416E-05
 -17.136  0.425E-05  0.425E-05
 -17.126  0.434E-05  0.434E-05
 -17.116  0.442E-05  0.442E-05
 -17.106  0.451E-05  0.451E-05
 -17.096  0.459E-05  0.459E-05
 -17.086  0.467E-05  0.467E-05
 -17.076  0.475E-05  0.475E-05
 -17.066  0.483E-05  0.483E-05
 -17.056  0.490E-05  0.490E-05
 -17.046  0.497E-05  0.497E-05
 -17.036  0.504E-05  0.504E-05
 -17.026  0.511E-05  0.511E-05
 -17.016  0.517E-05  0.517E-05
 -17.006  0.523E-05  0.523E-05
 -16.996  0.529E-05  0.529E-05
 -16.986  0.534E-05  0.534E-05
 -16.976  0.540E-05  0.540E-05
 -16.966  0.545E-05  0.545E-05
 -16.956  0.549E-05  0.549E-05
 -16.946  0.554E-05  0.554E-05
 -16.936  0.558E-05  0.558E-05
 -16.926  0.561E-05  0.561E-05
 -16.916  0.565E-05  0.565E-05
 -16.906  0.568E-05  0.568E-05
 -16.896  0.571E-05  0.571E-05
 -16.886  0.573E-05  0.573E-05
 -16.876  0.575E-05  0.575E-05
 -16.866  0.577E-05  0.577E-05
 -16.856  0.578E-05  0.578E-05
 -16.846  0.579E-05  0.579E-05
 -16.836  0.580E-05  0.580E-05
 -16.826  0.581E-05  0.581E-05
 -16.816  0.581E-05  0.581E-05
 -16.806  0.581E-05  0.581E-05
 -16.796  0.580E-05  0.580E-05
 -16.786  0.580E-05  0.580E-05
 -16.776  0.579E-05  0.579E-05
 -16.766  0.577E-05  0.577E-05
 -16.756  0.576E-05  0.576E-05
 -16.746  0.574E-05  0.574E-05
 -16.736  0.572E-05  0.572E-05
 -16.726  0.570E-05  0.570E-05
 -16.716  0.567E-05  0.567E-05
 -16.706  0.564E-05  0.564E-05
 -16.696  0.561E-05  0.561E-05
 -16.686  0.558E-05  0.558E-05
 -16.676  0.554E-05  0.554E-05
 -16.666  0.551E-05  0.551E-05
 -16.656  0.547E-05  0.547E-05
 -16.646  0.543E-05  0.543E-05
 -16.636  0.539E-05  0.539E-05
 -16.626  0.534E-05  0.534E-05
 -16.616  0.530E-05  0.530E-05
 -16.606  0.525E-05  0.525E-05
 -16.596  0.520E-05  0.520E-05
 -16.586  0.515E-05  0.515E-05
 -16.576  0.510E-05  0.510E-05
 -16.566  0.505E-05  0.505E-05
 -16.556  0.500E-05  0.500E-05
 -16.546  0.495E-05  0.495E-05
 -16.536  0.489E-05  0.489E-05
 -16.526  0.484E-05  0.484E-05
 -16.516  0.478E-05  0.478E-05
 -16.506  0.473E-05  0.473E-05
 -16.496  0.467E-05  0.467E-05
 -16.486  0.461E-05  0.461E-05
 -16.476  0.456E-05  0.456E-05
 -16.466  0.450E-05  0.450E-05
 -16.456  0.444E-05  0.444E-05
 -16.446  0.439E-05  0.439E-05
 -16.436  0.433E-05  0.433E-05
 -16.426  0.427E-05  0.427E-05
 -16.416  0.422E-05  0.422E-05
 -16.406  0.416E-05  0.416E-05
 -16.396  0.411E-05  0.411E-05
 -16.386  0.405E-05  0.405E-05
 -16.376  0.399E-05  0.399E-05
 -16.366  0.394E-05  0.394E-05
 -16.356  0.389E-05  0.389E-05
 -16.346  0.383E-05  0.383E-05
 -16.336  0.378E-05  0.378E-05
 -16.326  0.372E-05  0.372E-05
 -16.316  0.367E-05  0.367E-05
 -16.306  0.362E-05  0.362E-05
 -16.296  0.357E-05  0.357E-05
 -16.286  0.352E-05  0.352E-05
 -16.276  0.347E-05  0.347E-05
 -16.266  0.342E-05  0.342E-05
 -16.256  0.337E-05  0.337E-05
 -16.246  0.332E-05  0.332E-05
 -16.236  0.327E-05  0.327E-05
 -16.226  0.323E-05  0.323E-05
 -16.216  0.318E-05  0.318E-05
 -16.206  0.313E-05  0.313E-05
 -16.196  0.309E-05  0.309E-05
 -16.186  0.304E-05  0.304E-05
 -16.176  0.300E-05  0.300E-05
 -16.166  0.295E-05  0.295E-05
 -16.156  0.291E-05  0.291E-05
 -16.146  0.286E-05  0.286E-05
 -16.136  0.282E-05  0.282E-05
 -16.126  0.278E-05  0.278E-05
 -16.116  0.273E-05  0.273E-05
 -16.106  0.269E-05  0.269E-05
 -16.096  0.265E-05  0.265E-05
 -16.086  0.261E-05  0.261E-05
 -16.076  0.256E-05  0.256E-05
 -16.066  0.252E-05  0.252E-05
 -16.056  0.248E-05  0.248E-05
 -16.046  0.244E-05  0.244E-05
 -16.036  0.240E-05  0.240E-05
 -16.026  0.236E-05  0.236E-05
 -16.016  0.232E-05  0.232E-05
 -16.006  0.228E-05  0.228E-05
 -15.996  0.224E-05  0.224E-05
 -15.986  0.220E-05  0.220E-05
 -15.976  0.215E-05  0.215E-05
 -15.966  0.211E-05  0.211E-05
 -15.956  0.207E-05  0.207E-05
 -15.946  0.203E-05  0.203E-05
 -15.936  0.199E-05  0.199E-05
 -15.926  0.195E-05  0.195E-05
 -15.916  0.191E-05  0.191E-05
 -15.906  0.187E-05  0.187E-05
 -15.896  0.183E-05  0.183E-05
 -15.886  0.179E-05  0.179E-05
 -15.876  0.175E-05  0.175E-05
 -15.866  0.171E-05  0.171E-05
 -15.856  0.166E-05  0.166E-05
 -15.846  0.162E-05  0.162E-05
 -15.836  0.158E-05  0.158E-05
 -15.826  0.154E-05  0.154E-05
 -15.816  0.150E-05  0.150E-05
 -15.806  0.146E-05  0.146E-05
 -15.796  0.142E-05  0.142E-05
 -15.786  0.138E-05  0.138E-05
 -15.776  0.134E-05  0.134E-05
 -15.766  0.130E-05  0.130E-05
 -15.756  0.126E-05  0.126E-05
 -15.746  0.122E-05  0.122E-05
 -15.736  0.118E-05  0.118E-05
 -15.726  0.114E-05  0.114E-05
 -15.716  0.110E-05  0.110E-05
 -15.706  0.106E-05  0.106E-05
 -15.696  0.102E-05  0.102E-05
 -15.686  0.983E-06  0.983E-06
 -15.676  0.945E-06  0.945E-06
 -15.666  0.907E-06  0.907E-06
 -15.656  0.870E-06  0.870E-06
 -15.646  0.833E-06  0.833E-06
 -15.636  0.796E-06  0.796E-06
 -15.626  0.760E-06  0.760E-06
 -15.616  0.724E-06  0.724E-06
 -15.606  0.689E-06  0.689E-06
 -15.596  0.654E-06  0.654E-06
 -15.586  0.620E-06  0.620E-06
 -15.576  0.586E-06  0.586E-06
 -15.566  0.553E-06  0.553E-06
 -15.556  0.520E-06  0.520E-06
 -15.546  0.488E-06  0.488E-06
 -15.536  0.457E-06  0.457E-06
 -15.526  0.426E-06  0.426E-06
 -15.516  0.396E-06  0.396E-06
 -15.506  0.366E-06  0.366E-06
 -15.496  0.337E-06  0.337E-06
 -15.486  0.309E-06  0.309E-06
 -15.476  0.281E-06  0.281E-06
 -15.466  0.254E-06  0.254E-06
 -15.456  0.228E-06  0.228E-06
 -15.446  0.202E-06  0.202E-06
 -15.436  0.177E-06  0.177E-06
 -15.426  0.152E-06  0.152E-06
 -15.416  0.129E-06  0.129E-06
 -15.406  0.105E-06  0.105E-06
 -15.396  0.830E-07  0.830E-07
 -15.386  0.611E-07  0.611E-07
 -15.376  0.399E-07  0.399E-07
 -15.366  0.193E-07  0.193E-07
 -15.356 -0.765E-09 -0.765E-09
 -15.346 -0.202E-07 -0.202E-07
 -15.336 -0.391E-07 -0.391E-07
 -15.326 -0.574E-07 -0.574E-07
 -15.316 -0.752E-07 -0.752E-07
 -15.306 -0.925E-07 -0.925E-07
 -15.296 -0.109E-06 -0.109E-06
 -15.286 -0.126E-06 -0.126E-06
 -15.276 -0.141E-06 -0.141E-06
 -15.266 -0.157E-06 -0.157E-06
 -15.256 -0.172E-06 -0.172E-06
 -15.246 -0.187E-06 -0.187E-06
 -15.236 -0.201E-06 -0.201E-06
 -15.226 -0.215E-06 -0.215E-06
 -15.216 -0.228E-06 -0.228E-06
 -15.206 -0.242E-06 -0.242E-06
 -15.196 -0.255E-06 -0.255E-06
 -15.186 -0.268E-06 -0.268E-06
 -15.176 -0.280E-06 -0.280E-06
 -15.166 -0.293E-06 -0.293E-06
 -15.156 -0.305E-06 -0.305E-06
 -15.146 -0.317E-06 -0.317E-06
 -15.136 -0.329E-06 -0.329E-06
 -15.126 -0.341E-06 -0.341E-06
 -15.116 -0.353E-06 -0.353E-06
 -15.106 -0.365E-06 -0.365E-06
 -15.096 -0.377E-06 -0.377E-06
 -15.086 -0.389E-06 -0.389E-06
 -15.076 -0.401E-06 -0.401E-06
 -15.066 -0.413E-06 -0.413E-06
 -15.056 -0.425E-06 -0.425E-06
 -15.046 -0.438E-06 -0.438E-06
 -15.036 -0.450E-06 -0.450E-06
 -15.026 -0.463E-06 -0.463E-06
 -15.016 -0.476E-06 -0.476E-06
 -15.006 -0.489E-06 -0.489E-06
 -14.996 -0.502E-06 -0.502E-06
 -14.986 -0.515E-06 -0.515E-06
 -14.976 -0.529E-06 -0.529E-06
 -14.966 -0.543E-06 -0.543E-06
 -14.956 -0.557E-06 -0.557E-06
 -14.946 -0.571E-06 -0.571E-06
 -14.936 -0.586E-06 -0.586E-06
 -14.926 -0.601E-06 -0.601E-06
 -14.916 -0.616E-06 -0.616E-06
 -14.906 -0.632E-06 -0.632E-06
 -14.896 -0.648E-06 -0.648E-06
 -14.886 -0.664E-06 -0.664E-06
 -14.876 -0.680E-06 -0.680E-06
 -14.866 -0.697E-06 -0.697E-06
 -14.856 -0.713E-06 -0.713E-06
 -14.846 -0.730E-06 -0.730E-06
 -14.836 -0.747E-06 -0.747E-06
 -14.826 -0.765E-06 -0.765E-06
 -14.816 -0.782E-06 -0.782E-06
 -14.806 -0.800E-06 -0.800E-06
 -14.796 -0.817E-06 -0.817E-06
 -14.786 -0.835E-06 -0.835E-06
 -14.776 -0.852E-06 -0.852E-06
 -14.766 -0.870E-06 -0.870E-06
 -14.756 -0.887E-06 -0.887E-06
 -14.746 -0.905E-06 -0.905E-06
 -14.736 -0.922E-06 -0.922E-06
 -14.726 -0.939E-06 -0.939E-06
 -14.716 -0.955E-06 -0.955E-06
 -14.706 -0.971E-06 -0.971E-06
 -14.696 -0.987E-06 -0.987E-06
 -14.686 -0.100E-05 -0.100E-05
 -14.676 -0.102E-05 -0.102E-05
 -14.666 -0.103E-05 -0.103E-05
 -14.656 -0.104E-05 -0.104E-05
 -14.646 -0.105E-05 -0.105E-05
 -14.636 -0.107E-05 -0.107E-05
 -14.626 -0.108E-05 -0.108E-05
 -14.616 -0.108E-05 -0.108E-05
 -14.606 -0.109E-05 -0.109E-05
 -14.596 -0.110E-05 -0.110E-05
 -14.586 -0.110E-05 -0.110E-05
 -14.576 -0.110E-05 -0.110E-05
 -14.566 -0.110E-05 -0.110E-05
 -14.556 -0.110E-05 -0.110E-05
 -14.546 -0.110E-05 -0.110E-05
 -14.536 -0.109E-05 -0.109E-05
 -14.526 -0.109E-05 -0.109E-05
 -14.516 -0.108E-05 -0.108E-05
 -14.506 -0.106E-05 -0.106E-05
 -14.496 -0.105E-05 -0.105E-05
 -14.486 -0.103E-05 -0.103E-05
 -14.476 -0.101E-05 -0.101E-05
 -14.466 -0.980E-06 -0.980E-06
 -14.456 -0.951E-06 -0.951E-06
 -14.446 -0.918E-06 -0.918E-06
 -14.436 -0.881E-06 -0.881E-06
 -14.426 -0.840E-06 -0.840E-06
 -14.416 -0.795E-06 -0.795E-06
 -14.406 -0.746E-06 -0.746E-06
 -14.396 -0.692E-06 -0.692E-06
 -14.386 -0.633E-06 -0.633E-06
 -14.376 -0.569E-06 -0.569E-06
 -14.366 -0.500E-06 -0.500E-06
 -14.356 -0.426E-06 -0.426E-06
 -14.346 -0.347E-06 -0.347E-06
 -14.336 -0.261E-06 -0.261E-06
 -14.326 -0.170E-06 -0.170E-06
 -14.316 -0.732E-07 -0.732E-07
 -14.306  0.301E-07  0.301E-07
 -14.296  0.140E-06  0.140E-06
 -14.286  0.256E-06  0.256E-06
 -14.276  0.379E-06  0.379E-06
 -14.266  0.509E-06  0.509E-06
 -14.256  0.645E-06  0.645E-06
 -14.246  0.789E-06  0.789E-06
 -14.236  0.940E-06  0.940E-06
 -14.226  0.110E-05  0.110E-05
 -14.216  0.126E-05  0.126E-05
 -14.206  0.144E-05  0.144E-05
 -14.196  0.162E-05  0.162E-05
 -14.186  0.181E-05  0.181E-05
 -14.176  0.200E-05  0.200E-05
 -14.166  0.221E-05  0.221E-05
 -14.156  0.242E-05  0.242E-05
 -14.146  0.264E-05  0.264E-05
 -14.136  0.287E-05  0.287E-05
 -14.126  0.311E-05  0.311E-05
 -14.116  0.335E-05  0.335E-05
 -14.106  0.361E-05  0.361E-05
 -14.096  0.387E-05  0.387E-05
 -14.086  0.414E-05  0.414E-05
 -14.076  0.442E-05  0.442E-05
 -14.066  0.470E-05  0.470E-05
 -14.056  0.500E-05  0.500E-05
 -14.046  0.530E-05  0.530E-05
 -14.036  0.561E-05  0.561E-05
 -14.026  0.592E-05  0.592E-05
 -14.016  0.625E-05  0.625E-05
 -14.006  0.658E-05  0.658E-05
 -13.996  0.691E-05  0.691E-05
 -13.986  0.726E-05  0.726E-05
 -13.976  0.761E-05  0.761E-05
 -13.966  0.797E-05  0.797E-05
 -13.956  0.833E-05  0.833E-05
 -13.946  0.870E-05  0.870E-05
 -13.936  0.908E-05  0.908E-05
 -13.926  0.946E-05  0.946E-05
 -13.916  0.984E-05  0.984E-05
 -13.906  0.102E-04  0.102E-04
 -13.896  0.106E-04  0.106E-04
 -13.886  0.110E-04  0.110E-04
 -13.876  0.114E-04  0.114E-04
 -13.866  0.118E-04  0.118E-04
 -13.856  0.122E-04  0.122E-04
 -13.846  0.126E-04  0.126E-04
 -13.836  0.131E-04  0.131E-04
 -13.826  0.135E-04  0.135E-04
 -13.816  0.139E-04  0.139E-04
 -13.806  0.143E-04  0.143E-04
 -13.796  0.147E-04  0.147E-04
 -13.786  0.151E-04  0.151E-04
 -13.776  0.155E-04  0.155E-04
 -13.766  0.160E-04  0.160E-04
 -13.756  0.164E-04  0.164E-04
 -13.746  0.168E-04  0.168E-04
 -13.736  0.172E-04  0.172E-04
 -13.726  0.176E-04  0.176E-04
 -13.716  0.180E-04  0.180E-04
 -13.706  0.183E-04  0.183E-04
 -13.696  0.187E-04  0.187E-04
 -13.686  0.191E-04  0.191E-04
 -13.676  0.195E-04  0.195E-04
 -13.666  0.198E-04  0.198E-04
 -13.656  0.202E-04  0.202E-04
 -13.646  0.206E-04  0.206E-04
 -13.636  0.209E-04  0.209E-04
 -13.626  0.212E-04  0.212E-04
 -13.616  0.215E-04  0.215E-04
 -13.606  0.219E-04  0.219E-04
 -13.596  0.222E-04  0.222E-04
 -13.586  0.224E-04  0.224E-04
 -13.576  0.227E-04  0.227E-04
 -13.566  0.230E-04  0.230E-04
 -13.556  0.232E-04  0.232E-04
 -13.546  0.235E-04  0.235E-04
 -13.536  0.237E-04  0.237E-04
 -13.526  0.239E-04  0.239E-04
 -13.516  0.241E-04  0.241E-04
 -13.506  0.243E-04  0.243E-04
 -13.496  0.245E-04  0.245E-04
 -13.486  0.246E-04  0.246E-04
 -13.476  0.248E-04  0.248E-04
 -13.466  0.249E-04  0.249E-04
 -13.456  0.250E-04  0.250E-04
 -13.446  0.251E-04  0.251E-04
 -13.436  0.252E-04  0.252E-04
 -13.426  0.252E-04  0.252E-04
 -13.416  0.253E-04  0.253E-04
 -13.406  0.253E-04  0.253E-04
 -13.396  0.253E-04  0.253E-04
 -13.386  0.253E-04  0.253E-04
 -13.376  0.253E-04  0.253E-04
 -13.366  0.253E-04  0.253E-04
 -13.356  0.252E-04  0.252E-04
 -13.346  0.252E-04  0.252E-04
 -13.336  0.251E-04  0.251E-04
 -13.326  0.250E-04  0.250E-04
 -13.316  0.249E-04  0.249E-04
 -13.306  0.247E-04  0.247E-04
 -13.296  0.246E-04  0.246E-04
 -13.286  0.244E-04  0.244E-04
 -13.276  0.243E-04  0.243E-04
 -13.266  0.241E-04  0.241E-04
 -13.256  0.239E-04  0.239E-04
 -13.246  0.237E-04  0.237E-04
 -13.236  0.234E-04  0.234E-04
 -13.226  0.232E-04  0.232E-04
 -13.216  0.229E-04  0.229E-04
 -13.206  0.227E-04  0.227E-04
 -13.196  0.224E-04  0.224E-04
 -13.186  0.221E-04  0.221E-04
 -13.176  0.218E-04  0.218E-04
 -13.166  0.215E-04  0.215E-04
 -13.156  0.211E-04  0.211E-04
 -13.146  0.208E-04  0.208E-04
 -13.136  0.205E-04  0.205E-04
 -13.126  0.201E-04  0.201E-04
 -13.116  0.198E-04  0.198E-04
 -13.106  0.194E-04  0.194E-04
 -13.096  0.190E-04  0.190E-04
 -13.086  0.186E-04  0.186E-04
 -13.076  0.183E-04  0.183E-04
 -13.066  0.179E-04  0.179E-04
 -13.056  0.175E-04  0.175E-04
 -13.046  0.171E-04  0.171E-04
 -13.036  0.167E-04  0.167E-04
 -13.026  0.162E-04  0.162E-04
 -13.016  0.158E-04  0.158E-04
 -13.006  0.154E-04  0.154E-04
 -12.996  0.150E-04  0.150E-04
 -12.986  0.146E-04  0.146E-04
 -12.976  0.142E-04  0.142E-04
 -12.966  0.137E-04  0.137E-04
 -12.956  0.133E-04  0.133E-04
 -12.946  0.129E-04  0.129E-04
 -12.936  0.125E-04  0.125E-04
 -12.926  0.121E-04  0.121E-04
 -12.916  0.117E-04  0.117E-04
 -12.906  0.112E-04  0.112E-04
 -12.896  0.108E-04  0.108E-04
 -12.886  0.104E-04  0.104E-04
 -12.876  0.100E-04  0.100E-04
 -12.866  0.961E-05  0.961E-05
 -12.856  0.921E-05  0.921E-05
 -12.846  0.882E-05  0.882E-05
 -12.836  0.843E-05  0.843E-05
 -12.826  0.804E-05  0.804E-05
 -12.816  0.766E-05  0.766E-05
 -12.806  0.729E-05  0.729E-05
 -12.796  0.692E-05  0.692E-05
 -12.786  0.656E-05  0.656E-05
 -12.776  0.620E-05  0.620E-05
 -12.766  0.584E-05  0.584E-05
 -12.756  0.550E-05  0.550E-05
 -12.746  0.516E-05  0.516E-05
 -12.736  0.483E-05  0.483E-05
 -12.726  0.450E-05  0.450E-05
 -12.716  0.418E-05  0.418E-05
 -12.706  0.386E-05  0.386E-05
 -12.696  0.356E-05  0.356E-05
 -12.686  0.326E-05  0.326E-05
 -12.676  0.296E-05  0.296E-05
 -12.666  0.267E-05  0.267E-05
 -12.656  0.239E-05  0.239E-05
 -12.646  0.212E-05  0.212E-05
 -12.636  0.185E-05  0.185E-05
 -12.626  0.160E-05  0.160E-05
 -12.616  0.134E-05  0.134E-05
 -12.606  0.110E-05  0.110E-05
 -12.596  0.856E-06  0.856E-06
 -12.586  0.623E-06  0.623E-06
 -12.576  0.397E-06  0.397E-06
 -12.566  0.177E-06  0.177E-06
 -12.556 -0.358E-07 -0.358E-07
 -12.546 -0.243E-06 -0.243E-06
 -12.536 -0.443E-06 -0.443E-06
 -12.526 -0.637E-06 -0.637E-06
 -12.516 -0.825E-06 -0.825E-06
 -12.506 -0.101E-05 -0.101E-05
 -12.496 -0.118E-05 -0.118E-05
 -12.486 -0.135E-05 -0.135E-05
 -12.476 -0.151E-05 -0.151E-05
 -12.466 -0.167E-05 -0.167E-05
 -12.456 -0.182E-05 -0.182E-05
 -12.446 -0.197E-05 -0.197E-05
 -12.436 -0.211E-05 -0.211E-05
 -12.426 -0.224E-05 -0.224E-05
 -12.416 -0.237E-05 -0.237E-05
 -12.406 -0.249E-05 -0.249E-05
 -12.396 -0.261E-05 -0.261E-05
 -12.386 -0.272E-05 -0.272E-05
 -12.376 -0.282E-05 -0.282E-05
 -12.366 -0.292E-05 -0.292E-05
 -12.356 -0.301E-05 -0.301E-05
 -12.346 -0.310E-05 -0.310E-05
 -12.336 -0.318E-05 -0.318E-05
 -12.326 -0.325E-05 -0.325E-05
 -12.316 -0.332E-05 -0.332E-05
 -12.306 -0.338E-05 -0.338E-05
 -12.296 -0.343E-05 -0.343E-05
 -12.286 -0.348E-05 -0.348E-05
 -12.276 -0.352E-05 -0.352E-05
 -12.266 -0.355E-05 -0.355E-05
 -12.256 -0.358E-05 -0.358E-05
 -12.246 -0.360E-05 -0.360E-05
 -12.236 -0.361E-05 -0.361E-05
 -12.226 -0.361E-05 -0.361E-05
 -12.216 -0.361E-05 -0.361E-05
 -12.206 -0.360E-05 -0.360E-05
 -12.196 -0.358E-05 -0.358E-05
 -12.186 -0.355E-05 -0.355E-05
 -12.176 -0.351E-05 -0.351E-05
 -12.166 -0.346E-05 -0.346E-05
 -12.156 -0.340E-05 -0.340E-05
 -12.146 -0.333E-05 -0.333E-05
 -12.136 -0.325E-05 -0.325E-05
 -12.126 -0.316E-05 -0.316E-05
 -12.116 -0.306E-05 -0.306E-05
 -12.106 -0.295E-05 -0.295E-05
 -12.096 -0.283E-05 -0.283E-05
 -12.086 -0.269E-05 -0.269E-05
 -12.076 -0.255E-05 -0.255E-05
 -12.066 -0.239E-05 -0.239E-05
 -12.056 -0.221E-05 -0.221E-05
 -12.046 -0.203E-05 -0.203E-05
 -12.036 -0.183E-05 -0.183E-05
 -12.026 -0.161E-05 -0.161E-05
 -12.016 -0.139E-05 -0.139E-05
 -12.006 -0.114E-05 -0.114E-05
 -11.996 -0.888E-06 -0.888E-06
 -11.986 -0.616E-06 -0.616E-06
 -11.976 -0.328E-06 -0.328E-06
 -11.966 -0.252E-07 -0.252E-07
 -11.956  0.294E-06  0.294E-06
 -11.946  0.629E-06  0.629E-06
 -11.936  0.980E-06  0.980E-06
 -11.926  0.135E-05  0.135E-05
 -11.916  0.173E-05  0.173E-05
 -11.906  0.213E-05  0.213E-05
 -11.896  0.255E-05  0.255E-05
 -11.886  0.299E-05  0.299E-05
 -11.876  0.344E-05  0.344E-05
 -11.866  0.391E-05  0.391E-05
 -11.856  0.439E-05  0.439E-05
 -11.846  0.490E-05  0.490E-05
 -11.836  0.542E-05  0.542E-05
 -11.826  0.595E-05  0.595E-05
 -11.816  0.651E-05  0.651E-05
 -11.806  0.708E-05  0.708E-05
 -11.796  0.766E-05  0.766E-05
 -11.786  0.826E-05  0.826E-05
 -11.776  0.888E-05  0.888E-05
 -11.766  0.951E-05  0.951E-05
 -11.756  0.102E-04  0.102E-04
 -11.746  0.108E-04  0.108E-04
 -11.736  0.115E-04  0.115E-04
 -11.726  0.122E-04  0.122E-04
 -11.716  0.129E-04  0.129E-04
 -11.706  0.136E-04  0.136E-04
 -11.696  0.143E-04  0.143E-04
 -11.686  0.151E-04  0.151E-04
 -11.676  0.158E-04  0.158E-04
 -11.666  0.166E-04  0.166E-04
 -11.656  0.173E-04  0.173E-04
 -11.646  0.181E-04  0.181E-04
 -11.636  0.189E-04  0.189E-04
 -11.626  0.197E-04  0.197E-04
 -11.616  0.204E-04  0.204E-04
 -11.606  0.212E-04  0.212E-04
 -11.596  0.220E-04  0.220E-04
 -11.586  0.228E-04  0.228E-04
 -11.576  0.236E-04  0.236E-04
 -11.566  0.244E-04  0.244E-04
 -11.556  0.252E-04  0.252E-04
 -11.546  0.260E-04  0.260E-04
 -11.536  0.267E-04  0.267E-04
 -11.526  0.275E-04  0.275E-04
 -11.516  0.283E-04  0.283E-04
 -11.506  0.290E-04  0.290E-04
 -11.496  0.297E-04  0.297E-04
 -11.486  0.304E-04  0.304E-04
 -11.476  0.311E-04  0.311E-04
 -11.466  0.318E-04  0.318E-04
 -11.456  0.325E-04  0.325E-04
 -11.446  0.331E-04  0.331E-04
 -11.436  0.337E-04  0.337E-04
 -11.426  0.343E-04  0.343E-04
 -11.416  0.349E-04  0.349E-04
 -11.406  0.354E-04  0.354E-04
 -11.396  0.359E-04  0.359E-04
 -11.386  0.363E-04  0.363E-04
 -11.376  0.367E-04  0.367E-04
 -11.366  0.371E-04  0.371E-04
 -11.356  0.375E-04  0.375E-04
 -11.346  0.377E-04  0.377E-04
 -11.336  0.380E-04  0.380E-04
 -11.326  0.382E-04  0.382E-04
 -11.316  0.383E-04  0.383E-04
 -11.306  0.383E-04  0.383E-04
 -11.296  0.384E-04  0.384E-04
 -11.286  0.383E-04  0.383E-04
 -11.276  0.382E-04  0.382E-04
 -11.266  0.380E-04  0.380E-04
 -11.256  0.377E-04  0.377E-04
 -11.246  0.373E-04  0.373E-04
 -11.236  0.369E-04  0.369E-04
 -11.226  0.364E-04  0.364E-04
 -11.216  0.358E-04  0.358E-04
 -11.206  0.351E-04  0.351E-04
 -11.196  0.342E-04  0.342E-04
 -11.186  0.333E-04  0.333E-04
 -11.176  0.323E-04  0.323E-04
 -11.166  0.312E-04  0.312E-04
 -11.156  0.299E-04  0.299E-04
 -11.146  0.285E-04  0.285E-04
 -11.136  0.270E-04  0.270E-04
 -11.126  0.253E-04  0.253E-04
 -11.116  0.235E-04  0.235E-04
 -11.106  0.215E-04  0.215E-04
 -11.096  0.194E-04  0.194E-04
 -11.086  0.170E-04  0.170E-04
 -11.076  0.146E-04  0.146E-04
 -11.066  0.119E-04  0.119E-04
 -11.056  0.903E-05  0.903E-05
 -11.046  0.596E-05  0.596E-05
 -11.036  0.268E-05  0.268E-05
 -11.026 -0.828E-06 -0.828E-06
 -11.016 -0.457E-05 -0.457E-05
 -11.006 -0.856E-05 -0.856E-05
 -10.996 -0.128E-04 -0.128E-04
 -10.986 -0.173E-04 -0.173E-04
 -10.976 -0.221E-04 -0.221E-04
 -10.966 -0.272E-04 -0.272E-04
 -10.956 -0.326E-04 -0.326E-04
 -10.946 -0.384E-04 -0.384E-04
 -10.936 -0.444E-04 -0.444E-04
 -10.926 -0.509E-04 -0.509E-04
 -10.916 -0.577E-04 -0.577E-04
 -10.906 -0.648E-04 -0.648E-04
 -10.896 -0.724E-04 -0.724E-04
 -10.886 -0.805E-04 -0.805E-04
 -10.876 -0.889E-04 -0.889E-04
 -10.866 -0.978E-04 -0.978E-04
 -10.856 -0.107E-03 -0.107E-03
 -10.846 -0.117E-03 -0.117E-03
 -10.836 -0.128E-03 -0.128E-03
 -10.826 -0.139E-03 -0.139E-03
 -10.816 -0.150E-03 -0.150E-03
 -10.806 -0.162E-03 -0.162E-03
 -10.796 -0.175E-03 -0.175E-03
 -10.786 -0.188E-03 -0.188E-03
 -10.776 -0.203E-03 -0.203E-03
 -10.766 -0.217E-03 -0.217E-03
 -10.756 -0.233E-03 -0.233E-03
 -10.746 -0.249E-03 -0.249E-03
 -10.736 -0.266E-03 -0.266E-03
 -10.726 -0.284E-03 -0.284E-03
 -10.716 -0.303E-03 -0.303E-03
 -10.706 -0.322E-03 -0.322E-03
 -10.696 -0.343E-03 -0.343E-03
 -10.686 -0.364E-03 -0.364E-03
 -10.676 -0.386E-03 -0.386E-03
 -10.666 -0.409E-03 -0.409E-03
 -10.656 -0.434E-03 -0.434E-03
 -10.646 -0.459E-03 -0.459E-03
 -10.636 -0.485E-03 -0.485E-03
 -10.626 -0.513E-03 -0.513E-03
 -10.616 -0.541E-03 -0.541E-03
 -10.606 -0.571E-03 -0.571E-03
 -10.596 -0.602E-03 -0.602E-03
 -10.586 -0.634E-03 -0.634E-03
 -10.576 -0.668E-03 -0.668E-03
 -10.566 -0.702E-03 -0.702E-03
 -10.556 -0.738E-03 -0.738E-03
 -10.546 -0.775E-03 -0.775E-03
 -10.536 -0.814E-03 -0.814E-03
 -10.526 -0.854E-03 -0.854E-03
 -10.516 -0.895E-03 -0.895E-03
 -10.506 -0.937E-03 -0.937E-03
 -10.496 -0.981E-03 -0.981E-03
 -10.486 -0.103E-02 -0.103E-02
 -10.476 -0.107E-02 -0.107E-02
 -10.466 -0.112E-02 -0.112E-02
 -10.456 -0.117E-02 -0.117E-02
 -10.446 -0.122E-02 -0.122E-02
 -10.436 -0.127E-02 -0.127E-02
 -10.426 -0.133E-02 -0.133E-02
 -10.416 -0.138E-02 -0.138E-02
 -10.406 -0.144E-02 -0.144E-02
 -10.396 -0.150E-02 -0.150E-02
 -10.386 -0.156E-02 -0.156E-02
 -10.376 -0.162E-02 -0.162E-02
 -10.366 -0.168E-02 -0.168E-02
 -10.356 -0.174E-02 -0.174E-02
 -10.346 -0.180E-02 -0.180E-02
 -10.336 -0.187E-02 -0.187E-02
 -10.326 -0.193E-02 -0.193E-02
 -10.316 -0.200E-02 -0.200E-02
 -10.306 -0.207E-02 -0.207E-02
 -10.296 -0.213E-02 -0.213E-02
 -10.286 -0.220E-02 -0.220E-02
 -10.276 -0.227E-02 -0.227E-02
 -10.266 -0.234E-02 -0.234E-02
 -10.256 -0.241E-02 -0.241E-02
 -10.246 -0.248E-02 -0.248E-02
 -10.236 -0.255E-02 -0.255E-02
 -10.226 -0.262E-02 -0.262E-02
 -10.216 -0.268E-02 -0.268E-02
 -10.206 -0.275E-02 -0.275E-02
 -10.196 -0.282E-02 -0.282E-02
 -10.186 -0.288E-02 -0.288E-02
 -10.176 -0.295E-02 -0.295E-02
 -10.166 -0.301E-02 -0.301E-02
 -10.156 -0.307E-02 -0.307E-02
 -10.146 -0.313E-02 -0.313E-02
 -10.136 -0.319E-02 -0.319E-02
 -10.126 -0.324E-02 -0.324E-02
 -10.116 -0.330E-02 -0.330E-02
 -10.106 -0.334E-02 -0.334E-02
 -10.096 -0.339E-02 -0.339E-02
 -10.086 -0.343E-02 -0.343E-02
 -10.076 -0.347E-02 -0.347E-02
 -10.066 -0.350E-02 -0.350E-02
 -10.056 -0.353E-02 -0.353E-02
 -10.046 -0.355E-02 -0.355E-02
 -10.036 -0.356E-02 -0.356E-02
 -10.026 -0.357E-02 -0.357E-02
 -10.016 -0.358E-02 -0.358E-02
 -10.006 -0.357E-02 -0.357E-02
  -9.996 -0.356E-02 -0.356E-02
  -9.986 -0.354E-02 -0.354E-02
  -9.976 -0.352E-02 -0.352E-02
  -9.966 -0.348E-02 -0.348E-02
  -9.956 -0.344E-02 -0.344E-02
  -9.946 -0.338E-02 -0.338E-02
  -9.936 -0.332E-02 -0.332E-02
  -9.926 -0.324E-02 -0.324E-02
  -9.916 -0.315E-02 -0.315E-02
  -9.906 -0.305E-02 -0.305E-02
  -9.896 -0.294E-02 -0.294E-02
  -9.886 -0.282E-02 -0.282E-02
  -9.876 -0.268E-02 -0.268E-02
  -9.866 -0.253E-02 -0.253E-02
  -9.856 -0.236E-02 -0.236E-02
  -9.846 -0.218E-02 -0.218E-02
  -9.836 -0.198E-02 -0.198E-02
  -9.826 -0.177E-02 -0.177E-02
  -9.816 -0.154E-02 -0.154E-02
  -9.806 -0.130E-02 -0.130E-02
  -9.796 -0.103E-02 -0.103E-02
  -9.786 -0.751E-03 -0.751E-03
  -9.776 -0.451E-03 -0.451E-03
  -9.766 -0.132E-03 -0.132E-03
  -9.756  0.206E-03  0.206E-03
  -9.746  0.564E-03  0.564E-03
  -9.736  0.942E-03  0.942E-03
  -9.726  0.134E-02  0.134E-02
  -9.716  0.176E-02  0.176E-02
  -9.706  0.220E-02  0.220E-02
  -9.696  0.266E-02  0.266E-02
  -9.686  0.315E-02  0.315E-02
  -9.676  0.366E-02  0.366E-02
  -9.666  0.419E-02  0.419E-02
  -9.656  0.474E-02  0.474E-02
  -9.646  0.531E-02  0.531E-02
  -9.636  0.591E-02  0.591E-02
  -9.626  0.653E-02  0.653E-02
  -9.616  0.718E-02  0.718E-02
  -9.606  0.785E-02  0.785E-02
  -9.596  0.854E-02  0.854E-02
  -9.586  0.926E-02  0.926E-02
  -9.576  0.999E-02  0.999E-02
  -9.566  0.108E-01  0.108E-01
  -9.556  0.115E-01  0.115E-01
  -9.546  0.124E-01  0.124E-01
  -9.536  0.132E-01  0.132E-01
  -9.526  0.140E-01  0.140E-01
  -9.516  0.149E-01  0.149E-01
  -9.506  0.158E-01  0.158E-01
  -9.496  0.167E-01  0.167E-01
  -9.486  0.177E-01  0.177E-01
  -9.476  0.186E-01  0.186E-01
  -9.466  0.196E-01  0.196E-01
  -9.456  0.206E-01  0.206E-01
  -9.446  0.216E-01  0.216E-01
  -9.436  0.227E-01  0.227E-01
  -9.426  0.237E-01  0.237E-01
  -9.416  0.248E-01  0.248E-01
  -9.406  0.259E-01  0.259E-01
  -9.396  0.270E-01  0.270E-01
  -9.386  0.281E-01  0.281E-01
  -9.376  0.293E-01  0.293E-01
  -9.366  0.304E-01  0.304E-01
  -9.356  0.316E-01  0.316E-01
  -9.346  0.327E-01  0.327E-01
  -9.336  0.339E-01  0.339E-01
  -9.326  0.351E-01  0.351E-01
  -9.316  0.363E-01  0.363E-01
  -9.306  0.375E-01  0.375E-01
  -9.296  0.387E-01  0.387E-01
  -9.286  0.400E-01  0.400E-01
  -9.276  0.412E-01  0.412E-01
  -9.266  0.424E-01  0.424E-01
  -9.256  0.436E-01  0.436E-01
  -9.246  0.449E-01  0.449E-01
  -9.236  0.461E-01  0.461E-01
  -9.226  0.473E-01  0.473E-01
  -9.216  0.485E-01  0.485E-01
  -9.206  0.498E-01  0.498E-01
  -9.196  0.510E-01  0.510E-01
  -9.186  0.522E-01  0.522E-01
  -9.176  0.534E-01  0.534E-01
  -9.166  0.546E-01  0.546E-01
  -9.156  0.558E-01  0.558E-01
  -9.146  0.569E-01  0.569E-01
  -9.136  0.581E-01  0.581E-01
  -9.126  0.593E-01  0.593E-01
  -9.116  0.604E-01  0.604E-01
  -9.106  0.615E-01  0.615E-01
  -9.096  0.626E-01  0.626E-01
  -9.086  0.637E-01  0.637E-01
  -9.076  0.648E-01  0.648E-01
  -9.066  0.658E-01  0.658E-01
  -9.056  0.669E-01  0.669E-01
  -9.046  0.679E-01  0.679E-01
  -9.036  0.689E-01  0.689E-01
  -9.026  0.699E-01  0.699E-01
  -9.016  0.708E-01  0.708E-01
  -9.006  0.717E-01  0.717E-01
  -8.996  0.726E-01  0.726E-01
  -8.986  0.735E-01  0.735E-01
  -8.976  0.744E-01  0.744E-01
  -8.966  0.752E-01  0.752E-01
  -8.956  0.760E-01  0.760E-01
  -8.946  0.768E-01  0.768E-01
  -8.936  0.776E-01  0.776E-01
  -8.926  0.783E-01  0.783E-01
  -8.916  0.790E-01  0.790E-01
  -8.906  0.797E-01  0.797E-01
  -8.896  0.804E-01  0.804E-01
  -8.886  0.810E-01  0.810E-01
  -8.876  0.816E-01  0.816E-01
  -8.866  0.822E-01  0.822E-01
  -8.856  0.828E-01  0.828E-01
  -8.846  0.833E-01  0.833E-01
  -8.836  0.838E-01  0.838E-01
  -8.826  0.843E-01  0.843E-01
  -8.816  0.848E-01  0.848E-01
  -8.806  0.852E-01  0.852E-01
  -8.796  0.856E-01  0.856E-01
  -8.786  0.860E-01  0.860E-01
  -8.776  0.864E-01  0.864E-01
  -8.766  0.867E-01  0.867E-01
  -8.756  0.870E-01  0.870E-01
  -8.746  0.873E-01  0.873E-01
  -8.736  0.876E-01  0.876E-01
  -8.726  0.879E-01  0.879E-01
  -8.716  0.881E-01  0.881E-01
  -8.706  0.884E-01  0.884E-01
  -8.696  0.886E-01  0.886E-01
  -8.686  0.888E-01  0.888E-01
  -8.676  0.889E-01  0.889E-01
  -8.666  0.891E-01  0.891E-01
  -8.656  0.892E-01  0.892E-01
  -8.646  0.893E-01  0.893E-01
  -8.636  0.895E-01  0.895E-01
  -8.626  0.895E-01  0.895E-01
  -8.616  0.896E-01  0.896E-01
  -8.606  0.897E-01  0.897E-01
  -8.596  0.898E-01  0.898E-01
  -8.586  0.898E-01  0.898E-01
  -8.576  0.898E-01  0.898E-01
  -8.566  0.899E-01  0.899E-01
  -8.556  0.899E-01  0.899E-01
  -8.546  0.899E-01  0.899E-01
  -8.536  0.899E-01  0.899E-01
  -8.526  0.899E-01  0.899E-01
  -8.516  0.898E-01  0.898E-01
  -8.506  0.898E-01  0.898E-01
  -8.496  0.898E-01  0.898E-01
  -8.486  0.897E-01  0.897E-01
  -8.476  0.897E-01  0.897E-01
  -8.466  0.896E-01  0.896E-01
  -8.456  0.896E-01  0.896E-01
  -8.446  0.895E-01  0.895E-01
  -8.436  0.894E-01  0.894E-01
  -8.426  0.894E-01  0.894E-01
  -8.416  0.893E-01  0.893E-01
  -8.406  0.892E-01  0.892E-01
  -8.396  0.891E-01  0.891E-01
  -8.386  0.890E-01  0.890E-01
  -8.376  0.889E-01  0.889E-01
  -8.366  0.889E-01  0.889E-01
  -8.356  0.887E-01  0.887E-01
  -8.346  0.886E-01  0.886E-01
  -8.336  0.885E-01  0.885E-01
  -8.326  0.884E-01  0.884E-01
  -8.316  0.883E-01  0.883E-01
  -8.306  0.882E-01  0.882E-01
  -8.296  0.881E-01  0.881E-01
  -8.286  0.879E-01  0.879E-01
  -8.276  0.878E-01  0.878E-01
  -8.266  0.877E-01  0.877E-01
  -8.256  0.875E-01  0.875E-01
  -8.246  0.874E-01  0.874E-01
  -8.236  0.873E-01  0.873E-01
  -8.226  0.871E-01  0.871E-01
  -8.216  0.870E-01  0.870E-01
  -8.206  0.868E-01  0.868E-01
  -8.196  0.866E-01  0.866E-01
  -8.186  0.865E-01  0.865E-01
  -8.176  0.863E-01  0.863E-01
  -8.166  0.861E-01  0.861E-01
  -8.156  0.860E-01  0.860E-01
  -8.146  0.858E-01  0.858E-01
  -8.136  0.856E-01  0.856E-01
  -8.126  0.854E-01  0.854E-01
  -8.116  0.852E-01  0.852E-01
  -8.106  0.850E-01  0.850E-01
  -8.096  0.848E-01  0.848E-01
  -8.086  0.846E-01  0.846E-01
  -8.076  0.844E-01  0.844E-01
  -8.066  0.841E-01  0.841E-01
  -8.056  0.839E-01  0.839E-01
  -8.046  0.837E-01  0.837E-01
  -8.036  0.835E-01  0.835E-01
  -8.026  0.832E-01  0.832E-01
  -8.016  0.830E-01  0.830E-01
  -8.006  0.828E-01  0.828E-01
  -7.996  0.825E-01  0.825E-01
  -7.986  0.823E-01  0.823E-01
  -7.976  0.820E-01  0.820E-01
  -7.966  0.818E-01  0.818E-01
  -7.956  0.815E-01  0.815E-01
  -7.946  0.813E-01  0.813E-01
  -7.936  0.810E-01  0.810E-01
  -7.926  0.808E-01  0.808E-01
  -7.916  0.805E-01  0.805E-01
  -7.906  0.803E-01  0.803E-01
  -7.896  0.800E-01  0.800E-01
  -7.886  0.798E-01  0.798E-01
  -7.876  0.795E-01  0.795E-01
  -7.866  0.793E-01  0.793E-01
  -7.856  0.790E-01  0.790E-01
  -7.846  0.788E-01  0.788E-01
  -7.836  0.785E-01  0.785E-01
  -7.826  0.783E-01  0.783E-01
  -7.816  0.781E-01  0.781E-01
  -7.806  0.779E-01  0.779E-01
  -7.796  0.777E-01  0.777E-01
  -7.786  0.775E-01  0.775E-01
  -7.776  0.773E-01  0.773E-01
  -7.766  0.771E-01  0.771E-01
  -7.756  0.769E-01  0.769E-01
  -7.746  0.767E-01  0.767E-01
  -7.736  0.766E-01  0.766E-01
  -7.726  0.764E-01  0.764E-01
  -7.716  0.763E-01  0.763E-01
  -7.706  0.761E-01  0.761E-01
  -7.696  0.760E-01  0.760E-01
  -7.686  0.759E-01  0.759E-01
  -7.676  0.758E-01  0.758E-01
  -7.666  0.758E-01  0.758E-01
  -7.656  0.757E-01  0.757E-01
  -7.646  0.757E-01  0.757E-01
  -7.636  0.756E-01  0.756E-01
  -7.626  0.756E-01  0.756E-01
  -7.616  0.756E-01  0.756E-01
  -7.606  0.756E-01  0.756E-01
  -7.596  0.756E-01  0.756E-01
  -7.586  0.757E-01  0.757E-01
  -7.576  0.757E-01  0.757E-01
  -7.566  0.758E-01  0.758E-01
  -7.556  0.759E-01  0.759E-01
  -7.546  0.760E-01  0.760E-01
  -7.536  0.761E-01  0.761E-01
  -7.526  0.762E-01  0.762E-01
  -7.516  0.764E-01  0.764E-01
  -7.506  0.766E-01  0.766E-01
  -7.496  0.767E-01  0.767E-01
  -7.486  0.769E-01  0.769E-01
  -7.476  0.771E-01  0.771E-01
  -7.466  0.773E-01  0.773E-01
  -7.456  0.775E-01  0.775E-01
  -7.446  0.778E-01  0.778E-01
  -7.436  0.780E-01  0.780E-01
  -7.426  0.783E-01  0.783E-01
  -7.416  0.785E-01  0.785E-01
  -7.406  0.788E-01  0.788E-01
  -7.396  0.791E-01  0.791E-01
  -7.386  0.793E-01  0.793E-01
  -7.376  0.796E-01  0.796E-01
  -7.366  0.799E-01  0.799E-01
  -7.356  0.802E-01  0.802E-01
  -7.346  0.805E-01  0.805E-01
  -7.336  0.808E-01  0.808E-01
  -7.326  0.811E-01  0.811E-01
  -7.316  0.813E-01  0.813E-01
  -7.306  0.816E-01  0.816E-01
  -7.296  0.819E-01  0.819E-01
  -7.286  0.822E-01  0.822E-01
  -7.276  0.824E-01  0.824E-01
  -7.266  0.827E-01  0.827E-01
  -7.256  0.829E-01  0.829E-01
  -7.246  0.831E-01  0.831E-01
  -7.236  0.833E-01  0.833E-01
  -7.226  0.835E-01  0.835E-01
  -7.216  0.837E-01  0.837E-01
  -7.206  0.839E-01  0.839E-01
  -7.196  0.840E-01  0.840E-01
  -7.186  0.841E-01  0.841E-01
  -7.176  0.842E-01  0.842E-01
  -7.166  0.843E-01  0.843E-01
  -7.156  0.844E-01  0.844E-01
  -7.146  0.844E-01  0.844E-01
  -7.136  0.844E-01  0.844E-01
  -7.126  0.844E-01  0.844E-01
  -7.116  0.843E-01  0.843E-01
  -7.106  0.843E-01  0.843E-01
  -7.096  0.841E-01  0.841E-01
  -7.086  0.840E-01  0.840E-01
  -7.076  0.838E-01  0.838E-01
  -7.066  0.836E-01  0.836E-01
  -7.056  0.834E-01  0.834E-01
  -7.046  0.831E-01  0.831E-01
  -7.036  0.828E-01  0.828E-01
  -7.026  0.824E-01  0.824E-01
  -7.016  0.821E-01  0.821E-01
  -7.006  0.817E-01  0.817E-01
  -6.996  0.812E-01  0.812E-01
  -6.986  0.807E-01  0.807E-01
  -6.976  0.802E-01  0.802E-01
  -6.966  0.796E-01  0.796E-01
  -6.956  0.791E-01  0.791E-01
  -6.946  0.784E-01  0.784E-01
  -6.936  0.778E-01  0.778E-01
  -6.926  0.771E-01  0.771E-01
  -6.916  0.763E-01  0.763E-01
  -6.906  0.756E-01  0.756E-01
  -6.896  0.748E-01  0.748E-01
  -6.886  0.740E-01  0.740E-01
  -6.876  0.731E-01  0.731E-01
  -6.866  0.722E-01  0.722E-01
  -6.856  0.713E-01  0.713E-01
  -6.846  0.704E-01  0.704E-01
  -6.836  0.694E-01  0.694E-01
  -6.826  0.684E-01  0.684E-01
  -6.816  0.674E-01  0.674E-01
  -6.806  0.663E-01  0.663E-01
  -6.796  0.653E-01  0.653E-01
  -6.786  0.642E-01  0.642E-01
  -6.776  0.631E-01  0.631E-01
  -6.766  0.620E-01  0.620E-01
  -6.756  0.608E-01  0.608E-01
  -6.746  0.597E-01  0.597E-01
  -6.736  0.585E-01  0.585E-01
  -6.726  0.574E-01  0.574E-01
  -6.716  0.562E-01  0.562E-01
  -6.706  0.550E-01  0.550E-01
  -6.696  0.538E-01  0.538E-01
  -6.686  0.527E-01  0.527E-01
  -6.676  0.515E-01  0.515E-01
  -6.666  0.503E-01  0.503E-01
  -6.656  0.491E-01  0.491E-01
  -6.646  0.479E-01  0.479E-01
  -6.636  0.468E-01  0.468E-01
  -6.626  0.456E-01  0.456E-01
  -6.616  0.445E-01  0.445E-01
  -6.606  0.434E-01  0.434E-01
  -6.596  0.422E-01  0.422E-01
  -6.586  0.411E-01  0.411E-01
  -6.576  0.401E-01  0.401E-01
  -6.566  0.390E-01  0.390E-01
  -6.556  0.380E-01  0.380E-01
  -6.546  0.369E-01  0.369E-01
  -6.536  0.360E-01  0.360E-01
  -6.526  0.350E-01  0.350E-01
  -6.516  0.341E-01  0.341E-01
  -6.506  0.332E-01  0.332E-01
  -6.496  0.323E-01  0.323E-01
  -6.486  0.314E-01  0.314E-01
  -6.476  0.306E-01  0.306E-01
  -6.466  0.299E-01  0.299E-01
  -6.456  0.291E-01  0.291E-01
  -6.446  0.284E-01  0.284E-01
  -6.436  0.277E-01  0.277E-01
  -6.426  0.271E-01  0.271E-01
  -6.416  0.265E-01  0.265E-01
  -6.406  0.260E-01  0.260E-01
  -6.396  0.255E-01  0.255E-01
  -6.386  0.250E-01  0.250E-01
  -6.376  0.246E-01  0.246E-01
  -6.366  0.242E-01  0.242E-01
  -6.356  0.238E-01  0.238E-01
  -6.346  0.235E-01  0.235E-01
  -6.336  0.233E-01  0.233E-01
  -6.326  0.230E-01  0.230E-01
  -6.316  0.229E-01  0.229E-01
  -6.306  0.227E-01  0.227E-01
  -6.296  0.226E-01  0.226E-01
  -6.286  0.225E-01  0.225E-01
  -6.276  0.225E-01  0.225E-01
  -6.266  0.225E-01  0.225E-01
  -6.256  0.226E-01  0.226E-01
  -6.246  0.227E-01  0.227E-01
  -6.236  0.228E-01  0.228E-01
  -6.226  0.229E-01  0.229E-01
  -6.216  0.231E-01  0.231E-01
  -6.206  0.234E-01  0.234E-01
  -6.196  0.236E-01  0.236E-01
  -6.186  0.239E-01  0.239E-01
  -6.176  0.242E-01  0.242E-01
  -6.166  0.245E-01  0.245E-01
  -6.156  0.249E-01  0.249E-01
  -6.146  0.253E-01  0.253E-01
  -6.136  0.257E-01  0.257E-01
  -6.126  0.261E-01  0.261E-01
  -6.116  0.266E-01  0.266E-01
  -6.106  0.271E-01  0.271E-01
  -6.096  0.276E-01  0.276E-01
  -6.086  0.281E-01  0.281E-01
  -6.076  0.286E-01  0.286E-01
  -6.066  0.291E-01  0.291E-01
  -6.056  0.297E-01  0.297E-01
  -6.046  0.302E-01  0.302E-01
  -6.036  0.308E-01  0.308E-01
  -6.026  0.313E-01  0.313E-01
  -6.016  0.319E-01  0.319E-01
  -6.006  0.325E-01  0.325E-01
  -5.996  0.330E-01  0.330E-01
  -5.986  0.336E-01  0.336E-01
  -5.976  0.341E-01  0.341E-01
  -5.966  0.347E-01  0.347E-01
  -5.956  0.352E-01  0.352E-01
  -5.946  0.358E-01  0.358E-01
  -5.936  0.363E-01  0.363E-01
  -5.926  0.368E-01  0.368E-01
  -5.916  0.373E-01  0.373E-01
  -5.906  0.378E-01  0.378E-01
  -5.896  0.383E-01  0.383E-01
  -5.886  0.388E-01  0.388E-01
  -5.876  0.392E-01  0.392E-01
  -5.866  0.396E-01  0.396E-01
  -5.856  0.400E-01  0.400E-01
  -5.846  0.404E-01  0.404E-01
  -5.836  0.408E-01  0.408E-01
  -5.826  0.411E-01  0.411E-01
  -5.816  0.414E-01  0.414E-01
  -5.806  0.417E-01  0.417E-01
  -5.796  0.420E-01  0.420E-01
  -5.786  0.423E-01  0.423E-01
  -5.776  0.425E-01  0.425E-01
  -5.766  0.427E-01  0.427E-01
  -5.756  0.428E-01  0.428E-01
  -5.746  0.430E-01  0.430E-01
  -5.736  0.431E-01  0.431E-01
  -5.726  0.432E-01  0.432E-01
  -5.716  0.432E-01  0.432E-01
  -5.706  0.432E-01  0.432E-01
  -5.696  0.432E-01  0.432E-01
  -5.686  0.432E-01  0.432E-01
  -5.676  0.432E-01  0.432E-01
  -5.666  0.431E-01  0.431E-01
  -5.656  0.430E-01  0.430E-01
  -5.646  0.429E-01  0.429E-01
  -5.636  0.427E-01  0.427E-01
  -5.626  0.426E-01  0.426E-01
  -5.616  0.424E-01  0.424E-01
  -5.606  0.421E-01  0.421E-01
  -5.596  0.419E-01  0.419E-01
  -5.586  0.416E-01  0.416E-01
  -5.576  0.414E-01  0.414E-01
  -5.566  0.411E-01  0.411E-01
  -5.556  0.407E-01  0.407E-01
  -5.546  0.404E-01  0.404E-01
  -5.536  0.400E-01  0.400E-01
  -5.526  0.397E-01  0.397E-01
  -5.516  0.393E-01  0.393E-01
  -5.506  0.389E-01  0.389E-01
  -5.496  0.385E-01  0.385E-01
  -5.486  0.381E-01  0.381E-01
  -5.476  0.377E-01  0.377E-01
  -5.466  0.372E-01  0.372E-01
  -5.456  0.368E-01  0.368E-01
  -5.446  0.363E-01  0.363E-01
  -5.436  0.359E-01  0.359E-01
  -5.426  0.354E-01  0.354E-01
  -5.416  0.350E-01  0.350E-01
  -5.406  0.345E-01  0.345E-01
  -5.396  0.341E-01  0.341E-01
  -5.386  0.336E-01  0.336E-01
  -5.376  0.332E-01  0.332E-01
  -5.366  0.327E-01  0.327E-01
  -5.356  0.323E-01  0.323E-01
  -5.346  0.319E-01  0.319E-01
  -5.336  0.315E-01  0.315E-01
  -5.326  0.310E-01  0.310E-01
  -5.316  0.306E-01  0.306E-01
  -5.306  0.302E-01  0.302E-01
  -5.296  0.298E-01  0.298E-01
  -5.286  0.295E-01  0.295E-01
  -5.276  0.291E-01  0.291E-01
  -5.266  0.288E-01  0.288E-01
  -5.256  0.284E-01  0.284E-01
  -5.246  0.281E-01  0.281E-01
  -5.236  0.278E-01  0.278E-01
  -5.226  0.275E-01  0.275E-01
  -5.216  0.273E-01  0.273E-01
  -5.206  0.270E-01  0.270E-01
  -5.196  0.268E-01  0.268E-01
  -5.186  0.266E-01  0.266E-01
  -5.176  0.264E-01  0.264E-01
  -5.166  0.262E-01  0.262E-01
  -5.156  0.261E-01  0.261E-01
  -5.146  0.259E-01  0.259E-01
  -5.136  0.258E-01  0.258E-01
  -5.126  0.257E-01  0.257E-01
  -5.116  0.257E-01  0.257E-01
  -5.106  0.256E-01  0.256E-01
  -5.096  0.256E-01  0.256E-01
  -5.086  0.256E-01  0.256E-01
  -5.076  0.256E-01  0.256E-01
  -5.066  0.256E-01  0.256E-01
  -5.056  0.257E-01  0.257E-01
  -5.046  0.258E-01  0.258E-01
  -5.036  0.259E-01  0.259E-01
  -5.026  0.260E-01  0.260E-01
  -5.016  0.262E-01  0.262E-01
  -5.006  0.263E-01  0.263E-01
  -4.996  0.265E-01  0.265E-01
  -4.986  0.267E-01  0.267E-01
  -4.976  0.269E-01  0.269E-01
  -4.966  0.272E-01  0.272E-01
  -4.956  0.275E-01  0.275E-01
  -4.946  0.277E-01  0.277E-01
  -4.936  0.280E-01  0.280E-01
  -4.926  0.284E-01  0.284E-01
  -4.916  0.287E-01  0.287E-01
  -4.906  0.291E-01  0.291E-01
  -4.896  0.294E-01  0.294E-01
  -4.886  0.298E-01  0.298E-01
  -4.876  0.302E-01  0.302E-01
  -4.866  0.306E-01  0.306E-01
  -4.856  0.311E-01  0.311E-01
  -4.846  0.315E-01  0.315E-01
  -4.836  0.320E-01  0.320E-01
  -4.826  0.325E-01  0.325E-01
  -4.816  0.330E-01  0.330E-01
  -4.806  0.335E-01  0.335E-01
  -4.796  0.340E-01  0.340E-01
  -4.786  0.345E-01  0.345E-01
  -4.776  0.351E-01  0.351E-01
  -4.766  0.357E-01  0.357E-01
  -4.756  0.362E-01  0.362E-01
  -4.746  0.368E-01  0.368E-01
  -4.736  0.374E-01  0.374E-01
  -4.726  0.380E-01  0.380E-01
  -4.716  0.386E-01  0.386E-01
  -4.706  0.392E-01  0.392E-01
  -4.696  0.398E-01  0.398E-01
  -4.686  0.405E-01  0.405E-01
  -4.676  0.411E-01  0.411E-01
  -4.666  0.418E-01  0.418E-01
  -4.656  0.424E-01  0.424E-01
  -4.646  0.431E-01  0.431E-01
  -4.636  0.438E-01  0.438E-01
  -4.626  0.444E-01  0.444E-01
  -4.616  0.451E-01  0.451E-01
  -4.606  0.458E-01  0.458E-01
  -4.596  0.465E-01  0.465E-01
  -4.586  0.472E-01  0.472E-01
  -4.576  0.479E-01  0.479E-01
  -4.566  0.486E-01  0.486E-01
  -4.556  0.493E-01  0.493E-01
  -4.546  0.500E-01  0.500E-01
  -4.536  0.507E-01  0.507E-01
  -4.526  0.514E-01  0.514E-01
  -4.516  0.521E-01  0.521E-01
  -4.506  0.528E-01  0.528E-01
  -4.496  0.535E-01  0.535E-01
  -4.486  0.542E-01  0.542E-01
  -4.476  0.549E-01  0.549E-01
  -4.466  0.556E-01  0.556E-01
  -4.456  0.563E-01  0.563E-01
  -4.446  0.571E-01  0.571E-01
  -4.436  0.578E-01  0.578E-01
  -4.426  0.585E-01  0.585E-01
  -4.416  0.591E-01  0.591E-01
  -4.406  0.598E-01  0.598E-01
  -4.396  0.605E-01  0.605E-01
  -4.386  0.612E-01  0.612E-01
  -4.376  0.619E-01  0.619E-01
  -4.366  0.626E-01  0.626E-01
  -4.356  0.632E-01  0.632E-01
  -4.346  0.639E-01  0.639E-01
  -4.336  0.645E-01  0.645E-01
  -4.326  0.652E-01  0.652E-01
  -4.316  0.658E-01  0.658E-01
  -4.306  0.665E-01  0.665E-01
  -4.296  0.671E-01  0.671E-01
  -4.286  0.677E-01  0.677E-01
  -4.276  0.683E-01  0.683E-01
  -4.266  0.689E-01  0.689E-01
  -4.256  0.695E-01  0.695E-01
  -4.246  0.701E-01  0.701E-01
  -4.236  0.706E-01  0.706E-01
  -4.226  0.712E-01  0.712E-01
  -4.216  0.717E-01  0.717E-01
  -4.206  0.723E-01  0.723E-01
  -4.196  0.728E-01  0.728E-01
  -4.186  0.733E-01  0.733E-01
  -4.176  0.738E-01  0.738E-01
  -4.166  0.743E-01  0.743E-01
  -4.156  0.748E-01  0.748E-01
  -4.146  0.752E-01  0.752E-01
  -4.136  0.757E-01  0.757E-01
  -4.126  0.761E-01  0.761E-01
  -4.116  0.765E-01  0.765E-01
  -4.106  0.769E-01  0.769E-01
  -4.096  0.773E-01  0.773E-01
  -4.086  0.777E-01  0.777E-01
  -4.076  0.781E-01  0.781E-01
  -4.066  0.785E-01  0.785E-01
  -4.056  0.788E-01  0.788E-01
  -4.046  0.792E-01  0.792E-01
  -4.036  0.795E-01  0.795E-01
  -4.026  0.798E-01  0.798E-01
  -4.016  0.801E-01  0.801E-01
  -4.006  0.804E-01  0.804E-01
  -3.996  0.806E-01  0.806E-01
  -3.986  0.809E-01  0.809E-01
  -3.976  0.812E-01  0.812E-01
  -3.966  0.814E-01  0.814E-01
  -3.956  0.816E-01  0.816E-01
  -3.946  0.818E-01  0.818E-01
  -3.936  0.821E-01  0.821E-01
  -3.926  0.822E-01  0.822E-01
  -3.916  0.824E-01  0.824E-01
  -3.906  0.826E-01  0.826E-01
  -3.896  0.828E-01  0.828E-01
  -3.886  0.829E-01  0.829E-01
  -3.876  0.831E-01  0.831E-01
  -3.866  0.832E-01  0.832E-01
  -3.856  0.834E-01  0.834E-01
  -3.846  0.835E-01  0.835E-01
  -3.836  0.836E-01  0.836E-01
  -3.826  0.837E-01  0.837E-01
  -3.816  0.838E-01  0.838E-01
  -3.806  0.839E-01  0.839E-01
  -3.796  0.840E-01  0.840E-01
  -3.786  0.841E-01  0.841E-01
  -3.776  0.842E-01  0.842E-01
  -3.766  0.843E-01  0.843E-01
  -3.756  0.843E-01  0.843E-01
  -3.746  0.844E-01  0.844E-01
  -3.736  0.845E-01  0.845E-01
  -3.726  0.845E-01  0.845E-01
  -3.716  0.846E-01  0.846E-01
  -3.706  0.847E-01  0.847E-01
  -3.696  0.847E-01  0.847E-01
  -3.686  0.848E-01  0.848E-01
  -3.676  0.848E-01  0.848E-01
  -3.666  0.849E-01  0.849E-01
  -3.656  0.849E-01  0.849E-01
  -3.646  0.850E-01  0.850E-01
  -3.636  0.850E-01  0.850E-01
  -3.626  0.851E-01  0.851E-01
  -3.616  0.852E-01  0.852E-01
  -3.606  0.852E-01  0.852E-01
  -3.596  0.853E-01  0.853E-01
  -3.586  0.853E-01  0.853E-01
  -3.576  0.854E-01  0.854E-01
  -3.566  0.854E-01  0.854E-01
  -3.556  0.855E-01  0.855E-01
  -3.546  0.856E-01  0.856E-01
  -3.536  0.856E-01  0.856E-01
  -3.526  0.857E-01  0.857E-01
  -3.516  0.858E-01  0.858E-01
  -3.506  0.858E-01  0.858E-01
  -3.496  0.859E-01  0.859E-01
  -3.486  0.860E-01  0.860E-01
  -3.476  0.861E-01  0.861E-01
  -3.466  0.861E-01  0.861E-01
  -3.456  0.862E-01  0.862E-01
  -3.446  0.863E-01  0.863E-01
  -3.436  0.864E-01  0.864E-01
  -3.426  0.865E-01  0.865E-01
  -3.416  0.865E-01  0.865E-01
  -3.406  0.866E-01  0.866E-01
  -3.396  0.867E-01  0.867E-01
  -3.386  0.868E-01  0.868E-01
  -3.376  0.869E-01  0.869E-01
  -3.366  0.870E-01  0.870E-01
  -3.356  0.871E-01  0.871E-01
  -3.346  0.872E-01  0.872E-01
  -3.336  0.873E-01  0.873E-01
  -3.326  0.874E-01  0.874E-01
  -3.316  0.875E-01  0.875E-01
  -3.306  0.876E-01  0.876E-01
  -3.296  0.877E-01  0.877E-01
  -3.286  0.878E-01  0.878E-01
  -3.276  0.879E-01  0.879E-01
  -3.266  0.880E-01  0.880E-01
  -3.256  0.881E-01  0.881E-01
  -3.246  0.882E-01  0.882E-01
  -3.236  0.882E-01  0.882E-01
  -3.226  0.883E-01  0.883E-01
  -3.216  0.884E-01  0.884E-01
  -3.206  0.885E-01  0.885E-01
  -3.196  0.886E-01  0.886E-01
  -3.186  0.887E-01  0.887E-01
  -3.176  0.888E-01  0.888E-01
  -3.166  0.890E-01  0.890E-01
  -3.156  0.891E-01  0.891E-01
  -3.146  0.892E-01  0.892E-01
  -3.136  0.893E-01  0.893E-01
  -3.126  0.894E-01  0.894E-01
  -3.116  0.895E-01  0.895E-01
  -3.106  0.896E-01  0.896E-01
  -3.096  0.897E-01  0.897E-01
  -3.086  0.899E-01  0.899E-01
  -3.076  0.900E-01  0.900E-01
  -3.066  0.901E-01  0.901E-01
  -3.056  0.902E-01  0.902E-01
  -3.046  0.904E-01  0.904E-01
  -3.036  0.905E-01  0.905E-01
  -3.026  0.907E-01  0.907E-01
  -3.016  0.909E-01  0.909E-01
  -3.006  0.910E-01  0.910E-01
  -2.996  0.912E-01  0.912E-01
  -2.986  0.914E-01  0.914E-01
  -2.976  0.916E-01  0.916E-01
  -2.966  0.918E-01  0.918E-01
  -2.956  0.921E-01  0.921E-01
  -2.946  0.923E-01  0.923E-01
  -2.936  0.926E-01  0.926E-01
  -2.926  0.928E-01  0.928E-01
  -2.916  0.931E-01  0.931E-01
  -2.906  0.934E-01  0.934E-01
  -2.896  0.937E-01  0.937E-01
  -2.886  0.941E-01  0.941E-01
  -2.876  0.944E-01  0.944E-01
  -2.866  0.948E-01  0.948E-01
  -2.856  0.952E-01  0.952E-01
  -2.846  0.956E-01  0.956E-01
  -2.836  0.960E-01  0.960E-01
  -2.826  0.965E-01  0.965E-01
  -2.816  0.970E-01  0.970E-01
  -2.806  0.975E-01  0.975E-01
  -2.796  0.980E-01  0.980E-01
  -2.786  0.986E-01  0.986E-01
  -2.776  0.992E-01  0.992E-01
  -2.766  0.998E-01  0.998E-01
  -2.756  0.100E+00  0.100E+00
  -2.746  0.101E+00  0.101E+00
  -2.736  0.102E+00  0.102E+00
  -2.726  0.102E+00  0.102E+00
  -2.716  0.103E+00  0.103E+00
  -2.706  0.104E+00  0.104E+00
  -2.696  0.105E+00  0.105E+00
  -2.686  0.106E+00  0.106E+00
  -2.676  0.106E+00  0.106E+00
  -2.666  0.107E+00  0.107E+00
  -2.656  0.108E+00  0.108E+00
  -2.646  0.109E+00  0.109E+00
  -2.636  0.110E+00  0.110E+00
  -2.626  0.111E+00  0.111E+00
  -2.616  0.112E+00  0.112E+00
  -2.606  0.113E+00  0.113E+00
  -2.596  0.114E+00  0.114E+00
  -2.586  0.115E+00  0.115E+00
  -2.576  0.116E+00  0.116E+00
  -2.566  0.118E+00  0.118E+00
  -2.556  0.119E+00  0.119E+00
  -2.546  0.120E+00  0.120E+00
  -2.536  0.121E+00  0.121E+00
  -2.526  0.122E+00  0.122E+00
  -2.516  0.123E+00  0.123E+00
  -2.506  0.125E+00  0.125E+00
  -2.496  0.126E+00  0.126E+00
  -2.486  0.127E+00  0.127E+00
  -2.476  0.128E+00  0.128E+00
  -2.466  0.130E+00  0.130E+00
  -2.456  0.131E+00  0.131E+00
  -2.446  0.132E+00  0.132E+00
  -2.436  0.133E+00  0.133E+00
  -2.426  0.135E+00  0.135E+00
  -2.416  0.136E+00  0.136E+00
  -2.406  0.137E+00  0.137E+00
  -2.396  0.138E+00  0.138E+00
  -2.386  0.140E+00  0.140E+00
  -2.376  0.141E+00  0.141E+00
  -2.366  0.142E+00  0.142E+00
  -2.356  0.143E+00  0.143E+00
  -2.346  0.145E+00  0.145E+00
  -2.336  0.146E+00  0.146E+00
  -2.326  0.147E+00  0.147E+00
  -2.316  0.148E+00  0.148E+00
  -2.306  0.149E+00  0.149E+00
  -2.296  0.150E+00  0.150E+00
  -2.286  0.151E+00  0.151E+00
  -2.276  0.152E+00  0.152E+00
  -2.266  0.153E+00  0.153E+00
  -2.256  0.154E+00  0.154E+00
  -2.246  0.155E+00  0.155E+00
  -2.236  0.156E+00  0.156E+00
  -2.226  0.157E+00  0.157E+00
  -2.216  0.157E+00  0.157E+00
  -2.206  0.158E+00  0.158E+00
  -2.196  0.159E+00  0.159E+00
  -2.186  0.159E+00  0.159E+00
  -2.176  0.160E+00  0.160E+00
  -2.166  0.160E+00  0.160E+00
  -2.156  0.161E+00  0.161E+00
  -2.146  0.161E+00  0.161E+00
  -2.136  0.161E+00  0.161E+00
  -2.126  0.162E+00  0.162E+00
  -2.116  0.162E+00  0.162E+00
  -2.106  0.162E+00  0.162E+00
  -2.096  0.162E+00  0.162E+00
  -2.086  0.162E+00  0.162E+00
  -2.076  0.162E+00  0.162E+00
  -2.066  0.162E+00  0.162E+00
  -2.056  0.162E+00  0.162E+00
  -2.046  0.162E+00  0.162E+00
  -2.036  0.161E+00  0.161E+00
  -2.026  0.161E+00  0.161E+00
  -2.016  0.160E+00  0.160E+00
  -2.006  0.160E+00  0.160E+00
  -1.996  0.159E+00  0.159E+00
  -1.986  0.159E+00  0.159E+00
  -1.976  0.158E+00  0.158E+00
  -1.966  0.157E+00  0.157E+00
  -1.956  0.157E+00  0.157E+00
  -1.946  0.156E+00  0.156E+00
  -1.936  0.155E+00  0.155E+00
  -1.926  0.154E+00  0.154E+00
  -1.916  0.153E+00  0.153E+00
  -1.906  0.152E+00  0.152E+00
  -1.896  0.150E+00  0.150E+00
  -1.886  0.149E+00  0.149E+00
  -1.876  0.148E+00  0.148E+00
  -1.866  0.147E+00  0.147E+00
  -1.856  0.145E+00  0.145E+00
  -1.846  0.144E+00  0.144E+00
  -1.836  0.143E+00  0.143E+00
  -1.826  0.141E+00  0.141E+00
  -1.816  0.140E+00  0.140E+00
  -1.806  0.138E+00  0.138E+00
  -1.796  0.136E+00  0.136E+00
  -1.786  0.135E+00  0.135E+00
  -1.776  0.133E+00  0.133E+00
  -1.766  0.131E+00  0.131E+00
  -1.756  0.130E+00  0.130E+00
  -1.746  0.128E+00  0.128E+00
  -1.736  0.126E+00  0.126E+00
  -1.726  0.124E+00  0.124E+00
  -1.716  0.123E+00  0.123E+00
  -1.706  0.121E+00  0.121E+00
  -1.696  0.119E+00  0.119E+00
  -1.686  0.117E+00  0.117E+00
  -1.676  0.115E+00  0.115E+00
  -1.666  0.113E+00  0.113E+00
  -1.656  0.111E+00  0.111E+00
  -1.646  0.110E+00  0.110E+00
  -1.636  0.108E+00  0.108E+00
  -1.626  0.106E+00  0.106E+00
  -1.616  0.104E+00  0.104E+00
  -1.606  0.102E+00  0.102E+00
  -1.596  0.100E+00  0.100E+00
  -1.586  0.984E-01  0.984E-01
  -1.576  0.966E-01  0.966E-01
  -1.566  0.948E-01  0.948E-01
  -1.556  0.930E-01  0.930E-01
  -1.546  0.912E-01  0.912E-01
  -1.536  0.894E-01  0.894E-01
  -1.526  0.877E-01  0.877E-01
  -1.516  0.860E-01  0.860E-01
  -1.506  0.843E-01  0.843E-01
  -1.496  0.826E-01  0.826E-01
  -1.486  0.809E-01  0.809E-01
  -1.476  0.793E-01  0.793E-01
  -1.466  0.777E-01  0.777E-01
  -1.456  0.761E-01  0.761E-01
  -1.446  0.745E-01  0.745E-01
  -1.436  0.730E-01  0.730E-01
  -1.426  0.715E-01  0.715E-01
  -1.416  0.700E-01  0.700E-01
  -1.406  0.686E-01  0.686E-01
  -1.396  0.672E-01  0.672E-01
  -1.386  0.658E-01  0.658E-01
  -1.376  0.645E-01  0.645E-01
  -1.366  0.632E-01  0.632E-01
  -1.356  0.619E-01  0.619E-01
  -1.346  0.607E-01  0.607E-01
  -1.336  0.595E-01  0.595E-01
  -1.326  0.583E-01  0.583E-01
  -1.316  0.571E-01  0.571E-01
  -1.306  0.560E-01  0.560E-01
  -1.296  0.549E-01  0.549E-01
  -1.286  0.539E-01  0.539E-01
  -1.276  0.528E-01  0.528E-01
  -1.266  0.518E-01  0.518E-01
  -1.256  0.509E-01  0.509E-01
  -1.246  0.499E-01  0.499E-01
  -1.236  0.490E-01  0.490E-01
  -1.226  0.481E-01  0.481E-01
  -1.216  0.473E-01  0.473E-01
  -1.206  0.465E-01  0.465E-01
  -1.196  0.457E-01  0.457E-01
  -1.186  0.449E-01  0.449E-01
  -1.176  0.441E-01  0.441E-01
  -1.166  0.434E-01  0.434E-01
  -1.156  0.427E-01  0.427E-01
  -1.146  0.420E-01  0.420E-01
  -1.136  0.414E-01  0.414E-01
  -1.126  0.407E-01  0.407E-01
  -1.116  0.401E-01  0.401E-01
  -1.106  0.395E-01  0.395E-01
  -1.096  0.389E-01  0.389E-01
  -1.086  0.384E-01  0.384E-01
  -1.076  0.378E-01  0.378E-01
  -1.066  0.373E-01  0.373E-01
  -1.056  0.368E-01  0.368E-01
  -1.046  0.363E-01  0.363E-01
  -1.036  0.358E-01  0.358E-01
  -1.026  0.353E-01  0.353E-01
  -1.016  0.349E-01  0.349E-01
  -1.006  0.344E-01  0.344E-01
  -0.996  0.340E-01  0.340E-01
  -0.986  0.336E-01  0.336E-01
  -0.976  0.332E-01  0.332E-01
  -0.966  0.328E-01  0.328E-01
  -0.956  0.324E-01  0.324E-01
  -0.946  0.321E-01  0.321E-01
  -0.936  0.317E-01  0.317E-01
  -0.926  0.313E-01  0.313E-01
  -0.916  0.310E-01  0.310E-01
  -0.906  0.307E-01  0.307E-01
  -0.896  0.303E-01  0.303E-01
  -0.886  0.300E-01  0.300E-01
  -0.876  0.297E-01  0.297E-01
  -0.866  0.294E-01  0.294E-01
  -0.856  0.291E-01  0.291E-01
  -0.846  0.288E-01  0.288E-01
  -0.836  0.286E-01  0.286E-01
  -0.826  0.283E-01  0.283E-01
  -0.816  0.280E-01  0.280E-01
  -0.806  0.278E-01  0.278E-01
  -0.796  0.276E-01  0.276E-01
  -0.786  0.273E-01  0.273E-01
  -0.776  0.271E-01  0.271E-01
  -0.766  0.269E-01  0.269E-01
  -0.756  0.267E-01  0.267E-01
  -0.746  0.265E-01  0.265E-01
  -0.736  0.263E-01  0.263E-01
  -0.726  0.262E-01  0.262E-01
  -0.716  0.260E-01  0.260E-01
  -0.706  0.259E-01  0.259E-01
  -0.696  0.257E-01  0.257E-01
  -0.686  0.256E-01  0.256E-01
  -0.676  0.255E-01  0.255E-01
  -0.666  0.254E-01  0.254E-01
  -0.656  0.253E-01  0.253E-01
  -0.646  0.253E-01  0.253E-01
  -0.636  0.252E-01  0.252E-01
  -0.626  0.252E-01  0.252E-01
  -0.616  0.252E-01  0.252E-01
  -0.606  0.252E-01  0.252E-01
  -0.596  0.252E-01  0.252E-01
  -0.586  0.253E-01  0.253E-01
  -0.576  0.253E-01  0.253E-01
  -0.566  0.254E-01  0.254E-01
  -0.556  0.255E-01  0.255E-01
  -0.546  0.256E-01  0.256E-01
  -0.536  0.257E-01  0.257E-01
  -0.526  0.259E-01  0.259E-01
  -0.516  0.260E-01  0.260E-01
  -0.506  0.262E-01  0.262E-01
  -0.496  0.264E-01  0.264E-01
  -0.486  0.267E-01  0.267E-01
  -0.476  0.269E-01  0.269E-01
  -0.466  0.272E-01  0.272E-01
  -0.456  0.275E-01  0.275E-01
  -0.446  0.278E-01  0.278E-01
  -0.436  0.282E-01  0.282E-01
  -0.426  0.285E-01  0.285E-01
  -0.416  0.289E-01  0.289E-01
  -0.406  0.293E-01  0.293E-01
  -0.396  0.297E-01  0.297E-01
  -0.386  0.302E-01  0.302E-01
  -0.376  0.307E-01  0.307E-01
  -0.366  0.311E-01  0.311E-01
  -0.356  0.316E-01  0.316E-01
  -0.346  0.322E-01  0.322E-01
  -0.336  0.327E-01  0.327E-01
  -0.326  0.333E-01  0.333E-01
  -0.316  0.339E-01  0.339E-01
  -0.306  0.345E-01  0.345E-01
  -0.296  0.351E-01  0.351E-01
  -0.286  0.357E-01  0.357E-01
  -0.276  0.364E-01  0.364E-01
  -0.266  0.370E-01  0.370E-01
  -0.256  0.377E-01  0.377E-01
  -0.246  0.384E-01  0.384E-01
  -0.236  0.391E-01  0.391E-01
  -0.226  0.398E-01  0.398E-01
  -0.216  0.405E-01  0.405E-01
  -0.206  0.413E-01  0.413E-01
  -0.196  0.420E-01  0.420E-01
  -0.186  0.427E-01  0.427E-01
  -0.176  0.435E-01  0.435E-01
  -0.166  0.442E-01  0.442E-01
  -0.156  0.450E-01  0.450E-01
  -0.146  0.457E-01  0.457E-01
  -0.136  0.465E-01  0.465E-01
  -0.126  0.473E-01  0.473E-01
  -0.116  0.480E-01  0.480E-01
  -0.106  0.488E-01  0.488E-01
  -0.096  0.495E-01  0.495E-01
  -0.086  0.503E-01  0.503E-01
  -0.076  0.510E-01  0.510E-01
  -0.066  0.517E-01  0.517E-01
  -0.056  0.524E-01  0.524E-01
  -0.046  0.532E-01  0.532E-01
  -0.036  0.538E-01  0.538E-01
  -0.026  0.545E-01  0.545E-01
  -0.016  0.552E-01  0.552E-01
  -0.006  0.559E-01  0.559E-01
   0.004  0.565E-01  0.565E-01
   0.014  0.571E-01  0.571E-01
   0.024  0.577E-01  0.577E-01
   0.034  0.583E-01  0.583E-01
   0.044  0.588E-01  0.588E-01
   0.054  0.594E-01  0.594E-01
   0.064  0.599E-01  0.599E-01
   0.074  0.604E-01  0.604E-01
   0.084  0.609E-01  0.609E-01
   0.094  0.613E-01  0.613E-01
   0.104  0.617E-01  0.617E-01
   0.114  0.621E-01  0.621E-01
   0.124  0.625E-01  0.625E-01
   0.134  0.628E-01  0.628E-01
   0.144  0.631E-01  0.631E-01
   0.154  0.634E-01  0.634E-01
   0.164  0.636E-01  0.636E-01
   0.174  0.639E-01  0.639E-01
   0.184  0.641E-01  0.641E-01
   0.194  0.642E-01  0.642E-01
   0.204  0.644E-01  0.644E-01
   0.214  0.645E-01  0.645E-01
   0.224  0.646E-01  0.646E-01
   0.234  0.646E-01  0.646E-01
   0.244  0.646E-01  0.646E-01
   0.254  0.646E-01  0.646E-01
   0.264  0.646E-01  0.646E-01
   0.274  0.645E-01  0.645E-01
   0.284  0.645E-01  0.645E-01
   0.294  0.644E-01  0.644E-01
   0.304  0.642E-01  0.642E-01
   0.314  0.641E-01  0.641E-01
   0.324  0.639E-01  0.639E-01
   0.334  0.637E-01  0.637E-01
   0.344  0.634E-01  0.634E-01
   0.354  0.632E-01  0.632E-01
   0.364  0.629E-01  0.629E-01
   0.374  0.626E-01  0.626E-01
   0.384  0.623E-01  0.623E-01
   0.394  0.620E-01  0.620E-01
   0.404  0.616E-01  0.616E-01
   0.414  0.613E-01  0.613E-01
   0.424  0.609E-01  0.609E-01
   0.434  0.605E-01  0.605E-01
   0.444  0.601E-01  0.601E-01
   0.454  0.597E-01  0.597E-01
   0.464  0.593E-01  0.593E-01
   0.474  0.589E-01  0.589E-01
   0.484  0.585E-01  0.585E-01
   0.494  0.580E-01  0.580E-01
   0.504  0.576E-01  0.576E-01
   0.514  0.571E-01  0.571E-01
   0.524  0.567E-01  0.567E-01
   0.534  0.563E-01  0.563E-01
   0.544  0.558E-01  0.558E-01
   0.554  0.554E-01  0.554E-01
   0.564  0.549E-01  0.549E-01
   0.574  0.545E-01  0.545E-01
   0.584  0.541E-01  0.541E-01
   0.594  0.536E-01  0.536E-01
   0.604  0.532E-01  0.532E-01
   0.614  0.528E-01  0.528E-01
   0.624  0.524E-01  0.524E-01
   0.634  0.520E-01  0.520E-01
   0.644  0.516E-01  0.516E-01
   0.654  0.513E-01  0.513E-01
   0.664  0.509E-01  0.509E-01
   0.674  0.506E-01  0.506E-01
   0.684  0.502E-01  0.502E-01
   0.694  0.499E-01  0.499E-01
   0.704  0.496E-01  0.496E-01
   0.714  0.493E-01  0.493E-01
   0.724  0.491E-01  0.491E-01
   0.734  0.488E-01  0.488E-01
   0.744  0.486E-01  0.486E-01
   0.754  0.483E-01  0.483E-01
   0.764  0.481E-01  0.481E-01
   0.774  0.480E-01  0.480E-01
   0.784  0.478E-01  0.478E-01
   0.794  0.476E-01  0.476E-01
   0.804  0.475E-01  0.475E-01
   0.814  0.474E-01  0.474E-01
   0.824  0.473E-01  0.473E-01
   0.834  0.472E-01  0.472E-01
   0.844  0.472E-01  0.472E-01
   0.854  0.471E-01  0.471E-01
   0.864  0.471E-01  0.471E-01
   0.874  0.471E-01  0.471E-01
   0.884  0.471E-01  0.471E-01
   0.894  0.471E-01  0.471E-01
   0.904  0.471E-01  0.471E-01
   0.914  0.472E-01  0.472E-01
   0.924  0.472E-01  0.472E-01
   0.934  0.473E-01  0.473E-01
   0.944  0.474E-01  0.474E-01
   0.954  0.475E-01  0.475E-01
   0.964  0.476E-01  0.476E-01
   0.974  0.477E-01  0.477E-01
   0.984  0.478E-01  0.478E-01
   0.994  0.480E-01  0.480E-01
   1.004  0.481E-01  0.481E-01
   1.014  0.482E-01  0.482E-01
   1.024  0.484E-01  0.484E-01
   1.034  0.486E-01  0.486E-01
   1.044  0.487E-01  0.487E-01
   1.054  0.489E-01  0.489E-01
   1.064  0.491E-01  0.491E-01
   1.074  0.492E-01  0.492E-01
   1.084  0.494E-01  0.494E-01
   1.094  0.496E-01  0.496E-01
   1.104  0.497E-01  0.497E-01
   1.114  0.499E-01  0.499E-01
   1.124  0.501E-01  0.501E-01
   1.134  0.502E-01  0.502E-01
   1.144  0.504E-01  0.504E-01
   1.154  0.505E-01  0.505E-01
   1.164  0.507E-01  0.507E-01
   1.174  0.508E-01  0.508E-01
   1.184  0.509E-01  0.509E-01
   1.194  0.510E-01  0.510E-01
   1.204  0.511E-01  0.511E-01
   1.214  0.512E-01  0.512E-01
   1.224  0.513E-01  0.513E-01
   1.234  0.514E-01  0.514E-01
   1.244  0.515E-01  0.515E-01
   1.254  0.515E-01  0.515E-01
   1.264  0.515E-01  0.515E-01
   1.274  0.515E-01  0.515E-01
   1.284  0.515E-01  0.515E-01
   1.294  0.515E-01  0.515E-01
   1.304  0.515E-01  0.515E-01
   1.314  0.515E-01  0.515E-01
   1.324  0.514E-01  0.514E-01
   1.334  0.513E-01  0.513E-01
   1.344  0.512E-01  0.512E-01
   1.354  0.511E-01  0.511E-01
   1.364  0.510E-01  0.510E-01
   1.374  0.508E-01  0.508E-01
   1.384  0.507E-01  0.507E-01
   1.394  0.505E-01  0.505E-01
   1.404  0.503E-01  0.503E-01
   1.414  0.500E-01  0.500E-01
   1.424  0.498E-01  0.498E-01
   1.434  0.495E-01  0.495E-01
   1.444  0.493E-01  0.493E-01
   1.454  0.490E-01  0.490E-01
   1.464  0.487E-01  0.487E-01
   1.474  0.483E-01  0.483E-01
   1.484  0.480E-01  0.480E-01
   1.494  0.476E-01  0.476E-01
   1.504  0.472E-01  0.472E-01
   1.514  0.468E-01  0.468E-01
   1.524  0.464E-01  0.464E-01
   1.534  0.460E-01  0.460E-01
   1.544  0.456E-01  0.456E-01
   1.554  0.451E-01  0.451E-01
   1.564  0.447E-01  0.447E-01
   1.574  0.442E-01  0.442E-01
   1.584  0.437E-01  0.437E-01
   1.594  0.432E-01  0.432E-01
   1.604  0.427E-01  0.427E-01
   1.614  0.422E-01  0.422E-01
   1.624  0.416E-01  0.416E-01
   1.634  0.411E-01  0.411E-01
   1.644  0.405E-01  0.405E-01
   1.654  0.400E-01  0.400E-01
   1.664  0.394E-01  0.394E-01
   1.674  0.389E-01  0.389E-01
   1.684  0.383E-01  0.383E-01
   1.694  0.378E-01  0.378E-01
   1.704  0.372E-01  0.372E-01
   1.714  0.366E-01  0.366E-01
   1.724  0.361E-01  0.361E-01
   1.734  0.355E-01  0.355E-01
   1.744  0.349E-01  0.349E-01
   1.754  0.344E-01  0.344E-01
   1.764  0.338E-01  0.338E-01
   1.774  0.333E-01  0.333E-01
   1.784  0.327E-01  0.327E-01
   1.794  0.322E-01  0.322E-01
   1.804  0.317E-01  0.317E-01
   1.814  0.312E-01  0.312E-01
   1.824  0.307E-01  0.307E-01
   1.834  0.302E-01  0.302E-01
   1.844  0.297E-01  0.297E-01
   1.854  0.293E-01  0.293E-01
   1.864  0.288E-01  0.288E-01
   1.874  0.284E-01  0.284E-01
   1.884  0.280E-01  0.280E-01
   1.894  0.276E-01  0.276E-01
   1.904  0.273E-01  0.273E-01
   1.914  0.269E-01  0.269E-01
   1.924  0.266E-01  0.266E-01
   1.934  0.263E-01  0.263E-01
   1.944  0.260E-01  0.260E-01
   1.954  0.258E-01  0.258E-01
   1.964  0.256E-01  0.256E-01
   1.974  0.254E-01  0.254E-01
   1.984  0.252E-01  0.252E-01
   1.994  0.251E-01  0.251E-01
   2.004  0.250E-01  0.250E-01
   2.014  0.249E-01  0.249E-01
   2.024  0.249E-01  0.249E-01
   2.034  0.249E-01  0.249E-01
   2.044  0.249E-01  0.249E-01
   2.054  0.250E-01  0.250E-01
   2.064  0.251E-01  0.251E-01
   2.074  0.252E-01  0.252E-01
   2.084  0.254E-01  0.254E-01
   2.094  0.256E-01  0.256E-01
   2.104  0.259E-01  0.259E-01
   2.114  0.262E-01  0.262E-01
   2.124  0.265E-01  0.265E-01
   2.134  0.268E-01  0.268E-01
   2.144  0.272E-01  0.272E-01
   2.154  0.277E-01  0.277E-01
   2.164  0.281E-01  0.281E-01
   2.174  0.287E-01  0.287E-01
   2.184  0.292E-01  0.292E-01
   2.194  0.298E-01  0.298E-01
   2.204  0.304E-01  0.304E-01
   2.214  0.311E-01  0.311E-01
   2.224  0.318E-01  0.318E-01
   2.234  0.325E-01  0.325E-01
   2.244  0.333E-01  0.333E-01
   2.254  0.341E-01  0.341E-01
   2.264  0.350E-01  0.350E-01
   2.274  0.359E-01  0.359E-01
   2.284  0.368E-01  0.368E-01
   2.294  0.377E-01  0.377E-01
   2.304  0.387E-01  0.387E-01
   2.314  0.398E-01  0.398E-01
   2.324  0.408E-01  0.408E-01
   2.334  0.419E-01  0.419E-01
   2.344  0.430E-01  0.430E-01
   2.354  0.441E-01  0.441E-01
   2.364  0.453E-01  0.453E-01
   2.374  0.465E-01  0.465E-01
   2.384  0.477E-01  0.477E-01
   2.394  0.490E-01  0.490E-01
   2.404  0.503E-01  0.503E-01
   2.414  0.515E-01  0.515E-01
   2.424  0.528E-01  0.528E-01
   2.434  0.542E-01  0.542E-01
   2.444  0.555E-01  0.555E-01
   2.454  0.569E-01  0.569E-01
   2.464  0.582E-01  0.582E-01
   2.474  0.596E-01  0.596E-01
   2.484  0.610E-01  0.610E-01
   2.494  0.624E-01  0.624E-01
   2.504  0.638E-01  0.638E-01
   2.514  0.652E-01  0.652E-01
   2.524  0.666E-01  0.666E-01
   2.534  0.680E-01  0.680E-01
   2.544  0.694E-01  0.694E-01
   2.554  0.708E-01  0.708E-01
   2.564  0.722E-01  0.722E-01
   2.574  0.736E-01  0.736E-01
   2.584  0.750E-01  0.750E-01
   2.594  0.763E-01  0.763E-01
   2.604  0.777E-01  0.777E-01
   2.614  0.790E-01  0.790E-01
   2.624  0.803E-01  0.803E-01
   2.634  0.816E-01  0.816E-01
   2.644  0.829E-01  0.829E-01
   2.654  0.842E-01  0.842E-01
   2.664  0.854E-01  0.854E-01
   2.674  0.866E-01  0.866E-01
   2.684  0.877E-01  0.877E-01
   2.694  0.889E-01  0.889E-01
   2.704  0.900E-01  0.900E-01
   2.714  0.910E-01  0.910E-01
   2.724  0.921E-01  0.921E-01
   2.734  0.930E-01  0.930E-01
   2.744  0.940E-01  0.940E-01
   2.754  0.949E-01  0.949E-01
   2.764  0.958E-01  0.958E-01
   2.774  0.966E-01  0.966E-01
   2.784  0.973E-01  0.973E-01
   2.794  0.981E-01  0.981E-01
   2.804  0.987E-01  0.987E-01
   2.814  0.993E-01  0.993E-01
   2.824  0.999E-01  0.999E-01
   2.834  0.100E+00  0.100E+00
   2.844  0.101E+00  0.101E+00
   2.854  0.101E+00  0.101E+00
   2.864  0.102E+00  0.102E+00
   2.874  0.102E+00  0.102E+00
   2.884  0.102E+00  0.102E+00
   2.894  0.102E+00  0.102E+00
   2.904  0.102E+00  0.102E+00
   2.914  0.103E+00  0.103E+00
   2.924  0.103E+00  0.103E+00
   2.934  0.103E+00  0.103E+00
   2.944  0.102E+00  0.102E+00
   2.954  0.102E+00  0.102E+00
   2.964  0.102E+00  0.102E+00
   2.974  0.102E+00  0.102E+00
   2.984  0.101E+00  0.101E+00
   2.994  0.101E+00  0.101E+00
   3.004  0.101E+00  0.101E+00
   3.014  0.100E+00  0.100E+00
   3.024  0.995E-01  0.995E-01
   3.034  0.988E-01  0.988E-01
   3.044  0.982E-01  0.982E-01
   3.054  0.974E-01  0.974E-01
   3.064  0.966E-01  0.966E-01
   3.074  0.958E-01  0.958E-01
   3.084  0.949E-01  0.949E-01
   3.094  0.940E-01  0.940E-01
   3.104  0.930E-01  0.930E-01
   3.114  0.920E-01  0.920E-01
   3.124  0.909E-01  0.909E-01
   3.134  0.898E-01  0.898E-01
   3.144  0.886E-01  0.886E-01
   3.154  0.874E-01  0.874E-01
   3.164  0.862E-01  0.862E-01
   3.174  0.849E-01  0.849E-01
   3.184  0.836E-01  0.836E-01
   3.194  0.822E-01  0.822E-01
   3.204  0.809E-01  0.809E-01
   3.214  0.795E-01  0.795E-01
   3.224  0.780E-01  0.780E-01
   3.234  0.765E-01  0.765E-01
   3.244  0.751E-01  0.751E-01
   3.254  0.735E-01  0.735E-01
   3.264  0.720E-01  0.720E-01
   3.274  0.705E-01  0.705E-01
   3.284  0.689E-01  0.689E-01
   3.294  0.673E-01  0.673E-01
   3.304  0.657E-01  0.657E-01
   3.314  0.641E-01  0.641E-01
   3.324  0.625E-01  0.625E-01
   3.334  0.609E-01  0.609E-01
   3.344  0.592E-01  0.592E-01
   3.354  0.576E-01  0.576E-01
   3.364  0.560E-01  0.560E-01
   3.374  0.543E-01  0.543E-01
   3.384  0.527E-01  0.527E-01
   3.394  0.511E-01  0.511E-01
   3.404  0.495E-01  0.495E-01
   3.414  0.479E-01  0.479E-01
   3.424  0.462E-01  0.462E-01
   3.434  0.447E-01  0.447E-01
   3.444  0.431E-01  0.431E-01
   3.454  0.415E-01  0.415E-01
   3.464  0.399E-01  0.399E-01
   3.474  0.384E-01  0.384E-01
   3.484  0.369E-01  0.369E-01
   3.494  0.354E-01  0.354E-01
   3.504  0.339E-01  0.339E-01
   3.514  0.324E-01  0.324E-01
   3.524  0.310E-01  0.310E-01
   3.534  0.296E-01  0.296E-01
   3.544  0.282E-01  0.282E-01
   3.554  0.268E-01  0.268E-01
   3.564  0.255E-01  0.255E-01
   3.574  0.242E-01  0.242E-01
   3.584  0.229E-01  0.229E-01
   3.594  0.217E-01  0.217E-01
   3.604  0.204E-01  0.204E-01
   3.614  0.193E-01  0.193E-01
   3.624  0.181E-01  0.181E-01
   3.634  0.170E-01  0.170E-01
   3.644  0.159E-01  0.159E-01
   3.654  0.148E-01  0.148E-01
   3.664  0.137E-01  0.137E-01
   3.674  0.127E-01  0.127E-01
   3.684  0.118E-01  0.118E-01
   3.694  0.108E-01  0.108E-01
   3.704  0.991E-02  0.991E-02
   3.714  0.903E-02  0.903E-02
   3.724  0.818E-02  0.818E-02
   3.734  0.736E-02  0.736E-02
   3.744  0.658E-02  0.658E-02
   3.754  0.583E-02  0.583E-02
   3.764  0.511E-02  0.511E-02
   3.774  0.441E-02  0.441E-02
   3.784  0.375E-02  0.375E-02
   3.794  0.312E-02  0.312E-02
   3.804  0.252E-02  0.252E-02
   3.814  0.195E-02  0.195E-02
   3.824  0.141E-02  0.141E-02
   3.834  0.890E-03  0.890E-03
   3.844  0.402E-03  0.402E-03
   3.854 -0.583E-04 -0.583E-04
   3.864 -0.493E-03 -0.493E-03
   3.874 -0.901E-03 -0.901E-03
   3.884 -0.128E-02 -0.128E-02
   3.894 -0.164E-02 -0.164E-02
   3.904 -0.198E-02 -0.198E-02
   3.914 -0.229E-02 -0.229E-02
   3.924 -0.258E-02 -0.258E-02
   3.934 -0.285E-02 -0.285E-02
   3.944 -0.309E-02 -0.309E-02
   3.954 -0.332E-02 -0.332E-02
   3.964 -0.352E-02 -0.352E-02
   3.974 -0.371E-02 -0.371E-02
   3.984 -0.388E-02 -0.388E-02
   3.994 -0.403E-02 -0.403E-02
   4.004 -0.417E-02 -0.417E-02
   4.014 -0.428E-02 -0.428E-02
   4.024 -0.439E-02 -0.439E-02
   4.034 -0.448E-02 -0.448E-02
   4.044 -0.455E-02 -0.455E-02
   4.054 -0.461E-02 -0.461E-02
   4.064 -0.466E-02 -0.466E-02
   4.074 -0.469E-02 -0.469E-02
   4.084 -0.472E-02 -0.472E-02
   4.094 -0.473E-02 -0.473E-02
   4.104 -0.474E-02 -0.474E-02
   4.114 -0.473E-02 -0.473E-02
   4.124 -0.472E-02 -0.472E-02
   4.134 -0.469E-02 -0.469E-02
   4.144 -0.466E-02 -0.466E-02
   4.154 -0.462E-02 -0.462E-02
   4.164 -0.458E-02 -0.458E-02
   4.174 -0.453E-02 -0.453E-02
   4.184 -0.447E-02 -0.447E-02
   4.194 -0.441E-02 -0.441E-02
   4.204 -0.434E-02 -0.434E-02
   4.214 -0.427E-02 -0.427E-02
   4.224 -0.420E-02 -0.420E-02
   4.234 -0.412E-02 -0.412E-02
   4.244 -0.404E-02 -0.404E-02
   4.254 -0.396E-02 -0.396E-02
   4.264 -0.387E-02 -0.387E-02
   4.274 -0.378E-02 -0.378E-02
   4.284 -0.369E-02 -0.369E-02
   4.294 -0.360E-02 -0.360E-02
   4.304 -0.351E-02 -0.351E-02
   4.314 -0.342E-02 -0.342E-02
   4.324 -0.332E-02 -0.332E-02
   4.334 -0.323E-02 -0.323E-02
   4.344 -0.314E-02 -0.314E-02
   4.354 -0.304E-02 -0.304E-02
   4.364 -0.295E-02 -0.295E-02
   4.374 -0.286E-02 -0.286E-02
   4.384 -0.277E-02 -0.277E-02
   4.394 -0.268E-02 -0.268E-02
   4.404 -0.259E-02 -0.259E-02
   4.414 -0.250E-02 -0.250E-02
   4.424 -0.241E-02 -0.241E-02
   4.434 -0.232E-02 -0.232E-02
   4.444 -0.224E-02 -0.224E-02
   4.454 -0.216E-02 -0.216E-02
   4.464 -0.207E-02 -0.207E-02
   4.474 -0.199E-02 -0.199E-02
   4.484 -0.192E-02 -0.192E-02
   4.494 -0.184E-02 -0.184E-02
   4.504 -0.177E-02 -0.177E-02
   4.514 -0.169E-02 -0.169E-02
   4.524 -0.162E-02 -0.162E-02
   4.534 -0.155E-02 -0.155E-02
   4.544 -0.149E-02 -0.149E-02
   4.554 -0.142E-02 -0.142E-02
   4.564 -0.136E-02 -0.136E-02
   4.574 -0.130E-02 -0.130E-02
   4.584 -0.124E-02 -0.124E-02
   4.594 -0.118E-02 -0.118E-02
   4.604 -0.113E-02 -0.113E-02
   4.614 -0.107E-02 -0.107E-02
   4.624 -0.102E-02 -0.102E-02
   4.634 -0.974E-03 -0.974E-03
   4.644 -0.926E-03 -0.926E-03
   4.654 -0.881E-03 -0.881E-03
   4.664 -0.837E-03 -0.837E-03
   4.674 -0.795E-03 -0.795E-03
   4.684 -0.754E-03 -0.754E-03
   4.694 -0.715E-03 -0.715E-03
   4.704 -0.678E-03 -0.678E-03
   4.714 -0.642E-03 -0.642E-03
   4.724 -0.608E-03 -0.608E-03
   4.734 -0.576E-03 -0.576E-03
   4.744 -0.544E-03 -0.544E-03
   4.754 -0.515E-03 -0.515E-03
   4.764 -0.486E-03 -0.486E-03
   4.774 -0.459E-03 -0.459E-03
   4.784 -0.433E-03 -0.433E-03
   4.794 -0.409E-03 -0.409E-03
   4.804 -0.385E-03 -0.385E-03
   4.814 -0.363E-03 -0.363E-03
   4.824 -0.342E-03 -0.342E-03
   4.834 -0.322E-03 -0.322E-03
   4.844 -0.303E-03 -0.303E-03
   4.854 -0.285E-03 -0.285E-03
   4.864 -0.267E-03 -0.267E-03
   4.874 -0.251E-03 -0.251E-03
   4.884 -0.236E-03 -0.236E-03
   4.894 -0.221E-03 -0.221E-03
   4.904 -0.207E-03 -0.207E-03
   4.914 -0.194E-03 -0.194E-03
   4.924 -0.182E-03 -0.182E-03
   4.934 -0.171E-03 -0.171E-03
   4.944 -0.160E-03 -0.160E-03
   4.954 -0.149E-03 -0.149E-03
   4.964 -0.140E-03 -0.140E-03
   4.974 -0.130E-03 -0.130E-03
   4.984 -0.122E-03 -0.122E-03
   4.994 -0.114E-03 -0.114E-03
   5.004 -0.106E-03 -0.106E-03
   5.014 -0.989E-04 -0.989E-04
   5.024 -0.922E-04 -0.922E-04
   5.034 -0.859E-04 -0.859E-04
   5.044 -0.800E-04 -0.800E-04
   5.054 -0.744E-04 -0.744E-04
   5.064 -0.692E-04 -0.692E-04
   5.074 -0.644E-04 -0.644E-04
   5.084 -0.598E-04 -0.598E-04
   5.094 -0.555E-04 -0.555E-04
   5.104 -0.516E-04 -0.516E-04
   5.114 -0.478E-04 -0.478E-04
   5.124 -0.444E-04 -0.444E-04
   5.134 -0.411E-04 -0.411E-04
   5.144 -0.381E-04 -0.381E-04
   5.154 -0.353E-04 -0.353E-04
   5.164 -0.327E-04 -0.327E-04
   5.174 -0.302E-04 -0.302E-04
   5.184 -0.279E-04 -0.279E-04
   5.194 -0.258E-04 -0.258E-04
   5.204 -0.239E-04 -0.239E-04
   5.214 -0.220E-04 -0.220E-04
   5.224 -0.203E-04 -0.203E-04
   5.234 -0.188E-04 -0.188E-04
   5.244 -0.173E-04 -0.173E-04
   5.254 -0.159E-04 -0.159E-04
   5.264 -0.147E-04 -0.147E-04
   5.274 -0.135E-04 -0.135E-04
   5.284 -0.124E-04 -0.124E-04
   5.294 -0.114E-04 -0.114E-04
